»»»»»»»»»»»»»»»»»»»»»»»»»»»»»»»»»»»» Hysteresis ««««««««««««««««««««««««««««««««««««
»»»  Executed Version:	5.48.1
»»»  Vision Version:	5.48.4 (R)
»»»  Vision Compiled:	9/18/24
»»»  Driver Version:	5.47.0
»»»  Windows Version:	Windows 8 or 8.1
»»»  Processor Information:	x86 (AMD or Intel) - 32 Processors
»»»  Tester Name:	PMF21124-494 (100V)
»»»  Tester S/N:	PMF21124-494
»»»  Internal Amp Type:	100V RevK 270k
»»»  Internal Amp S/N:	iAB2-596/K     
»»»  Execution Count:	1
»»»»»»»»»»»»»»»»»»»»»»»»»»»»»»»»»»»»»»»»»»««««««««««««««««««««««««««««««««««««««««««

Stored:	6/25/2025 - 14:39:56
Configured:	06/25/25 10:44:40 AM
Executed:	06/25/25 02:39:17 PM

»»»»»»»»»»»»»»»»»»»»»»»»»»»»»»»»»»» Sample Info ««««««««««««««««««««««««««««««««««««
Sample Name:	
Lot Name:	
Wafer Name:	
Die Row/Column:	0/0
Capacitor Number:	0
Sample Area (cm2):	1.00e-04
Sample Thickness (microns):	1.50e-01

Amplifier:	Internal

»»»»»»»»»»»»»»»»»»»»»»»»»»»»»»»»»»» Tester Info «««««««««««««««««««««««««««««««««««
Tester Name:	PMF21124-494 (100V)
Tester Serial Number:	PMF21124-494
Return Signal Amp. Level:	1.9 [Index: 2]

»»»»»»»»»»»»»»»»»»»»»»»»»»»»»»»» Hysteresis Info ««««««««««««««««««««««««««««««««««
Task Name:	Hyst-116
Volts:	10.00
Field:	666.67 (kV/cm)
DCBias:	0.00
DCField:	0.00 (kV/cm)
Hysteresis Period (ms):	2.00e+02
Preset:	Enabled
Preset Delay (ms):	1.00e+03
Profile:	Standard Monopolar

»»»»»»»»»»»»»»»»»»»»»»»»»»»»»»»»»»»»»» Data «««««««««««««««««««««««««««««««««««««««
Points:	2011

Valid Data

Point	Time (ms)	Drive Voltage	Measured Polarization (uC/cm2)	Capacitance (uF)	Normalized Capacitance (uF/cm2)	Dielectric Constant	Instantaneous Current (mA)
   1	0.0000e+00	-0.0033	-16.288610	0.000405	4.054556	0.686860	0.000041
   2	9.9500e-02	0.0064	-16.248283	0.000405	4.054556	0.686860	0.000041
   3	1.9900e-01	0.0135	-16.203068	0.000455	4.546017	0.770116	0.000045
   4	2.9850e-01	0.0274	-16.163556	0.000397	3.972646	0.672984	0.000040
   5	3.9800e-01	0.0346	-16.124044	0.000397	3.972646	0.672984	0.000040
   6	4.9750e-01	0.0469	-16.080458	0.000438	4.382197	0.742364	0.000044
   7	5.9700e-01	0.0533	-16.034836	0.000459	4.586973	0.777054	0.000046
   8	6.9650e-01	0.0639	-15.992880	0.000422	4.218377	0.714612	0.000042
   9	7.9600e-01	0.0754	-15.950516	0.000426	4.259332	0.721550	0.000043
  10	8.9550e-01	0.0854	-15.910189	0.000405	4.054556	0.686860	0.000041
  11	9.9500e-01	0.0974	-15.868233	0.000422	4.218377	0.714612	0.000042
  12	1.0945e+00	0.1045	-15.822203	0.000463	4.627928	0.783992	0.000046
  13	1.1940e+00	0.1163	-15.779839	0.000426	4.259332	0.721550	0.000043
  14	1.2935e+00	0.1232	-15.739920	0.000401	4.013601	0.679922	0.000040
  15	1.3930e+00	0.1330	-15.697964	0.000422	4.218377	0.714612	0.000042
  16	1.4925e+00	0.1482	-15.653156	0.000451	4.505062	0.763178	0.000045
  17	1.5920e+00	0.1544	-15.613644	0.000397	3.972646	0.672984	0.000040
  18	1.6915e+00	0.1644	-15.571280	0.000426	4.259332	0.721550	0.000043
  19	1.7910e+00	0.1752	-15.527694	0.000438	4.382197	0.742364	0.000044
  20	1.8905e+00	0.1846	-15.483294	0.000446	4.464107	0.756240	0.000045
  21	1.9900e+00	0.1956	-15.440930	0.000426	4.259332	0.721550	0.000043
  22	2.0895e+00	0.2034	-15.398567	0.000426	4.259332	0.721550	0.000043
  23	2.1890e+00	0.2144	-15.355388	0.000434	4.341242	0.735426	0.000043
  24	2.2885e+00	0.2246	-15.314654	0.000410	4.095511	0.693798	0.000041
  25	2.3880e+00	0.2351	-15.270661	0.000442	4.423152	0.749302	0.000044
  26	2.4875e+00	0.2449	-15.229112	0.000418	4.177421	0.707674	0.000042
  27	2.5870e+00	0.2551	-15.188785	0.000405	4.054556	0.686860	0.000041
  28	2.6865e+00	0.2682	-15.142756	0.000463	4.627928	0.783992	0.000046
  29	2.7860e+00	0.2731	-15.107724	0.000352	3.522140	0.596667	0.000035
  30	2.8855e+00	0.2828	-15.066175	0.000418	4.177421	0.707674	0.000042
  31	2.9850e+00	0.2948	-15.022590	0.000438	4.382197	0.742364	0.000044
  32	3.0845e+00	0.3051	-14.983077	0.000397	3.972646	0.672984	0.000040
  33	3.1840e+00	0.3158	-14.940306	0.000430	4.300287	0.728488	0.000043
  34	3.2835e+00	0.3224	-14.901202	0.000393	3.931691	0.666046	0.000039
  35	3.3830e+00	0.3351	-14.857209	0.000442	4.423152	0.749302	0.000044
  36	3.4825e+00	0.3458	-14.816474	0.000410	4.095511	0.693798	0.000041
  37	3.5820e+00	0.3527	-14.773703	0.000430	4.300287	0.728488	0.000043
  38	3.6815e+00	0.3619	-14.730932	0.000430	4.300287	0.728488	0.000043
  39	3.7810e+00	0.3726	-14.693050	0.000381	3.808825	0.645232	0.000038
  40	3.8805e+00	0.3827	-14.652315	0.000410	4.095511	0.693798	0.000041
  41	3.9800e+00	0.3920	-14.607508	0.000451	4.505062	0.763178	0.000045
  42	4.0795e+00	0.4054	-14.567588	0.000401	4.013601	0.679922	0.000040
  43	4.1790e+00	0.4152	-14.521966	0.000459	4.586973	0.777054	0.000046
  44	4.2785e+00	0.4249	-14.484490	0.000377	3.767870	0.638295	0.000038
  45	4.3780e+00	0.4329	-14.440090	0.000446	4.464107	0.756240	0.000045
  46	4.4775e+00	0.4411	-14.397726	0.000426	4.259332	0.721550	0.000043
  47	4.5770e+00	0.4522	-14.358214	0.000397	3.972646	0.672984	0.000040
  48	4.6765e+00	0.4634	-14.314221	0.000442	4.423152	0.749302	0.000044
  49	4.7760e+00	0.4778	-14.271043	0.000434	4.341242	0.735426	0.000043
  50	4.8755e+00	0.4832	-14.227050	0.000442	4.423152	0.749302	0.000044
  51	4.9750e+00	0.4929	-14.182242	0.000451	4.505062	0.763178	0.000045
  52	5.0745e+00	0.5026	-14.139878	0.000426	4.259332	0.721550	0.000043
  53	5.1740e+00	0.5130	-14.094663	0.000455	4.546017	0.770116	0.000045
  54	5.2735e+00	0.5238	-14.050263	0.000446	4.464107	0.756240	0.000045
  55	5.3730e+00	0.5333	-14.004641	0.000459	4.586973	0.777054	0.000046
  56	5.4725e+00	0.5428	-13.959426	0.000455	4.546017	0.770116	0.000045
  57	5.5720e+00	0.5552	-13.915433	0.000442	4.423152	0.749302	0.000044
  58	5.6715e+00	0.5634	-13.869810	0.000459	4.586973	0.777054	0.000046
  59	5.7710e+00	0.5679	-13.826225	0.000438	4.382197	0.742364	0.000044
  60	5.8705e+00	0.5818	-13.783046	0.000434	4.341242	0.735426	0.000043
  61	5.9700e+00	0.5927	-13.741497	0.000418	4.177421	0.707674	0.000042
  62	6.0695e+00	0.6028	-13.692209	0.000496	4.955569	0.839496	0.000050
  63	6.1690e+00	0.6132	-13.647401	0.000451	4.505062	0.763178	0.000045
  64	6.2685e+00	0.6222	-13.606260	0.000414	4.136466	0.700736	0.000041
  65	6.3680e+00	0.6345	-13.557786	0.000487	4.873658	0.825620	0.000049
  66	6.4675e+00	0.6422	-13.513793	0.000442	4.423152	0.749302	0.000044
  67	6.5670e+00	0.6548	-13.474688	0.000393	3.931691	0.666046	0.000039
  68	6.6665e+00	0.6638	-13.428251	0.000467	4.668883	0.790930	0.000047
  69	6.7660e+00	0.6679	-13.380999	0.000475	4.750793	0.804806	0.000047
  70	6.8655e+00	0.6799	-13.338228	0.000430	4.300287	0.728488	0.000043
  71	6.9650e+00	0.6929	-13.295457	0.000430	4.300287	0.728488	0.000043
  72	7.0645e+00	0.7043	-13.249020	0.000467	4.668883	0.790930	0.000047
  73	7.1640e+00	0.7136	-13.208286	0.000410	4.095511	0.693798	0.000041
  74	7.2635e+00	0.7229	-13.167959	0.000405	4.054556	0.686860	0.000041
  75	7.3630e+00	0.7331	-13.126003	0.000422	4.218377	0.714612	0.000042
  76	7.4625e+00	0.7435	-13.077122	0.000491	4.914613	0.832558	0.000049
  77	7.5620e+00	0.7512	-13.035980	0.000414	4.136466	0.700736	0.000041
  78	7.6615e+00	0.7593	-12.995246	0.000410	4.095511	0.693798	0.000041
  79	7.7610e+00	0.7707	-12.951660	0.000438	4.382197	0.742364	0.000044
  80	7.8605e+00	0.7813	-12.909704	0.000422	4.218377	0.714612	0.000042
  81	7.9600e+00	0.7922	-12.864896	0.000451	4.505062	0.763178	0.000045
  82	8.0595e+00	0.8026	-12.821718	0.000434	4.341242	0.735426	0.000043
  83	8.1590e+00	0.8089	-12.779354	0.000426	4.259332	0.721550	0.000043
  84	8.2585e+00	0.8231	-12.741064	0.000385	3.849781	0.652170	0.000038
  85	8.3580e+00	0.8337	-12.695034	0.000463	4.627928	0.783992	0.000046
  86	8.4575e+00	0.8442	-12.654707	0.000405	4.054556	0.686860	0.000041
  87	8.5570e+00	0.8509	-12.611122	0.000438	4.382197	0.742364	0.000044
  88	8.6565e+00	0.8611	-12.565499	0.000459	4.586973	0.777054	0.000046
  89	8.7560e+00	0.8711	-12.523543	0.000422	4.218377	0.714612	0.000042
  90	8.8555e+00	0.8811	-12.483624	0.000401	4.013601	0.679922	0.000040
  91	8.9550e+00	0.8923	-12.441667	0.000422	4.218377	0.714612	0.000042
  92	9.0545e+00	0.9013	-12.399304	0.000426	4.259332	0.721550	0.000043
  93	9.1540e+00	0.9106	-12.358569	0.000410	4.095511	0.693798	0.000041
  94	9.2535e+00	0.9206	-12.315391	0.000434	4.341242	0.735426	0.000043
  95	9.3530e+00	0.9346	-12.270583	0.000451	4.505062	0.763178	0.000045
  96	9.4525e+00	0.9402	-12.231478	0.000393	3.931691	0.666046	0.000039
  97	9.5520e+00	0.9527	-12.185856	0.000459	4.586973	0.777054	0.000046
  98	9.6515e+00	0.9623	-12.147566	0.000385	3.849781	0.652170	0.000038
  99	9.7510e+00	0.9707	-12.106017	0.000418	4.177421	0.707674	0.000042
 100	9.8505e+00	0.9771	-12.062431	0.000438	4.382197	0.742364	0.000044
 101	9.9500e+00	0.9911	-12.022104	0.000405	4.054556	0.686860	0.000041
 102	1.0050e+01	0.9995	-11.981370	0.000410	4.095511	0.693798	0.000041
 103	1.0149e+01	1.0081	-11.936155	0.000455	4.546017	0.770116	0.000045
 104	1.0248e+01	1.0213	-11.898272	0.000381	3.808825	0.645232	0.000038
 105	1.0348e+01	1.0287	-11.853057	0.000455	4.546017	0.770116	0.000045
 106	1.0447e+01	1.0404	-11.811916	0.000414	4.136466	0.700736	0.000041
 107	1.0547e+01	1.0505	-11.771589	0.000405	4.054556	0.686860	0.000041
 108	1.0646e+01	1.0616	-11.730854	0.000410	4.095511	0.693798	0.000041
 109	1.0746e+01	1.0679	-11.691750	0.000393	3.931691	0.666046	0.000039
 110	1.0845e+01	1.0803	-11.644498	0.000475	4.750793	0.804806	0.000047
 111	1.0945e+01	1.0909	-11.602949	0.000418	4.177421	0.707674	0.000042
 112	1.1044e+01	1.0995	-11.559771	0.000434	4.341242	0.735426	0.000043
 113	1.1144e+01	1.1115	-11.517000	0.000430	4.300287	0.728488	0.000043
 114	1.1243e+01	1.1204	-11.472599	0.000446	4.464107	0.756240	0.000045
 115	1.1343e+01	1.1303	-11.431050	0.000418	4.177421	0.707674	0.000042
 116	1.1443e+01	1.1404	-11.389094	0.000422	4.218377	0.714612	0.000042
 117	1.1542e+01	1.1510	-11.348360	0.000410	4.095511	0.693798	0.000041
 118	1.1642e+01	1.1629	-11.308033	0.000405	4.054556	0.686860	0.000041
 119	1.1741e+01	1.1666	-11.266484	0.000418	4.177421	0.707674	0.000042
 120	1.1841e+01	1.1794	-11.220862	0.000459	4.586973	0.777054	0.000046
 121	1.1940e+01	1.1885	-11.177683	0.000434	4.341242	0.735426	0.000043
 122	1.2040e+01	1.1995	-11.135727	0.000422	4.218377	0.714612	0.000042
 123	1.2139e+01	1.2100	-11.095807	0.000401	4.013601	0.679922	0.000040
 124	1.2239e+01	1.2190	-11.053851	0.000422	4.218377	0.714612	0.000042
 125	1.2338e+01	1.2307	-11.010673	0.000434	4.341242	0.735426	0.000043
 126	1.2438e+01	1.2390	-10.967902	0.000430	4.300287	0.728488	0.000043
 127	1.2537e+01	1.2490	-10.929612	0.000385	3.849781	0.652170	0.000038
 128	1.2636e+01	1.2585	-10.888063	0.000418	4.177421	0.707674	0.000042
 129	1.2736e+01	1.2725	-10.850587	0.000377	3.767870	0.638295	0.000038
 130	1.2835e+01	1.2795	-10.808631	0.000422	4.218377	0.714612	0.000042
 131	1.2935e+01	1.2887	-10.767897	0.000410	4.095511	0.693798	0.000041
 132	1.3034e+01	1.2978	-10.728792	0.000393	3.931691	0.666046	0.000039
 133	1.3134e+01	1.3070	-10.687650	0.000414	4.136466	0.700736	0.000041
 134	1.3233e+01	1.3170	-10.648545	0.000393	3.931691	0.666046	0.000039
 135	1.3333e+01	1.3295	-10.608218	0.000405	4.054556	0.686860	0.000041
 136	1.3432e+01	1.3374	-10.568299	0.000401	4.013601	0.679922	0.000040
 137	1.3532e+01	1.3503	-10.533267	0.000352	3.522140	0.596667	0.000035
 138	1.3632e+01	1.3589	-10.492940	0.000405	4.054556	0.686860	0.000041
 139	1.3731e+01	1.3712	-10.457502	0.000356	3.563095	0.603605	0.000036
 140	1.3831e+01	1.3802	-10.415953	0.000418	4.177421	0.707674	0.000042
 141	1.3930e+01	1.3879	-10.379699	0.000365	3.645005	0.617481	0.000036
 142	1.4030e+01	1.3998	-10.338558	0.000414	4.136466	0.700736	0.000041
 143	1.4129e+01	1.4117	-10.301489	0.000373	3.726915	0.631357	0.000037
 144	1.4229e+01	1.4188	-10.261977	0.000397	3.972646	0.672984	0.000040
 145	1.4328e+01	1.4263	-10.221650	0.000405	4.054556	0.686860	0.000041
 146	1.4428e+01	1.4385	-10.185397	0.000365	3.645005	0.617481	0.000036
 147	1.4527e+01	1.4475	-10.142626	0.000430	4.300287	0.728488	0.000043
 148	1.4627e+01	1.4576	-10.110853	0.000319	3.194499	0.541163	0.000032
 149	1.4726e+01	1.4684	-10.073378	0.000377	3.767870	0.638295	0.000038
 150	1.4825e+01	1.4783	-10.036309	0.000373	3.726915	0.631357	0.000037
 151	1.4925e+01	1.4864	-9.995168	0.000414	4.136466	0.700736	0.000041
 152	1.5024e+01	1.4990	-9.956063	0.000393	3.931691	0.666046	0.000039
 153	1.5124e+01	1.5083	-9.921032	0.000352	3.522140	0.596667	0.000035
 154	1.5223e+01	1.5160	-9.880297	0.000410	4.095511	0.693798	0.000041
 155	1.5323e+01	1.5262	-9.843229	0.000373	3.726915	0.631357	0.000037
 156	1.5422e+01	1.5388	-9.801680	0.000418	4.177421	0.707674	0.000042
 157	1.5522e+01	1.5476	-9.769500	0.000324	3.235454	0.548101	0.000032
 158	1.5621e+01	1.5588	-9.724692	0.000451	4.505062	0.763178	0.000045
 159	1.5721e+01	1.5656	-9.684365	0.000405	4.054556	0.686860	0.000041
 160	1.5820e+01	1.5804	-9.647705	0.000369	3.685960	0.624419	0.000037
 161	1.5920e+01	1.5873	-9.609414	0.000385	3.849781	0.652170	0.000038
 162	1.6020e+01	1.5980	-9.567051	0.000426	4.259332	0.721550	0.000043
 163	1.6119e+01	1.6084	-9.528353	0.000389	3.890736	0.659108	0.000039
 164	1.6218e+01	1.6175	-9.492507	0.000360	3.604050	0.610543	0.000036
 165	1.6318e+01	1.6262	-9.457883	0.000348	3.481185	0.589729	0.000035
 166	1.6418e+01	1.6396	-9.414297	0.000438	4.382197	0.742364	0.000044
 167	1.6517e+01	1.6470	-9.378044	0.000365	3.645005	0.617481	0.000036
 168	1.6616e+01	1.6566	-9.338532	0.000397	3.972646	0.672984	0.000040
 169	1.6716e+01	1.6671	-9.299019	0.000397	3.972646	0.672984	0.000040
 170	1.6816e+01	1.6776	-9.260729	0.000385	3.849781	0.652170	0.000038
 171	1.6915e+01	1.6870	-9.222032	0.000389	3.890736	0.659108	0.000039
 172	1.7015e+01	1.6986	-9.182112	0.000401	4.013601	0.679922	0.000040
 173	1.7114e+01	1.7083	-9.144637	0.000377	3.767870	0.638295	0.000038
 174	1.7213e+01	1.7148	-9.105939	0.000389	3.890736	0.659108	0.000039
 175	1.7313e+01	1.7246	-9.068464	0.000377	3.767870	0.638295	0.000038
 176	1.7413e+01	1.7382	-9.024878	0.000438	4.382197	0.742364	0.000044
 177	1.7512e+01	1.7440	-8.989846	0.000352	3.522140	0.596667	0.000035
 178	1.7611e+01	1.7564	-8.950334	0.000397	3.972646	0.672984	0.000040
 179	1.7711e+01	1.7660	-8.911229	0.000393	3.931691	0.666046	0.000039
 180	1.7811e+01	1.7782	-8.872532	0.000389	3.890736	0.659108	0.000039
 181	1.7910e+01	1.7869	-8.836278	0.000365	3.645005	0.617481	0.000036
 182	1.8009e+01	1.7971	-8.794729	0.000418	4.177421	0.707674	0.000042
 183	1.8109e+01	1.8101	-8.758883	0.000360	3.604050	0.610543	0.000036
 184	1.8209e+01	1.8166	-8.717334	0.000418	4.177421	0.707674	0.000042
 185	1.8308e+01	1.8259	-8.681081	0.000365	3.645005	0.617481	0.000036
 186	1.8407e+01	1.8351	-8.637495	0.000438	4.382197	0.742364	0.000044
 187	1.8507e+01	1.8468	-8.598798	0.000389	3.890736	0.659108	0.000039
 188	1.8607e+01	1.8550	-8.561729	0.000373	3.726915	0.631357	0.000037
 189	1.8706e+01	1.8642	-8.520995	0.000410	4.095511	0.693798	0.000041
 190	1.8805e+01	1.8767	-8.483520	0.000377	3.767870	0.638295	0.000038
 191	1.8905e+01	1.8839	-8.445229	0.000385	3.849781	0.652170	0.000038
 192	1.9005e+01	1.8961	-8.405717	0.000397	3.972646	0.672984	0.000040
 193	1.9104e+01	1.9090	-8.367020	0.000389	3.890736	0.659108	0.000039
 194	1.9203e+01	1.9138	-8.333210	0.000340	3.399274	0.575853	0.000034
 195	1.9303e+01	1.9266	-8.294920	0.000385	3.849781	0.652170	0.000038
 196	1.9402e+01	1.9355	-8.259481	0.000356	3.563095	0.603605	0.000036
 197	1.9502e+01	1.9482	-8.220784	0.000389	3.890736	0.659108	0.000039
 198	1.9602e+01	1.9543	-8.184123	0.000369	3.685960	0.624419	0.000037
 199	1.9701e+01	1.9669	-8.149906	0.000344	3.440229	0.582791	0.000034
 200	1.9800e+01	1.9755	-8.113653	0.000365	3.645005	0.617481	0.000036
 201	1.9900e+01	1.9865	-8.074955	0.000389	3.890736	0.659108	0.000039
 202	2.0000e+01	1.9966	-8.037887	0.000373	3.726915	0.631357	0.000037
 203	2.0099e+01	2.0059	-7.998375	0.000397	3.972646	0.672984	0.000040
 204	2.0198e+01	2.0161	-7.962529	0.000360	3.604050	0.610543	0.000036
 205	2.0298e+01	2.0265	-7.927090	0.000356	3.563095	0.603605	0.000036
 206	2.0398e+01	2.0345	-7.889207	0.000381	3.808825	0.645232	0.000038
 207	2.0497e+01	2.0423	-7.850102	0.000393	3.931691	0.666046	0.000039
 208	2.0596e+01	2.0548	-7.812626	0.000377	3.767870	0.638295	0.000038
 209	2.0696e+01	2.0647	-7.778410	0.000344	3.440229	0.582791	0.000034
 210	2.0796e+01	2.0721	-7.739712	0.000389	3.890736	0.659108	0.000039
 211	2.0895e+01	2.0837	-7.697349	0.000426	4.259332	0.721550	0.000043
 212	2.0994e+01	2.0965	-7.665168	0.000324	3.235454	0.548101	0.000032
 213	2.1094e+01	2.1059	-7.628915	0.000365	3.645005	0.617481	0.000036
 214	2.1194e+01	2.1154	-7.586144	0.000430	4.300287	0.728488	0.000043
 215	2.1293e+01	2.1236	-7.549483	0.000369	3.685960	0.624419	0.000037
 216	2.1392e+01	2.1371	-7.514044	0.000356	3.563095	0.603605	0.000036
 217	2.1492e+01	2.1439	-7.474125	0.000401	4.013601	0.679922	0.000040
 218	2.1591e+01	2.1563	-7.432983	0.000414	4.136466	0.700736	0.000041
 219	2.1691e+01	2.1640	-7.394693	0.000385	3.849781	0.652170	0.000038
 220	2.1791e+01	2.1745	-7.353959	0.000410	4.095511	0.693798	0.000041
 221	2.1890e+01	2.1828	-7.311595	0.000426	4.259332	0.721550	0.000043
 222	2.1989e+01	2.1925	-7.274934	0.000369	3.685960	0.624419	0.000037
 223	2.2089e+01	2.2042	-7.232163	0.000430	4.300287	0.728488	0.000043
 224	2.2189e+01	2.2156	-7.197132	0.000352	3.522140	0.596667	0.000035
 225	2.2288e+01	2.2246	-7.157212	0.000401	4.013601	0.679922	0.000040
 226	2.2387e+01	2.2350	-7.116071	0.000414	4.136466	0.700736	0.000041
 227	2.2487e+01	2.2462	-7.074522	0.000418	4.177421	0.707674	0.000042
 228	2.2587e+01	2.2530	-7.037861	0.000369	3.685960	0.624419	0.000037
 229	2.2686e+01	2.2651	-6.997534	0.000405	4.054556	0.686860	0.000041
 230	2.2785e+01	2.2765	-6.957207	0.000405	4.054556	0.686860	0.000041
 231	2.2885e+01	2.2855	-6.916066	0.000414	4.136466	0.700736	0.000041
 232	2.2985e+01	2.2944	-6.876961	0.000393	3.931691	0.666046	0.000039
 233	2.3084e+01	2.3028	-6.839078	0.000381	3.808825	0.645232	0.000038
 234	2.3183e+01	2.3135	-6.799973	0.000393	3.931691	0.666046	0.000039
 235	2.3283e+01	2.3255	-6.760868	0.000393	3.931691	0.666046	0.000039
 236	2.3383e+01	2.3338	-6.716468	0.000446	4.464107	0.756240	0.000045
 237	2.3482e+01	2.3457	-6.674919	0.000418	4.177421	0.707674	0.000042
 238	2.3581e+01	2.3516	-6.639480	0.000356	3.563095	0.603605	0.000036
 239	2.3681e+01	2.3633	-6.603226	0.000365	3.645005	0.617481	0.000036
 240	2.3780e+01	2.3746	-6.564936	0.000385	3.849781	0.652170	0.000038
 241	2.3880e+01	2.3830	-6.525017	0.000401	4.013601	0.679922	0.000040
 242	2.3980e+01	2.3931	-6.487134	0.000381	3.808825	0.645232	0.000038
 243	2.4079e+01	2.4050	-6.448029	0.000393	3.931691	0.666046	0.000039
 244	2.4178e+01	2.4139	-6.410146	0.000381	3.808825	0.645232	0.000038
 245	2.4278e+01	2.4251	-6.372263	0.000381	3.808825	0.645232	0.000038
 246	2.4378e+01	2.4334	-6.333158	0.000393	3.931691	0.666046	0.000039
 247	2.4477e+01	2.4450	-6.294461	0.000389	3.890736	0.659108	0.000039
 248	2.4576e+01	2.4532	-6.255763	0.000389	3.890736	0.659108	0.000039
 249	2.4676e+01	2.4658	-6.223991	0.000319	3.194499	0.541163	0.000032
 250	2.4776e+01	2.4735	-6.181220	0.000430	4.300287	0.728488	0.000043
 251	2.4875e+01	2.4819	-6.144966	0.000365	3.645005	0.617481	0.000036
 252	2.4974e+01	2.4939	-6.105046	0.000401	4.013601	0.679922	0.000040
 253	2.5074e+01	2.5036	-6.067571	0.000377	3.767870	0.638295	0.000038
 254	2.5174e+01	2.5143	-6.030503	0.000373	3.726915	0.631357	0.000037
 255	2.5273e+01	2.5243	-5.993842	0.000369	3.685960	0.624419	0.000037
 256	2.5372e+01	2.5335	-5.957996	0.000360	3.604050	0.610543	0.000036
 257	2.5472e+01	2.5440	-5.920113	0.000381	3.808825	0.645232	0.000038
 258	2.5572e+01	2.5555	-5.885082	0.000352	3.522140	0.596667	0.000035
 259	2.5671e+01	2.5620	-5.847199	0.000381	3.808825	0.645232	0.000038
 260	2.5770e+01	2.5732	-5.808908	0.000385	3.849781	0.652170	0.000038
 261	2.5870e+01	2.5828	-5.771840	0.000373	3.726915	0.631357	0.000037
 262	2.5970e+01	2.5923	-5.733957	0.000381	3.808825	0.645232	0.000038
 263	2.6069e+01	2.6023	-5.697297	0.000369	3.685960	0.624419	0.000037
