»»»»»»»»»»»»»»»»»»»»»»»»»»»»»»»»»»»» Hysteresis ««««««««««««««««««««««««««««««««««««
»»»  Executed Version:	5.48.1
»»»  Vision Version:	5.48.4 (R)
»»»  Vision Compiled:	9/18/24
»»»  Driver Version:	5.47.0
»»»  Windows Version:	Windows 8 or 8.1
»»»  Processor Information:	x86 (AMD or Intel) - 32 Processors
»»»  Tester Name:	PMF21124-494 (100V)
»»»  Tester S/N:	PMF21124-494
»»»  Internal Amp Type:	100V RevK 270k
»»»  Internal Amp S/N:	iAB2-596/K     
»»»  Execution Count:	1
»»»»»»»»»»»»»»»»»»»»»»»»»»»»»»»»»»»»»»»»»»««««««««««««««««««««««««««««««««««««««««««

Stored:	6/25/2025 - 15:43:9
Configured:	06/25/25 10:44:40 AM
Executed:	06/25/25 03:42:41 PM

»»»»»»»»»»»»»»»»»»»»»»»»»»»»»»»»»»» Sample Info ««««««««««««««««««««««««««««««««««««
Sample Name:	
Lot Name:	
Wafer Name:	
Die Row/Column:	0/0
Capacitor Number:	0
Sample Area (cm2):	1.00e-04
Sample Thickness (microns):	1.50e-01

Amplifier:	Internal

»»»»»»»»»»»»»»»»»»»»»»»»»»»»»»»»»»» Tester Info «««««««««««««««««««««««««««««««««««
Tester Name:	PMF21124-494 (100V)
Tester Serial Number:	PMF21124-494
Return Signal Amp. Level:	0.19 [Index: 3]

»»»»»»»»»»»»»»»»»»»»»»»»»»»»»»»» Hysteresis Info ««««««««««««««««««««««««««««««««««
Task Name:	Hyst-116
Volts:	10.00
Field:	666.67 (kV/cm)
DCBias:	0.00
DCField:	0.00 (kV/cm)
Hysteresis Period (ms):	2.00e+02
Preset:	Enabled
Preset Delay (ms):	1.00e+03
Profile:	Standard Monopolar

»»»»»»»»»»»»»»»»»»»»»»»»»»»»»»»»»»»»»» Data «««««««««««««««««««««««««««««««««««««««
Points:	2011

Valid Data

Point	Time (ms)	Drive Voltage	Measured Polarization (uC/cm2)	Capacitance (uF)	Normalized Capacitance (uF/cm2)	Dielectric Constant	Instantaneous Current (mA)
   1	0.0000e+00	-0.0008	-24.547804	0.000446	4.463615	0.756157	0.000045
   2	9.9500e-02	0.0095	-24.503395	0.000446	4.463615	0.756157	0.000045
   3	1.9900e-01	0.0204	-24.438801	0.000649	6.492532	1.099865	0.000065
   4	2.9850e-01	0.0295	-24.394393	0.000446	4.463615	0.756157	0.000045
   5	3.9800e-01	0.0396	-24.333836	0.000609	6.086748	1.031123	0.000061
   6	4.9750e-01	0.0489	-24.289427	0.000446	4.463615	0.756157	0.000045
   7	5.9700e-01	0.0584	-24.220796	0.000690	6.898315	1.168606	0.000069
   8	6.9650e-01	0.0688	-24.188499	0.000325	3.246266	0.549932	0.000032
   9	7.9600e-01	0.0788	-24.160239	0.000284	2.840483	0.481191	0.000028
  10	8.9550e-01	0.0884	-24.091608	0.000690	6.898315	1.168606	0.000069
  11	9.9500e-01	0.0989	-24.002791	0.000893	8.927231	1.512314	0.000089
  12	1.0945e+00	0.1086	-23.994716	0.000081	0.811566	0.137483	0.000008
  13	1.1940e+00	0.1188	-23.946271	0.000487	4.869399	0.824898	0.000049
  14	1.2935e+00	0.1285	-23.881676	0.000649	6.492532	1.099865	0.000065
  15	1.3930e+00	0.1381	-23.796897	0.000852	8.521448	1.443572	0.000085
  16	1.4925e+00	0.1492	-23.764600	0.000325	3.246266	0.549932	0.000032
  17	1.5920e+00	0.1588	-23.683857	0.000812	8.115664	1.374831	0.000081
  18	1.6915e+00	0.1687	-23.627337	0.000568	5.680965	0.962382	0.000057
  19	1.7910e+00	0.1785	-23.582928	0.000446	4.463615	0.756157	0.000045
  20	1.8905e+00	0.1891	-23.526409	0.000568	5.680965	0.962382	0.000057
  21	1.9900e+00	0.1983	-23.502186	0.000243	2.434699	0.412449	0.000024
  22	2.0895e+00	0.2079	-23.393183	0.001096	10.956147	1.856022	0.000110
  23	2.1890e+00	0.2184	-23.364923	0.000284	2.840483	0.481191	0.000028
  24	2.2885e+00	0.2275	-23.304366	0.000609	6.086748	1.031123	0.000061
  25	2.3880e+00	0.2381	-23.296292	0.000081	0.811566	0.137483	0.000008
  26	2.4875e+00	0.2491	-23.203438	0.000933	9.333014	1.581055	0.000093
  27	2.5870e+00	0.2577	-23.175178	0.000284	2.840483	0.481191	0.000028
  28	2.6865e+00	0.2676	-23.058101	0.001177	11.767713	1.993505	0.000118
  29	2.7860e+00	0.2777	-23.017729	0.000406	4.057832	0.687415	0.000041
  30	2.8855e+00	0.2890	-22.961210	0.000568	5.680965	0.962382	0.000057
  31	2.9850e+00	0.2981	-22.924875	0.000365	3.652049	0.618674	0.000037
  32	3.0845e+00	0.3076	-22.832021	0.000933	9.333014	1.581055	0.000093
  33	3.1840e+00	0.3168	-22.791650	0.000406	4.057832	0.687415	0.000041
  34	3.2835e+00	0.3275	-22.767427	0.000243	2.434699	0.412449	0.000024
  35	3.3830e+00	0.3379	-22.706870	0.000609	6.086748	1.031123	0.000061
  36	3.4825e+00	0.3470	-22.646313	0.000609	6.086748	1.031123	0.000061
  37	3.5820e+00	0.3576	-22.638239	0.000081	0.811566	0.137483	0.000008
  38	3.6815e+00	0.3680	-22.513087	0.001258	12.579280	2.130988	0.000126
  39	3.7810e+00	0.3765	-22.452530	0.000609	6.086748	1.031123	0.000061
  40	3.8805e+00	0.3868	-22.420233	0.000325	3.246266	0.549932	0.000032
  41	3.9800e+00	0.3979	-22.335453	0.000852	8.521448	1.443572	0.000085
  42	4.0795e+00	0.4076	-22.287008	0.000487	4.869399	0.824898	0.000049
  43	4.1790e+00	0.4177	-22.234525	0.000528	5.275182	0.893640	0.000053
  44	4.2785e+00	0.4270	-22.182042	0.000528	5.275182	0.893640	0.000053
  45	4.3780e+00	0.4381	-22.137634	0.000446	4.463615	0.756157	0.000045
  46	4.4775e+00	0.4472	-22.073040	0.000649	6.492532	1.099865	0.000065
  47	4.5770e+00	0.4569	-22.040743	0.000325	3.246266	0.549932	0.000032
  48	4.6765e+00	0.4672	-21.976148	0.000649	6.492532	1.099865	0.000065
  49	4.7760e+00	0.4772	-21.899443	0.000771	7.709881	1.306089	0.000077
  50	4.8755e+00	0.4869	-21.838886	0.000609	6.086748	1.031123	0.000061
  51	4.9750e+00	0.4977	-21.814663	0.000243	2.434699	0.412449	0.000024
  52	5.0745e+00	0.5069	-21.733920	0.000812	8.115664	1.374831	0.000081
  53	5.1740e+00	0.5167	-21.673363	0.000609	6.086748	1.031123	0.000061
  54	5.2735e+00	0.5261	-21.641066	0.000325	3.246266	0.549932	0.000032
  55	5.3730e+00	0.5373	-21.536101	0.001055	10.550364	1.787280	0.000105
  56	5.4725e+00	0.5468	-21.507841	0.000284	2.840483	0.481191	0.000028
  57	5.5720e+00	0.5567	-21.467469	0.000406	4.057832	0.687415	0.000041
  58	5.6715e+00	0.5668	-21.414987	0.000528	5.275182	0.893640	0.000053
  59	5.7710e+00	0.5766	-21.350392	0.000649	6.492532	1.099865	0.000065
  60	5.8705e+00	0.5865	-21.257538	0.000933	9.333014	1.581055	0.000093
  61	5.9700e+00	0.5968	-21.205055	0.000528	5.275182	0.893640	0.000053
  62	6.0695e+00	0.6060	-21.148536	0.000568	5.680965	0.962382	0.000057
  63	6.1690e+00	0.6168	-21.096053	0.000528	5.275182	0.893640	0.000053
  64	6.2685e+00	0.6260	-21.043570	0.000528	5.275182	0.893640	0.000053
  65	6.3680e+00	0.6361	-21.011273	0.000325	3.246266	0.549932	0.000032
  66	6.4675e+00	0.6457	-20.922456	0.000893	8.927231	1.512314	0.000089
  67	6.5670e+00	0.6559	-20.910345	0.000122	1.217350	0.206225	0.000012
  68	6.6665e+00	0.6665	-20.813453	0.000974	9.738797	1.649797	0.000097
  69	6.7660e+00	0.6757	-20.744822	0.000690	6.898315	1.168606	0.000069
  70	6.8655e+00	0.6861	-20.696376	0.000487	4.869399	0.824898	0.000049
  71	6.9650e+00	0.6959	-20.631782	0.000649	6.492532	1.099865	0.000065
  72	7.0645e+00	0.7056	-20.599485	0.000325	3.246266	0.549932	0.000032
  73	7.1640e+00	0.7155	-20.490482	0.001096	10.956147	1.856022	0.000110
  74	7.2635e+00	0.7259	-20.466260	0.000243	2.434699	0.412449	0.000024
  75	7.3630e+00	0.7362	-20.438000	0.000284	2.840483	0.481191	0.000028
  76	7.4625e+00	0.7457	-20.345146	0.000933	9.333014	1.581055	0.000093
  77	7.5620e+00	0.7552	-20.312848	0.000325	3.246266	0.549932	0.000032
  78	7.6615e+00	0.7660	-20.240180	0.000730	7.304098	1.237348	0.000073
  79	7.7610e+00	0.7756	-20.207883	0.000325	3.246266	0.549932	0.000032
  80	7.8605e+00	0.7856	-20.119066	0.000893	8.927231	1.512314	0.000089
  81	7.9600e+00	0.7949	-20.054472	0.000649	6.492532	1.099865	0.000065
  82	8.0595e+00	0.8049	-20.038323	0.000162	1.623133	0.274966	0.000016
  83	8.1590e+00	0.8156	-19.965655	0.000730	7.304098	1.237348	0.000073
  84	8.2585e+00	0.8261	-19.901061	0.000649	6.492532	1.099865	0.000065
  85	8.3580e+00	0.8352	-19.824355	0.000771	7.709881	1.306089	0.000077
  86	8.4575e+00	0.8453	-19.796095	0.000284	2.840483	0.481191	0.000028
  87	8.5570e+00	0.8563	-19.695167	0.001014	10.144581	1.718538	0.000101
  88	8.6565e+00	0.8653	-19.691130	0.000041	0.405783	0.068742	0.000004
  89	8.7560e+00	0.8753	-19.630573	0.000609	6.086748	1.031123	0.000061
  90	8.8555e+00	0.8853	-19.565978	0.000649	6.492532	1.099865	0.000065
  91	8.9550e+00	0.8952	-19.485236	0.000812	8.115664	1.374831	0.000081
  92	9.0545e+00	0.9048	-19.469087	0.000162	1.623133	0.274966	0.000016
  93	9.1540e+00	0.9157	-19.416604	0.000528	5.275182	0.893640	0.000053
  94	9.2535e+00	0.9249	-19.376233	0.000406	4.057832	0.687415	0.000041
  95	9.3530e+00	0.9338	-19.267230	0.001096	10.956147	1.856022	0.000110
  96	9.4525e+00	0.9453	-19.218785	0.000487	4.869399	0.824898	0.000049
  97	9.5520e+00	0.9550	-19.178413	0.000406	4.057832	0.687415	0.000041
  98	9.6515e+00	0.9644	-19.117856	0.000609	6.086748	1.031123	0.000061
  99	9.7510e+00	0.9740	-19.045188	0.000730	7.304098	1.237348	0.000073
 100	9.8505e+00	0.9846	-19.020965	0.000243	2.434699	0.412449	0.000024
 101	9.9500e+00	0.9949	-18.960408	0.000609	6.086748	1.031123	0.000061
 102	1.0050e+01	1.0042	-18.891777	0.000690	6.898315	1.168606	0.000069
 103	1.0149e+01	1.0139	-18.859480	0.000325	3.246266	0.549932	0.000032
 104	1.0248e+01	1.0230	-18.798923	0.000609	6.086748	1.031123	0.000061
 105	1.0348e+01	1.0341	-18.766625	0.000325	3.246266	0.549932	0.000032
 106	1.0447e+01	1.0441	-18.693957	0.000730	7.304098	1.237348	0.000073
 107	1.0547e+01	1.0545	-18.641474	0.000528	5.275182	0.893640	0.000053
 108	1.0646e+01	1.0635	-18.572843	0.000690	6.898315	1.168606	0.000069
 109	1.0746e+01	1.0746	-18.544583	0.000284	2.840483	0.481191	0.000028
 110	1.0845e+01	1.0844	-18.488063	0.000568	5.680965	0.962382	0.000057
 111	1.0945e+01	1.0956	-18.443655	0.000446	4.463615	0.756157	0.000045
 112	1.1044e+01	1.1033	-18.403283	0.000406	4.057832	0.687415	0.000041
 113	1.1144e+01	1.1140	-18.318503	0.000852	8.521448	1.443572	0.000085
 114	1.1243e+01	1.1240	-18.302355	0.000162	1.623133	0.274966	0.000016
 115	1.1343e+01	1.1340	-18.233724	0.000690	6.898315	1.168606	0.000069
 116	1.1443e+01	1.1436	-18.189315	0.000446	4.463615	0.756157	0.000045
 117	1.1542e+01	1.1547	-18.108572	0.000812	8.115664	1.374831	0.000081
 118	1.1642e+01	1.1634	-18.072238	0.000365	3.652049	0.618674	0.000037
 119	1.1741e+01	1.1736	-18.019755	0.000528	5.275182	0.893640	0.000053
 120	1.1841e+01	1.1832	-17.914790	0.001055	10.550364	1.787280	0.000105
 121	1.1940e+01	1.1948	-17.930938	-0.000162	-1.623133	-0.274966	-0.000016
 122	1.2040e+01	1.2034	-17.870381	0.000609	6.086748	1.031123	0.000061
 123	1.2139e+01	1.2135	-17.797713	0.000730	7.304098	1.237348	0.000073
 124	1.2239e+01	1.2234	-17.761379	0.000365	3.652049	0.618674	0.000037
 125	1.2338e+01	1.2338	-17.712933	0.000487	4.869399	0.824898	0.000049
 126	1.2438e+01	1.2435	-17.648339	0.000649	6.492532	1.099865	0.000065
 127	1.2537e+01	1.2531	-17.616042	0.000325	3.246266	0.549932	0.000032
 128	1.2636e+01	1.2624	-17.547410	0.000690	6.898315	1.168606	0.000069
 129	1.2736e+01	1.2726	-17.474742	0.000730	7.304098	1.237348	0.000073
 130	1.2835e+01	1.2815	-17.503002	-0.000284	-2.840483	-0.481191	-0.000028
 131	1.2935e+01	1.2930	-17.418222	0.000852	8.521448	1.443572	0.000085
 132	1.3034e+01	1.3020	-17.325368	0.000933	9.333014	1.581055	0.000093
 133	1.3134e+01	1.3119	-17.305182	0.000203	2.028916	0.343708	0.000020
 134	1.3233e+01	1.3216	-17.240588	0.000649	6.492532	1.099865	0.000065
 135	1.3333e+01	1.3313	-17.200217	0.000406	4.057832	0.687415	0.000041
 136	1.3432e+01	1.3425	-17.155808	0.000446	4.463615	0.756157	0.000045
 137	1.3532e+01	1.3513	-17.115437	0.000406	4.057832	0.687415	0.000041
 138	1.3632e+01	1.3637	-17.034694	0.000812	8.115664	1.374831	0.000081
 139	1.3731e+01	1.3720	-16.990286	0.000446	4.463615	0.756157	0.000045
 140	1.3831e+01	1.3818	-16.925692	0.000649	6.492532	1.099865	0.000065
 141	1.3930e+01	1.3921	-16.913580	0.000122	1.217350	0.206225	0.000012
 142	1.4030e+01	1.4024	-16.824763	0.000893	8.927231	1.512314	0.000089
 143	1.4129e+01	1.4113	-16.800540	0.000243	2.434699	0.412449	0.000024
 144	1.4229e+01	1.4217	-16.723835	0.000771	7.709881	1.306089	0.000077
 145	1.4328e+01	1.4315	-16.727872	-0.000041	-0.405783	-0.068742	-0.000004
 146	1.4428e+01	1.4423	-16.618869	0.001096	10.956147	1.856022	0.000110
 147	1.4527e+01	1.4516	-16.610795	0.000081	0.811566	0.137483	0.000008
 148	1.4627e+01	1.4613	-16.542164	0.000690	6.898315	1.168606	0.000069
 149	1.4726e+01	1.4713	-16.493718	0.000487	4.869399	0.824898	0.000049
 150	1.4825e+01	1.4819	-16.465458	0.000284	2.840483	0.481191	0.000028
 151	1.4925e+01	1.4916	-16.417012	0.000487	4.869399	0.824898	0.000049
 152	1.5024e+01	1.5018	-16.384715	0.000325	3.246266	0.549932	0.000032
 153	1.5124e+01	1.5118	-16.303973	0.000812	8.115664	1.374831	0.000081
 154	1.5223e+01	1.5209	-16.199007	0.001055	10.550364	1.787280	0.000105
 155	1.5323e+01	1.5322	-16.231304	-0.000325	-3.246266	-0.549932	-0.000032
 156	1.5422e+01	1.5414	-16.122302	0.001096	10.956147	1.856022	0.000110
 157	1.5522e+01	1.5506	-16.126339	-0.000041	-0.405783	-0.068742	-0.000004
 158	1.5621e+01	1.5620	-16.021373	0.001055	10.550364	1.787280	0.000105
 159	1.5721e+01	1.5713	-16.001187	0.000203	2.028916	0.343708	0.000020
 160	1.5820e+01	1.5808	-15.932556	0.000690	6.898315	1.168606	0.000069
 161	1.5920e+01	1.5916	-15.904296	0.000284	2.840483	0.481191	0.000028
 162	1.6020e+01	1.6010	-15.859888	0.000446	4.463615	0.756157	0.000045
 163	1.6119e+01	1.6113	-15.811442	0.000487	4.869399	0.824898	0.000049
 164	1.6218e+01	1.6201	-15.783182	0.000284	2.840483	0.481191	0.000028
 165	1.6318e+01	1.6319	-15.718588	0.000649	6.492532	1.099865	0.000065
 166	1.6418e+01	1.6415	-15.658031	0.000609	6.086748	1.031123	0.000061
 167	1.6517e+01	1.6503	-15.621697	0.000365	3.652049	0.618674	0.000037
 168	1.6616e+01	1.6616	-15.577288	0.000446	4.463615	0.756157	0.000045
 169	1.6716e+01	1.6703	-15.512694	0.000649	6.492532	1.099865	0.000065
 170	1.6816e+01	1.6808	-15.504620	0.000081	0.811566	0.137483	0.000008
 171	1.6915e+01	1.6909	-15.411766	0.000933	9.333014	1.581055	0.000093
 172	1.7015e+01	1.7010	-15.379469	0.000325	3.246266	0.549932	0.000032
 173	1.7114e+01	1.7113	-15.335060	0.000446	4.463615	0.756157	0.000045
 174	1.7213e+01	1.7201	-15.274503	0.000609	6.086748	1.031123	0.000061
 175	1.7313e+01	1.7308	-15.258355	0.000162	1.623133	0.274966	0.000016
 176	1.7413e+01	1.7411	-15.205872	0.000528	5.275182	0.893640	0.000053
 177	1.7512e+01	1.7501	-15.129166	0.000771	7.709881	1.306089	0.000077
 178	1.7611e+01	1.7606	-15.044386	0.000852	8.521448	1.443572	0.000085
 179	1.7711e+01	1.7704	-15.040349	0.000041	0.405783	0.068742	0.000004
 180	1.7811e+01	1.7795	-14.963644	0.000771	7.709881	1.306089	0.000077
 181	1.7910e+01	1.7902	-14.967681	-0.000041	-0.405783	-0.068742	-0.000004
 182	1.8009e+01	1.7999	-14.866752	0.001014	10.144581	1.718538	0.000101
 183	1.8109e+01	1.8111	-14.818307	0.000487	4.869399	0.824898	0.000049
 184	1.8209e+01	1.8200	-14.810232	0.000081	0.811566	0.137483	0.000008
 185	1.8308e+01	1.8309	-14.741601	0.000690	6.898315	1.168606	0.000069
 186	1.8407e+01	1.8401	-14.701230	0.000406	4.057832	0.687415	0.000041
 187	1.8507e+01	1.8491	-14.656821	0.000446	4.463615	0.756157	0.000045
 188	1.8607e+01	1.8606	-14.592227	0.000649	6.492532	1.099865	0.000065
 189	1.8706e+01	1.8698	-14.523596	0.000690	6.898315	1.168606	0.000069
 190	1.8805e+01	1.8797	-14.495336	0.000284	2.840483	0.481191	0.000028
 191	1.8905e+01	1.8903	-14.454965	0.000406	4.057832	0.687415	0.000041
 192	1.9005e+01	1.9009	-14.378259	0.000771	7.709881	1.306089	0.000077
 193	1.9104e+01	1.9092	-14.358073	0.000203	2.028916	0.343708	0.000020
 194	1.9203e+01	1.9194	-14.289442	0.000690	6.898315	1.168606	0.000069
 195	1.9303e+01	1.9294	-14.253108	0.000365	3.652049	0.618674	0.000037
 196	1.9402e+01	1.9400	-14.204662	0.000487	4.869399	0.824898	0.000049
 197	1.9502e+01	1.9501	-14.115845	0.000893	8.927231	1.512314	0.000089
 198	1.9602e+01	1.9596	-14.083548	0.000325	3.246266	0.549932	0.000032
 199	1.9701e+01	1.9697	-14.022991	0.000609	6.086748	1.031123	0.000061
 200	1.9800e+01	1.9800	-13.982620	0.000406	4.057832	0.687415	0.000041
 201	1.9900e+01	1.9888	-13.913988	0.000690	6.898315	1.168606	0.000069
 202	2.0000e+01	1.9990	-13.901877	0.000122	1.217350	0.206225	0.000012
 203	2.0099e+01	2.0094	-13.804986	0.000974	9.738797	1.649797	0.000097
 204	2.0198e+01	2.0195	-13.760577	0.000446	4.463615	0.756157	0.000045
 205	2.0298e+01	2.0293	-13.716169	0.000446	4.463615	0.756157	0.000045
 206	2.0398e+01	2.0394	-13.679834	0.000365	3.652049	0.618674	0.000037
 207	2.0497e+01	2.0486	-13.619277	0.000609	6.086748	1.031123	0.000061
 208	2.0596e+01	2.0586	-13.611203	0.000081	0.811566	0.137483	0.000008
 209	2.0696e+01	2.0689	-13.534498	0.000771	7.709881	1.306089	0.000077
 210	2.0796e+01	2.0793	-13.522386	0.000122	1.217350	0.206225	0.000012
 211	2.0895e+01	2.0895	-13.449718	0.000730	7.304098	1.237348	0.000073
 212	2.0994e+01	2.0986	-13.389161	0.000609	6.086748	1.031123	0.000061
 213	2.1094e+01	2.1091	-13.340715	0.000487	4.869399	0.824898	0.000049
 214	2.1194e+01	2.1189	-13.300344	0.000406	4.057832	0.687415	0.000041
 215	2.1293e+01	2.1288	-13.243824	0.000568	5.680965	0.962382	0.000057
 216	2.1392e+01	2.1390	-13.187304	0.000568	5.680965	0.962382	0.000057
 217	2.1492e+01	2.1487	-13.098487	0.000893	8.927231	1.512314	0.000089
 218	2.1591e+01	2.1583	-13.062153	0.000365	3.652049	0.618674	0.000037
 219	2.1691e+01	2.1694	-13.054078	0.000081	0.811566	0.137483	0.000008
 220	2.1791e+01	2.1789	-12.989484	0.000649	6.492532	1.099865	0.000065
 221	2.1890e+01	2.1887	-12.924890	0.000649	6.492532	1.099865	0.000065
 222	2.1989e+01	2.1980	-12.900667	0.000243	2.434699	0.412449	0.000024
 223	2.2089e+01	2.2078	-12.856259	0.000446	4.463615	0.756157	0.000045
 224	2.2189e+01	2.2181	-12.755330	0.001014	10.144581	1.718538	0.000101
 225	2.2288e+01	2.2277	-12.710922	0.000446	4.463615	0.756157	0.000045
 226	2.2387e+01	2.2385	-12.666513	0.000446	4.463615	0.756157	0.000045
 227	2.2487e+01	2.2479	-12.593845	0.000730	7.304098	1.237348	0.000073
 228	2.2587e+01	2.2585	-12.545399	0.000487	4.869399	0.824898	0.000049
 229	2.2686e+01	2.2675	-12.557511	-0.000122	-1.217350	-0.206225	-0.000012
 230	2.2785e+01	2.2778	-12.464657	0.000933	9.333014	1.581055	0.000093
 231	2.2885e+01	2.2877	-12.412174	0.000528	5.275182	0.893640	0.000053
 232	2.2985e+01	2.2980	-12.339505	0.000730	7.304098	1.237348	0.000073
 233	2.3084e+01	2.3074	-12.303171	0.000365	3.652049	0.618674	0.000037
 234	2.3183e+01	2.3181	-12.226466	0.000771	7.709881	1.306089	0.000077
 235	2.3283e+01	2.3280	-12.222428	0.000041	0.405783	0.068742	0.000004
 236	2.3383e+01	2.3380	-12.153797	0.000690	6.898315	1.168606	0.000069
 237	2.3482e+01	2.3476	-12.117463	0.000365	3.652049	0.618674	0.000037
 238	2.3581e+01	2.3586	-12.048832	0.000690	6.898315	1.168606	0.000069
 239	2.3681e+01	2.3681	-12.032683	0.000162	1.623133	0.274966	0.000016
 240	2.3780e+01	2.3779	-11.972126	0.000609	6.086748	1.031123	0.000061
 241	2.3880e+01	2.3882	-11.895420	0.000771	7.709881	1.306089	0.000077
 242	2.3980e+01	2.3975	-11.838901	0.000568	5.680965	0.962382	0.000057
 243	2.4079e+01	2.4072	-11.802566	0.000365	3.652049	0.618674	0.000037
 244	2.4178e+01	2.4176	-11.758158	0.000446	4.463615	0.756157	0.000045
 245	2.4278e+01	2.4272	-11.709712	0.000487	4.869399	0.824898	0.000049
 246	2.4378e+01	2.4380	-11.673378	0.000365	3.652049	0.618674	0.000037
 247	2.4477e+01	2.4471	-11.616858	0.000568	5.680965	0.962382	0.000057
 248	2.4576e+01	2.4572	-11.552264	0.000649	6.492532	1.099865	0.000065
 249	2.4676e+01	2.4664	-11.524004	0.000284	2.840483	0.481191	0.000028
 250	2.4776e+01	2.4776	-11.447298	0.000771	7.709881	1.306089	0.000077
 251	2.4875e+01	2.4868	-11.435187	0.000122	1.217350	0.206225	0.000012
 252	2.4974e+01	2.4975	-11.358481	0.000771	7.709881	1.306089	0.000077
 253	2.5074e+01	2.5079	-11.314073	0.000446	4.463615	0.756157	0.000045
 254	2.5174e+01	2.5167	-11.257553	0.000568	5.680965	0.962382	0.000057
 255	2.5273e+01	2.5259	-11.205070	0.000528	5.275182	0.893640	0.000053
 256	2.5372e+01	2.5362	-11.160662	0.000446	4.463615	0.756157	0.000045
 257	2.5472e+01	2.5466	-11.144513	0.000162	1.623133	0.274966	0.000016
 258	2.5572e+01	2.5564	-11.035511	0.001096	10.956147	1.856022	0.000110
 259	2.5671e+01	2.5671	-11.043585	-0.000081	-0.811566	-0.137483	-0.000008
 260	2.5770e+01	2.5761	-10.966879	0.000771	7.709881	1.306089	0.000077
 261	2.5870e+01	2.5865	-10.910359	0.000568	5.680965	0.962382	0.000057
