»»»»»»»»»»»»»»»»»»»»»»»»»»»»»»»»»»»» Hysteresis ««««««««««««««««««««««««««««««««««««
»»»  Executed Version:	5.48.1
»»»  Vision Version:	5.48.4 (R)
»»»  Vision Compiled:	9/18/24
»»»  Driver Version:	5.47.0
»»»  Windows Version:	Windows 8 or 8.1
»»»  Processor Information:	x86 (AMD or Intel) - 32 Processors
»»»  Tester Name:	PMF21124-494 (100V)
»»»  Tester S/N:	PMF21124-494
»»»  Internal Amp Type:	100V RevK 270k
»»»  Internal Amp S/N:	iAB2-596/K     
»»»  Execution Count:	1
»»»»»»»»»»»»»»»»»»»»»»»»»»»»»»»»»»»»»»»»»»««««««««««««««««««««««««««««««««««««««««««

Stored:	7/7/2025 - 17:18:9
Configured:	07/07/25 01:27:50 PM
Executed:	07/07/25 05:17:44 PM

»»»»»»»»»»»»»»»»»»»»»»»»»»»»»»»»»»» Sample Info ««««««««««««««««««««««««««««««««««««
Sample Name:	
Lot Name:	
Wafer Name:	
Die Row/Column:	0/0
Capacitor Number:	0
Sample Area (cm2):	1.00e-04
Sample Thickness (microns):	1.50e-01

Amplifier:	Internal

»»»»»»»»»»»»»»»»»»»»»»»»»»»»»»»»»»» Tester Info «««««««««««««««««««««««««««««««««««
Tester Name:	PMF21124-494 (100V)
Tester Serial Number:	PMF21124-494
Return Signal Amp. Level:	0.19 [Index: 3]

»»»»»»»»»»»»»»»»»»»»»»»»»»»»»»»» Hysteresis Info ««««««««««««««««««««««««««««««««««
Task Name:	Hyst-528
Volts:	10.00
Field:	666.67 (kV/cm)
DCBias:	0.00
DCField:	0.00 (kV/cm)
Hysteresis Period (ms):	1.00e+00
Preset:	Enabled
Preset Delay (ms):	1.00e+03
Profile:	Standard Bipolar

»»»»»»»»»»»»»»»»»»»»»»»»»»»»»»»»»»»»»» Data «««««««««««««««««««««««««««««««««««««««
Points:	2001

Valid Data

Point	Time (ms)	Drive Voltage	Measured Polarization (uC/cm2)	Capacitance (uF)	Normalized Capacitance (uF/cm2)	Dielectric Constant	Instantaneous Current (mA)
   1	0.0000e+00	-0.0002	6.525554	0.000162	1.615640	0.273697	0.006453
   2	5.0000e-04	0.0105	6.557818	0.000162	1.615640	0.273697	0.006453
   3	1.0000e-03	0.0283	6.638480	0.000404	4.039100	0.684242	0.016132
   4	1.5000e-03	0.0478	6.707043	0.000343	3.433235	0.581606	0.013713
   5	2.0000e-03	0.0681	6.876433	0.000848	8.482110	1.436908	0.033878
   6	2.5000e-03	0.0880	7.013558	0.000687	6.866470	1.163212	0.027425
   7	3.0000e-03	0.1070	7.138585	0.000626	6.260605	1.060575	0.025005
   8	3.5000e-03	0.1283	7.279743	0.000707	7.068425	1.197424	0.028232
   9	4.0000e-03	0.1481	7.360405	0.000404	4.039100	0.684242	0.016132
  10	4.5000e-03	0.1675	7.485431	0.000626	6.260605	1.060575	0.025005
  11	5.0000e-03	0.1883	7.606424	0.000606	6.058650	1.026363	0.024199
  12	5.5000e-03	0.2081	7.771781	0.000828	8.280155	1.402696	0.033071
  13	6.0000e-03	0.2267	7.848410	0.000384	3.837145	0.650030	0.015326
  14	6.5000e-03	0.2477	7.945204	0.000485	4.846920	0.821090	0.019359
  15	7.0000e-03	0.2675	8.054098	0.000545	5.452785	0.923727	0.021779
  16	7.5000e-03	0.2876	8.235587	0.000909	9.087975	1.539545	0.036298
  17	8.0000e-03	0.3083	8.324316	0.000444	4.443010	0.752666	0.017746
  18	8.5000e-03	0.3274	8.493706	0.000848	8.482110	1.436908	0.033878
  19	9.0000e-03	0.3474	8.582434	0.000444	4.443010	0.752666	0.017746
  20	9.5000e-03	0.3678	8.711493	0.000646	6.462560	1.094787	0.025812
  21	1.0000e-02	0.3885	8.876850	0.000828	8.280155	1.402696	0.033071
  22	1.0500e-02	0.4077	8.937347	0.000303	3.029325	0.513182	0.012099
  23	1.1000e-02	0.4278	9.062373	0.000626	6.260605	1.060575	0.025005
  24	1.1500e-02	0.4475	9.235796	0.000868	8.684065	1.471120	0.034685
  25	1.2000e-02	0.4697	9.425351	0.000949	9.491885	1.607969	0.037911
  26	1.2500e-02	0.4874	9.453583	0.000141	1.413685	0.239485	0.005646
  27	1.3000e-02	0.5077	9.590708	0.000687	6.866470	1.163212	0.027425
  28	1.3500e-02	0.5286	9.743966	0.000767	7.674290	1.300060	0.030652
  29	1.4000e-02	0.5487	9.860926	0.000586	5.856695	0.992151	0.023392
  30	1.4500e-02	0.5674	9.905290	0.000222	2.221505	0.376333	0.008873
  31	1.5000e-02	0.5886	10.082747	0.000889	8.886020	1.505333	0.035491
  32	1.5500e-02	0.6082	10.219872	0.000687	6.866470	1.163212	0.027425
  33	1.6000e-02	0.6284	10.369097	0.000747	7.472335	1.265848	0.029845
  34	1.6500e-02	0.6481	10.506222	0.000687	6.866470	1.163212	0.027425
  35	1.7000e-02	0.6675	10.586884	0.000404	4.039100	0.684242	0.016132
  36	1.7500e-02	0.6877	10.695777	0.000545	5.452785	0.923727	0.021779
  37	1.8000e-02	0.7082	10.816770	0.000606	6.058650	1.026363	0.024199
  38	1.8500e-02	0.7285	10.957929	0.000707	7.068425	1.197424	0.028232
  39	1.9000e-02	0.7478	11.050690	0.000464	4.644965	0.786878	0.018552
  40	1.9500e-02	0.7686	11.228147	0.000889	8.886020	1.505333	0.035491
  41	2.0000e-02	0.7888	11.413669	0.000929	9.289930	1.573757	0.037105
  42	2.0500e-02	0.8079	11.470132	0.000283	2.827370	0.478969	0.011293
  43	2.1000e-02	0.8287	11.643556	0.000868	8.684065	1.471120	0.034685
  44	2.1500e-02	0.8484	11.772615	0.000646	6.462560	1.094787	0.025812
  45	2.2000e-02	0.8687	11.881508	0.000545	5.452785	0.923727	0.021779
  46	2.2500e-02	0.8881	11.982336	0.000505	5.048875	0.855303	0.020165
  47	2.3000e-02	0.9085	12.111395	0.000646	6.462560	1.094787	0.025812
  48	2.3500e-02	0.9269	12.248520	0.000687	6.866470	1.163212	0.027425
  49	2.4000e-02	0.9483	12.438076	0.000949	9.491885	1.607969	0.037911
  50	2.4500e-02	0.9676	12.534870	0.000485	4.846920	0.821090	0.019359
  51	2.5000e-02	0.9878	12.680062	0.000727	7.270380	1.231636	0.029038
  52	2.5500e-02	1.0081	12.797022	0.000586	5.856695	0.992151	0.023392
  53	2.6000e-02	1.0284	12.942213	0.000727	7.270380	1.231636	0.029038
  54	2.6500e-02	1.0480	13.079339	0.000687	6.866470	1.163212	0.027425
  55	2.7000e-02	1.0675	13.196299	0.000586	5.856695	0.992151	0.023392
  56	2.7500e-02	1.0886	13.337457	0.000707	7.068425	1.197424	0.028232
  57	2.8000e-02	1.1082	13.438285	0.000505	5.048875	0.855303	0.020165
  58	2.8500e-02	1.1279	13.603642	0.000828	8.280155	1.402696	0.033071
  59	2.9000e-02	1.1487	13.712535	0.000545	5.452785	0.923727	0.021779
  60	2.9500e-02	1.1678	13.881925	0.000848	8.482110	1.436908	0.033878
  61	3.0000e-02	1.1890	13.958554	0.000384	3.837145	0.650030	0.015326
  62	3.0500e-02	1.2079	14.111812	0.000767	7.674290	1.300060	0.030652
  63	3.1000e-02	1.2281	14.232805	0.000606	6.058650	1.026363	0.024199
  64	3.1500e-02	1.2482	14.365897	0.000666	6.664515	1.128999	0.026618
  65	3.2000e-02	1.2685	14.567552	0.001010	10.097750	1.710605	0.040331
  66	3.2500e-02	1.2881	14.680479	0.000565	5.654740	0.957939	0.022585
  67	3.3000e-02	1.3073	14.793406	0.000565	5.654740	0.957939	0.022585
  68	3.3500e-02	1.3272	14.926498	0.000666	6.664515	1.128999	0.026618
  69	3.4000e-02	1.3479	15.039425	0.000565	5.654740	0.957939	0.022585
  70	3.4500e-02	1.3669	15.212848	0.000868	8.684065	1.471120	0.034685
  71	3.5000e-02	1.3875	15.309642	0.000485	4.846920	0.821090	0.019359
  72	3.5500e-02	1.4070	15.438701	0.000646	6.462560	1.094787	0.025812
  73	3.6000e-02	1.4275	15.571794	0.000666	6.664515	1.128999	0.026618
  74	3.6500e-02	1.4473	15.753283	0.000909	9.087975	1.539545	0.036298
  75	3.7000e-02	1.4673	15.894442	0.000707	7.068425	1.197424	0.028232
  76	3.7500e-02	1.4874	16.023501	0.000646	6.462560	1.094787	0.025812
  77	3.8000e-02	1.5079	16.180792	0.000788	7.876245	1.334272	0.031458
  78	3.8500e-02	1.5279	16.265487	0.000424	4.241055	0.718454	0.016939
  79	3.9000e-02	1.5472	16.414711	0.000747	7.472335	1.265848	0.029845
  80	3.9500e-02	1.5675	16.555870	0.000707	7.068425	1.197424	0.028232
  81	4.0000e-02	1.5880	16.697028	0.000707	7.068425	1.197424	0.028232
  82	4.0500e-02	1.6069	16.797856	0.000505	5.048875	0.855303	0.020165
  83	4.1000e-02	1.6278	16.991444	0.000969	9.693840	1.642181	0.038718
  84	4.1500e-02	1.6483	17.108404	0.000586	5.856695	0.992151	0.023392
  85	4.2000e-02	1.6665	17.233430	0.000626	6.260605	1.060575	0.025005
  86	4.2500e-02	1.6872	17.374589	0.000707	7.068425	1.197424	0.028232
  87	4.3000e-02	1.7075	17.511714	0.000687	6.866470	1.163212	0.027425
  88	4.3500e-02	1.7282	17.660939	0.000747	7.472335	1.265848	0.029845
  89	4.4000e-02	1.7478	17.822263	0.000808	8.078200	1.368484	0.032265
  90	4.4500e-02	1.7681	17.967454	0.000727	7.270380	1.231636	0.029038
  91	4.5000e-02	1.7886	18.088447	0.000606	6.058650	1.026363	0.024199
  92	4.5500e-02	1.8072	18.257837	0.000848	8.482110	1.436908	0.033878
  93	4.6000e-02	1.8275	18.386897	0.000646	6.462560	1.094787	0.025812
  94	4.6500e-02	1.8472	18.536121	0.000747	7.472335	1.265848	0.029845
  95	4.7000e-02	1.8681	18.665180	0.000646	6.462560	1.094787	0.025812
  96	4.7500e-02	1.8880	18.866835	0.001010	10.097750	1.710605	0.040331
  97	4.8000e-02	1.9077	18.971696	0.000525	5.250830	0.889515	0.020972
  98	4.8500e-02	1.9270	19.145119	0.000868	8.684065	1.471120	0.034685
  99	4.9000e-02	1.9476	19.290311	0.000727	7.270380	1.231636	0.029038
 100	4.9500e-02	1.9672	19.447601	0.000788	7.876245	1.334272	0.031458
 101	5.0000e-02	1.9886	19.532297	0.000424	4.241055	0.718454	0.016939
 102	5.0500e-02	2.0071	19.681521	0.000747	7.472335	1.265848	0.029845
 103	5.1000e-02	2.0279	19.891242	0.001050	10.501660	1.779029	0.041944
 104	5.1500e-02	2.0476	19.975937	0.000424	4.241055	0.718454	0.016939
 105	5.2000e-02	2.0680	20.121129	0.000727	7.270380	1.231636	0.029038
 106	5.2500e-02	2.0876	20.286486	0.000828	8.280155	1.402696	0.033071
 107	5.3000e-02	2.1080	20.451843	0.000828	8.280155	1.402696	0.033071
 108	5.3500e-02	2.1284	20.580902	0.000646	6.462560	1.094787	0.025812
 109	5.4000e-02	2.1472	20.722061	0.000707	7.068425	1.197424	0.028232
 110	5.4500e-02	2.1674	20.915649	0.000969	9.693840	1.642181	0.038718
 111	5.5000e-02	2.1875	21.028576	0.000565	5.654740	0.957939	0.022585
 112	5.5500e-02	2.2076	21.181834	0.000767	7.674290	1.300060	0.030652
 113	5.6000e-02	2.2284	21.306860	0.000626	6.260605	1.060575	0.025005
 114	5.6500e-02	2.2482	21.496416	0.000949	9.491885	1.607969	0.037911
 115	5.7000e-02	2.2690	21.629508	0.000666	6.664515	1.128999	0.026618
 116	5.7500e-02	2.2884	21.754534	0.000626	6.260605	1.060575	0.025005
 117	5.8000e-02	2.3080	21.911825	0.000788	7.876245	1.334272	0.031458
 118	5.8500e-02	2.3279	22.020718	0.000545	5.452785	0.923727	0.021779
 119	5.9000e-02	2.3480	22.222373	0.001010	10.097750	1.710605	0.040331
 120	5.9500e-02	2.3682	22.424028	0.001010	10.097750	1.710605	0.040331
 121	6.0000e-02	2.3875	22.532922	0.000545	5.452785	0.923727	0.021779
 122	6.0500e-02	2.4081	22.722478	0.000949	9.491885	1.607969	0.037911
 123	6.1000e-02	2.4275	22.863636	0.000707	7.068425	1.197424	0.028232
 124	6.1500e-02	2.4475	22.972530	0.000545	5.452785	0.923727	0.021779
 125	6.2000e-02	2.4680	23.097556	0.000626	6.260605	1.060575	0.025005
 126	6.2500e-02	2.4886	23.299211	0.001010	10.097750	1.710605	0.040331
 127	6.3000e-02	2.5070	23.496832	0.000990	9.895795	1.676393	0.039524
 128	6.3500e-02	2.5284	23.658156	0.000808	8.078200	1.368484	0.032265
 129	6.4000e-02	2.5475	23.779149	0.000606	6.058650	1.026363	0.024199
 130	6.4500e-02	2.5674	23.920308	0.000707	7.068425	1.197424	0.028232
 131	6.5000e-02	2.5874	24.029201	0.000545	5.452785	0.923727	0.021779
 132	6.5500e-02	2.6072	24.234890	0.001030	10.299705	1.744817	0.041138
 133	6.6000e-02	2.6276	24.380081	0.000727	7.270380	1.231636	0.029038
 134	6.6500e-02	2.6489	24.533339	0.000767	7.674290	1.300060	0.030652
 135	6.7000e-02	2.6676	24.666431	0.000666	6.664515	1.128999	0.026618
 136	6.7500e-02	2.6874	24.847920	0.000909	9.087975	1.539545	0.036298
 137	6.8000e-02	2.7080	25.009244	0.000808	8.078200	1.368484	0.032265
 138	6.8500e-02	2.7279	25.170568	0.000808	8.078200	1.368484	0.032265
 139	6.9000e-02	2.7473	25.331892	0.000808	8.078200	1.368484	0.032265
 140	6.9500e-02	2.7678	25.456918	0.000626	6.260605	1.060575	0.025005
 141	7.0000e-02	2.7872	25.606143	0.000747	7.472335	1.265848	0.029845
 142	7.0500e-02	2.8077	25.747301	0.000707	7.068425	1.197424	0.028232
 143	7.1000e-02	2.8278	25.932824	0.000929	9.289930	1.573757	0.037105
 144	7.1500e-02	2.8477	26.094148	0.000808	8.078200	1.368484	0.032265
 145	7.2000e-02	2.8675	26.255472	0.000808	8.078200	1.368484	0.032265
 146	7.2500e-02	2.8876	26.428895	0.000868	8.684065	1.471120	0.034685
 147	7.3000e-02	2.9079	26.541822	0.000565	5.654740	0.957939	0.022585
 148	7.3500e-02	2.9274	26.763642	0.001111	11.107525	1.881666	0.044364
 149	7.4000e-02	2.9480	26.840271	0.000384	3.837145	0.650030	0.015326
 150	7.4500e-02	2.9681	27.037893	0.000990	9.895795	1.676393	0.039524
 151	7.5000e-02	2.9880	27.263747	0.001131	11.309480	1.915878	0.045171
 152	7.5500e-02	3.0080	27.372640	0.000545	5.452785	0.923727	0.021779
 153	7.6000e-02	3.0292	27.546063	0.000868	8.684065	1.471120	0.034685
 154	7.6500e-02	3.0481	27.691255	0.000727	7.270380	1.231636	0.029038
 155	7.7000e-02	3.0679	27.864678	0.000868	8.684065	1.471120	0.034685
 156	7.7500e-02	3.0878	27.977605	0.000565	5.654740	0.957939	0.022585
 157	7.8000e-02	3.1079	28.175227	0.000990	9.895795	1.676393	0.039524
 158	7.8500e-02	3.1276	28.364782	0.000949	9.491885	1.607969	0.037911
 159	7.9000e-02	3.1482	28.501908	0.000687	6.866470	1.163212	0.027425
 160	7.9500e-02	3.1674	28.635000	0.000666	6.664515	1.128999	0.026618
 161	8.0000e-02	3.1882	28.780192	0.000727	7.270380	1.231636	0.029038
 162	8.0500e-02	3.2080	28.917317	0.000687	6.866470	1.163212	0.027425
 163	8.1000e-02	3.2277	29.155270	0.001192	11.915345	2.018514	0.047591
 164	8.1500e-02	3.2477	29.292395	0.000687	6.866470	1.163212	0.027425
 165	8.2000e-02	3.2673	29.453719	0.000808	8.078200	1.368484	0.032265
 166	8.2500e-02	3.2877	29.606977	0.000767	7.674290	1.300060	0.030652
 167	8.3000e-02	3.3084	29.792499	0.000929	9.289930	1.573757	0.037105
 168	8.3500e-02	3.3286	29.933658	0.000707	7.068425	1.197424	0.028232
 169	8.4000e-02	3.3478	30.062717	0.000646	6.462560	1.094787	0.025812
 170	8.4500e-02	3.3684	30.232107	0.000848	8.482110	1.436908	0.033878
 171	8.5000e-02	3.3878	30.437795	0.001030	10.299705	1.744817	0.041138
 172	8.5500e-02	3.4076	30.558788	0.000606	6.058650	1.026363	0.024199
 173	8.6000e-02	3.4277	30.760443	0.001010	10.097750	1.710605	0.040331
 174	8.6500e-02	3.4486	30.929833	0.000848	8.482110	1.436908	0.033878
 175	8.7000e-02	3.4688	31.075025	0.000727	7.270380	1.231636	0.029038
 176	8.7500e-02	3.4882	31.220216	0.000727	7.270380	1.231636	0.029038
 177	8.8000e-02	3.5080	31.389606	0.000848	8.482110	1.436908	0.033878
 178	8.8500e-02	3.5278	31.530765	0.000707	7.068425	1.197424	0.028232
 179	8.9000e-02	3.5474	31.679990	0.000747	7.472335	1.265848	0.029845
 180	8.9500e-02	3.5677	31.849380	0.000848	8.482110	1.436908	0.033878
 181	9.0000e-02	3.5881	32.042968	0.000969	9.693840	1.642181	0.038718
 182	9.0500e-02	3.6084	32.188160	0.000727	7.270380	1.231636	0.029038
 183	9.1000e-02	3.6273	32.325285	0.000687	6.866470	1.163212	0.027425
 184	9.1500e-02	3.6487	32.571304	0.001232	12.319255	2.086938	0.049204
 185	9.2000e-02	3.6684	32.676165	0.000525	5.250830	0.889515	0.020972
 186	9.2500e-02	3.6884	32.841522	0.000828	8.280155	1.402696	0.033071
 187	9.3000e-02	3.7085	32.974614	0.000666	6.664515	1.128999	0.026618
 188	9.3500e-02	3.7280	33.123839	0.000747	7.472335	1.265848	0.029845
 189	9.4000e-02	3.7476	33.337593	0.001070	10.703615	1.813241	0.042751
 190	9.4500e-02	3.7689	33.474718	0.000687	6.866470	1.163212	0.027425
 191	9.5000e-02	3.7887	33.611844	0.000687	6.866470	1.163212	0.027425
 192	9.5500e-02	3.8075	33.789300	0.000889	8.886020	1.505333	0.035491
 193	9.6000e-02	3.8275	33.970790	0.000909	9.087975	1.539545	0.036298
 194	9.6500e-02	3.8474	34.136147	0.000828	8.280155	1.402696	0.033071
 195	9.7000e-02	3.8663	34.317636	0.000909	9.087975	1.539545	0.036298
 196	9.7500e-02	3.8873	34.462828	0.000727	7.270380	1.231636	0.029038
 197	9.8000e-02	3.9079	34.603986	0.000707	7.068425	1.197424	0.028232
 198	9.8500e-02	3.9276	34.789509	0.000929	9.289930	1.573757	0.037105
 199	9.9000e-02	3.9478	34.946799	0.000788	7.876245	1.334272	0.031458
 200	9.9500e-02	3.9679	35.132322	0.000929	9.289930	1.573757	0.037105
 201	1.0000e-01	3.9886	35.233149	0.000505	5.048875	0.855303	0.020165
 202	1.0050e-01	4.0070	35.430771	0.000990	9.895795	1.676393	0.039524
 203	1.0100e-01	4.0280	35.563863	0.000666	6.664515	1.128999	0.026618
 204	1.0150e-01	4.0475	35.692923	0.000646	6.462560	1.094787	0.025812
 205	1.0200e-01	4.0680	35.918776	0.001131	11.309480	1.915878	0.045171
 206	1.0250e-01	4.0869	36.059935	0.000707	7.068425	1.197424	0.028232
 207	1.0300e-01	4.1077	36.253523	0.000969	9.693840	1.642181	0.038718
 208	1.0350e-01	4.1287	36.394682	0.000707	7.068425	1.197424	0.028232
 209	1.0400e-01	4.1486	36.523741	0.000646	6.462560	1.094787	0.025812
 210	1.0450e-01	4.1684	36.701197	0.000889	8.886020	1.505333	0.035491
 211	1.0500e-01	4.1882	36.850422	0.000747	7.472335	1.265848	0.029845
 212	1.0550e-01	4.2079	36.999647	0.000747	7.472335	1.265848	0.029845
 213	1.0600e-01	4.2279	37.205335	0.001030	10.299705	1.744817	0.041138
 214	1.0650e-01	4.2474	37.330361	0.000626	6.260605	1.060575	0.025005
 215	1.0700e-01	4.2682	37.499751	0.000848	8.482110	1.436908	0.033878
 216	1.0750e-01	4.2880	37.673174	0.000868	8.684065	1.471120	0.034685
 217	1.0800e-01	4.3082	37.782068	0.000545	5.452785	0.923727	0.021779
 218	1.0850e-01	4.3283	37.943392	0.000808	8.078200	1.368484	0.032265
 219	1.0900e-01	4.3475	38.100682	0.000788	7.876245	1.334272	0.031458
 220	1.0950e-01	4.3683	38.286205	0.000929	9.289930	1.573757	0.037105
 221	1.1000e-01	4.3882	38.459628	0.000868	8.684065	1.471120	0.034685
 222	1.1050e-01	4.4087	38.616919	0.000788	7.876245	1.334272	0.031458
 223	1.1100e-01	4.4279	38.766144	0.000747	7.472335	1.265848	0.029845
 224	1.1150e-01	4.4478	38.943600	0.000889	8.886020	1.505333	0.035491
 225	1.1200e-01	4.4675	39.084759	0.000707	7.068425	1.197424	0.028232
 226	1.1250e-01	4.4873	39.262215	0.000889	8.886020	1.505333	0.035491
 227	1.1300e-01	4.5076	39.387241	0.000626	6.260605	1.060575	0.025005
 228	1.1350e-01	4.5282	39.544532	0.000788	7.876245	1.334272	0.031458
 229	1.1400e-01	4.5477	39.721988	0.000889	8.886020	1.505333	0.035491
 230	1.1450e-01	4.5683	39.834915	0.000565	5.654740	0.957939	0.022585
 231	1.1500e-01	4.5880	40.068835	0.001171	11.713390	1.984302	0.046784
 232	1.1550e-01	4.6077	40.218059	0.000747	7.472335	1.265848	0.029845
 233	1.1600e-01	4.6283	40.383416	0.000828	8.280155	1.402696	0.033071
 234	1.1650e-01	4.6490	40.552806	0.000848	8.482110	1.436908	0.033878
 235	1.1700e-01	4.6674	40.746395	0.000969	9.693840	1.642181	0.038718
 236	1.1750e-01	4.6878	40.835123	0.000444	4.443010	0.752666	0.017746
 237	1.1800e-01	4.7089	40.984348	0.000747	7.472335	1.265848	0.029845
 238	1.1850e-01	4.7296	41.153738	0.000848	8.482110	1.436908	0.033878
 239	1.1900e-01	4.7485	41.290863	0.000687	6.866470	1.163212	0.027425
 240	1.1950e-01	4.7681	41.427989	0.000687	6.866470	1.163212	0.027425
 241	1.2000e-01	4.7888	41.617544	0.000949	9.491885	1.607969	0.037911
 242	1.2050e-01	4.8090	41.750637	0.000666	6.664515	1.128999	0.026618
 243	1.2100e-01	4.8279	41.944225	0.000969	9.693840	1.642181	0.038718
 244	1.2150e-01	4.8489	42.117649	0.000868	8.684065	1.471120	0.034685
 245	1.2200e-01	4.8685	42.238642	0.000606	6.058650	1.026363	0.024199
 246	1.2250e-01	4.8891	42.391899	0.000767	7.674290	1.300060	0.030652
 247	1.2300e-01	4.9084	42.573389	0.000909	9.087975	1.539545	0.036298
 248	1.2350e-01	4.9280	42.718580	0.000727	7.270380	1.231636	0.029038
 249	1.2400e-01	4.9493	42.863772	0.000727	7.270380	1.231636	0.029038
 250	1.2450e-01	4.9683	43.000897	0.000687	6.866470	1.163212	0.027425
 251	1.2500e-01	4.9878	43.154155	0.000767	7.674290	1.300060	0.030652
 252	1.2550e-01	5.0082	43.351777	0.000990	9.895795	1.676393	0.039524
 253	1.2600e-01	5.0278	43.529233	0.000889	8.886020	1.505333	0.035491
 254	1.2650e-01	5.0494	43.642160	0.000565	5.654740	0.957939	0.022585
 255	1.2700e-01	5.0677	43.799451	0.000788	7.876245	1.334272	0.031458
 256	1.2750e-01	5.0885	43.964808	0.000828	8.280155	1.402696	0.033071
 257	1.2800e-01	5.1077	44.089834	0.000626	6.260605	1.060575	0.025005
 258	1.2850e-01	5.1266	44.251158	0.000808	8.078200	1.368484	0.032265
 259	1.2900e-01	5.1483	44.396349	0.000727	7.270380	1.231636	0.029038
 260	1.2950e-01	5.1678	44.553640	0.000788	7.876245	1.334272	0.031458
 261	1.3000e-01	5.1886	44.727063	0.000868	8.684065	1.471120	0.034685
