»»»»»»»»»»»»»»»»»»»»»»»»»»»»»»»»»»»» Hysteresis ««««««««««««««««««««««««««««««««««««
»»»  Executed Version:	5.48.1
»»»  Vision Version:	5.48.4 (R)
»»»  Vision Compiled:	9/18/24
»»»  Driver Version:	5.47.0
»»»  Windows Version:	Windows 8 or 8.1
»»»  Processor Information:	x86 (AMD or Intel) - 32 Processors
»»»  Tester Name:	PMF21124-494 (100V)
»»»  Tester S/N:	PMF21124-494
»»»  Internal Amp Type:	100V RevK 270k
»»»  Internal Amp S/N:	iAB2-596/K     
»»»  Execution Count:	1
»»»»»»»»»»»»»»»»»»»»»»»»»»»»»»»»»»»»»»»»»»««««««««««««««««««««««««««««««««««««««««««

Stored:	7/8/2025 - 14:54:55
Configured:	07/08/25 02:50:47 PM
Executed:	07/08/25 02:54:32 PM

»»»»»»»»»»»»»»»»»»»»»»»»»»»»»»»»»»» Sample Info ««««««««««««««««««««««««««««««««««««
Sample Name:	
Lot Name:	
Wafer Name:	
Die Row/Column:	0/0
Capacitor Number:	0
Sample Area (cm2):	1.00e-04
Sample Thickness (microns):	1.50e-01

Amplifier:	Internal

»»»»»»»»»»»»»»»»»»»»»»»»»»»»»»»»»»» Tester Info «««««««««««««««««««««««««««««««««««
Tester Name:	PMF21124-494 (100V)
Tester Serial Number:	PMF21124-494
Return Signal Amp. Level:	0.19 [Index: 3]

»»»»»»»»»»»»»»»»»»»»»»»»»»»»»»»» Hysteresis Info ««««««««««««««««««««««««««««««««««
Task Name:	Hyst-724
Volts:	10.00
Field:	666.67 (kV/cm)
DCBias:	0.00
DCField:	0.00 (kV/cm)
Hysteresis Period (ms):	1.00e+00
Preset:	Enabled
Preset Delay (ms):	1.00e+03
Profile:	Standard Bipolar

»»»»»»»»»»»»»»»»»»»»»»»»»»»»»»»»»»»»»» Data «««««««««««««««««««««««««««««««««««««««
Points:	2001

Valid Data

Point	Time (ms)	Drive Voltage	Measured Polarization (uC/cm2)	Capacitance (uF)	Normalized Capacitance (uF/cm2)	Dielectric Constant	Instantaneous Current (mA)
   1	0.0000e+00	0.0021	-7.039774	0.000525	5.248624	0.889141	0.020972
   2	5.0000e-04	0.0132	-6.934913	0.000525	5.248624	0.889141	0.020972
   3	1.0000e-03	0.0312	-6.830052	0.000525	5.248624	0.889141	0.020972
   4	1.5000e-03	0.0506	-6.769556	0.000303	3.028052	0.512966	0.012099
   5	2.0000e-03	0.0708	-6.600166	0.000848	8.478547	1.436305	0.033878
   6	2.5000e-03	0.0906	-6.491272	0.000545	5.450494	0.923339	0.021779
   7	3.0000e-03	0.1102	-6.422710	0.000343	3.431793	0.581361	0.013713
   8	3.5000e-03	0.1298	-6.309783	0.000565	5.652365	0.957536	0.022585
   9	4.0000e-03	0.1507	-6.208955	0.000505	5.046754	0.854943	0.020165
  10	4.5000e-03	0.1701	-6.100062	0.000545	5.450494	0.923339	0.021779
  11	5.0000e-03	0.1906	-5.954870	0.000727	7.267326	1.231118	0.029038
  12	5.5000e-03	0.2103	-5.829844	0.000626	6.257975	1.060130	0.025005
  13	6.0000e-03	0.2305	-5.737083	0.000464	4.643014	0.786548	0.018552
  14	6.5000e-03	0.2515	-5.624156	0.000565	5.652365	0.957536	0.022585
  15	7.0000e-03	0.2700	-5.470898	0.000767	7.671066	1.299514	0.030652
  16	7.5000e-03	0.2909	-5.426534	0.000222	2.220572	0.376175	0.008873
  17	8.0000e-03	0.3099	-5.265210	0.000807	8.074807	1.367909	0.032265
  18	8.5000e-03	0.3308	-5.128085	0.000686	6.863586	1.162723	0.027425
  19	9.0000e-03	0.3507	-5.035324	0.000464	4.643014	0.786548	0.018552
  20	9.5000e-03	0.3710	-4.930463	0.000525	5.248624	0.889141	0.020972
  21	1.0000e-02	0.3908	-4.809470	0.000606	6.056105	1.025932	0.024199
  22	1.0500e-02	0.4105	-4.753007	0.000283	2.826182	0.478768	0.011293
  23	1.1000e-02	0.4310	-4.607815	0.000727	7.267326	1.231118	0.029038
  24	1.1500e-02	0.4504	-4.515054	0.000464	4.643014	0.786548	0.018552
  25	1.2000e-02	0.4700	-4.345664	0.000848	8.478547	1.436305	0.033878
  26	1.2500e-02	0.4914	-4.265002	0.000404	4.037403	0.683955	0.016132
  27	1.3000e-02	0.5115	-4.131910	0.000666	6.661715	1.128525	0.026618
  28	1.3500e-02	0.5303	-3.954453	0.000888	8.882287	1.504700	0.035491
  29	1.4000e-02	0.5511	-3.914122	0.000202	2.018702	0.341977	0.008066
  30	1.4500e-02	0.5711	-3.776997	0.000686	6.863586	1.162723	0.027425
  31	1.5000e-02	0.5902	-3.518879	0.001292	12.919691	2.188655	0.051624
  32	1.5500e-02	0.6108	-3.518879	0.000000	0.000000	0.000000	0.000000
  33	1.6000e-02	0.6311	-3.422084	0.000484	4.844884	0.820746	0.019359
  34	1.6500e-02	0.6509	-3.345455	0.000384	3.835533	0.649757	0.015326
  35	1.7000e-02	0.6705	-3.188164	0.000787	7.872936	1.333712	0.031458
  36	1.7500e-02	0.6901	-3.059105	0.000646	6.459845	1.094327	0.025812
  37	1.8000e-02	0.7104	-2.926013	0.000666	6.661715	1.128525	0.026618
  38	1.8500e-02	0.7310	-2.865517	0.000303	3.028052	0.512966	0.012099
  39	1.9000e-02	0.7501	-2.667895	0.000989	9.891638	1.675689	0.039524
  40	1.9500e-02	0.7710	-2.542869	0.000626	6.257975	1.060130	0.025005
  41	2.0000e-02	0.7913	-2.425909	0.000585	5.854235	0.991734	0.023392
  42	2.0500e-02	0.8113	-2.365412	0.000303	3.028052	0.512966	0.012099
  43	2.1000e-02	0.8308	-2.220221	0.000727	7.267326	1.231118	0.029038
  44	2.1500e-02	0.8506	-2.083095	0.000686	6.863586	1.162723	0.027425
  45	2.2000e-02	0.8708	-1.945970	0.000686	6.863586	1.162723	0.027425
  46	2.2500e-02	0.8907	-1.849176	0.000484	4.844884	0.820746	0.019359
  47	2.3000e-02	0.9106	-1.683819	0.000828	8.276677	1.402107	0.033071
  48	2.3500e-02	0.9309	-1.599124	0.000424	4.239273	0.718152	0.016939
  49	2.4000e-02	0.9505	-1.514429	0.000424	4.239273	0.718152	0.016939
  50	2.4500e-02	0.9708	-1.345038	0.000848	8.478547	1.436305	0.033878
  51	2.5000e-02	0.9912	-1.268410	0.000384	3.835533	0.649757	0.015326
  52	2.5500e-02	1.0109	-1.115152	0.000767	7.671066	1.299514	0.030652
  53	2.6000e-02	1.0303	-0.998192	0.000585	5.854235	0.991734	0.023392
  54	2.6500e-02	1.0512	-0.889298	0.000545	5.450494	0.923339	0.021779
  55	2.7000e-02	1.0703	-0.788471	0.000505	5.046754	0.854943	0.020165
  56	2.7500e-02	1.0912	-0.619081	0.000848	8.478547	1.436305	0.033878
  57	2.8000e-02	1.1105	-0.534386	0.000424	4.239273	0.718152	0.016939
  58	2.8500e-02	1.1310	-0.389194	0.000727	7.267326	1.231118	0.029038
  59	2.9000e-02	1.1512	-0.276267	0.000565	5.652365	0.957536	0.022585
  60	2.9500e-02	1.1711	-0.151241	0.000626	6.257975	1.060130	0.025005
  61	3.0000e-02	1.1912	0.002017	0.000767	7.671066	1.299514	0.030652
  62	3.0500e-02	1.2112	0.094778	0.000464	4.643014	0.786548	0.018552
  63	3.1000e-02	1.2315	0.239969	0.000727	7.267326	1.231118	0.029038
  64	3.1500e-02	1.2511	0.373062	0.000666	6.661715	1.128525	0.026618
  65	3.2000e-02	1.2714	0.490021	0.000585	5.854235	0.991734	0.023392
  66	3.2500e-02	1.2915	0.615048	0.000626	6.257975	1.060130	0.025005
  67	3.3000e-02	1.3101	0.703776	0.000444	4.441144	0.752350	0.017746
  68	3.3500e-02	1.3307	0.865100	0.000807	8.074807	1.367909	0.032265
  69	3.4000e-02	1.3504	0.925596	0.000303	3.028052	0.512966	0.012099
  70	3.4500e-02	1.3699	1.074821	0.000747	7.469196	1.265316	0.029845
  71	3.5000e-02	1.3909	1.187748	0.000565	5.652365	0.957536	0.022585
  72	3.5500e-02	1.4104	1.320840	0.000666	6.661715	1.128525	0.026618
  73	3.6000e-02	1.4301	1.429733	0.000545	5.450494	0.923339	0.021779
  74	3.6500e-02	1.4501	1.514429	0.000424	4.239273	0.718152	0.016939
  75	3.7000e-02	1.4706	1.703984	0.000949	9.487898	1.607293	0.037911
  76	3.7500e-02	1.4902	1.845143	0.000707	7.065456	1.196921	0.028232
  77	3.8000e-02	1.5114	1.966136	0.000606	6.056105	1.025932	0.024199
  78	3.8500e-02	1.5305	2.075029	0.000545	5.450494	0.923339	0.021779
  79	3.9000e-02	1.5514	2.175857	0.000505	5.046754	0.854943	0.020165
  80	3.9500e-02	1.5704	2.321048	0.000727	7.267326	1.231118	0.029038
  81	4.0000e-02	1.5912	2.510604	0.000949	9.487898	1.607293	0.037911
  82	4.0500e-02	1.6104	2.595299	0.000424	4.239273	0.718152	0.016939
  83	4.1000e-02	1.6313	2.692093	0.000484	4.844884	0.820746	0.019359
  84	4.1500e-02	1.6504	2.849384	0.000787	7.872936	1.333712	0.031458
  85	4.2000e-02	1.6700	3.026841	0.000888	8.882287	1.504700	0.035491
  86	4.2500e-02	1.6904	3.087337	0.000303	3.028052	0.512966	0.012099
  87	4.3000e-02	1.7110	3.260760	0.000868	8.680417	1.470502	0.034685
  88	4.3500e-02	1.7310	3.365621	0.000525	5.248624	0.889141	0.020972
  89	4.4000e-02	1.7513	3.498713	0.000666	6.661715	1.128525	0.026618
  90	4.4500e-02	1.7712	3.704401	0.001030	10.295378	1.744084	0.041138
  91	4.5000e-02	1.7915	3.752798	0.000242	2.422442	0.410373	0.009679
  92	4.5500e-02	1.8121	3.877824	0.000626	6.257975	1.060130	0.025005
  93	4.6000e-02	1.8320	4.067380	0.000949	9.487898	1.607293	0.037911
  94	4.6500e-02	1.8501	4.172241	0.000525	5.248624	0.889141	0.020972
  95	4.7000e-02	1.8710	4.305333	0.000666	6.661715	1.128525	0.026618
  96	4.7500e-02	1.8916	4.410193	0.000525	5.248624	0.889141	0.020972
  97	4.8000e-02	1.9107	4.563451	0.000767	7.671066	1.299514	0.030652
  98	4.8500e-02	1.9317	4.712676	0.000747	7.469196	1.265316	0.029845
  99	4.9000e-02	1.9508	4.817536	0.000525	5.248624	0.889141	0.020972
 100	4.9500e-02	1.9708	4.938529	0.000606	6.056105	1.025932	0.024199
 101	5.0000e-02	1.9910	5.107919	0.000848	8.478547	1.436305	0.033878
 102	5.0500e-02	2.0117	5.232945	0.000626	6.257975	1.060130	0.025005
 103	5.1000e-02	2.0316	5.374104	0.000707	7.065456	1.196921	0.028232
 104	5.1500e-02	2.0509	5.515262	0.000707	7.065456	1.196921	0.028232
 105	5.2000e-02	2.0705	5.612057	0.000484	4.844884	0.820746	0.019359
 106	5.2500e-02	2.0914	5.737083	0.000626	6.257975	1.060130	0.025005
 107	5.3000e-02	2.1115	5.890341	0.000767	7.671066	1.299514	0.030652
 108	5.3500e-02	2.1313	6.027466	0.000686	6.863586	1.162723	0.027425
 109	5.4000e-02	2.1513	6.172657	0.000727	7.267326	1.231118	0.029038
 110	5.4500e-02	2.1699	6.293650	0.000606	6.056105	1.025932	0.024199
 111	5.5000e-02	2.1918	6.410610	0.000585	5.854235	0.991734	0.023392
 112	5.5500e-02	2.2119	6.535636	0.000626	6.257975	1.060130	0.025005
 113	5.6000e-02	2.2314	6.676795	0.000707	7.065456	1.196921	0.028232
 114	5.6500e-02	2.2511	6.834086	0.000787	7.872936	1.333712	0.031458
 115	5.7000e-02	2.2715	6.995410	0.000807	8.074807	1.367909	0.032265
 116	5.7500e-02	2.2916	7.112369	0.000585	5.854235	0.991734	0.023392
 117	5.8000e-02	2.3106	7.221263	0.000545	5.450494	0.923339	0.021779
 118	5.8500e-02	2.3313	7.390653	0.000848	8.478547	1.436305	0.033878
 119	5.9000e-02	2.3511	7.515679	0.000626	6.257975	1.060130	0.025005
 120	5.9500e-02	2.3712	7.576176	0.000303	3.028052	0.512966	0.012099
 121	6.0000e-02	2.3915	7.773798	0.000989	9.891638	1.675689	0.039524
 122	6.0500e-02	2.4109	7.951254	0.000888	8.882287	1.504700	0.035491
 123	6.1000e-02	2.4316	8.068214	0.000585	5.854235	0.991734	0.023392
 124	6.1500e-02	2.4515	8.173074	0.000525	5.248624	0.889141	0.020972
 125	6.2000e-02	2.4718	8.346498	0.000868	8.680417	1.470502	0.034685
 126	6.2500e-02	2.4917	8.459424	0.000565	5.652365	0.957536	0.022585
 127	6.3000e-02	2.5119	8.588483	0.000646	6.459845	1.094327	0.025812
 128	6.3500e-02	2.5328	8.753841	0.000828	8.276677	1.402107	0.033071
 129	6.4000e-02	2.5509	8.882900	0.000646	6.459845	1.094327	0.025812
 130	6.4500e-02	2.5715	9.056323	0.000868	8.680417	1.470502	0.034685
 131	6.5000e-02	2.5906	9.173283	0.000585	5.854235	0.991734	0.023392
 132	6.5500e-02	2.6117	9.318474	0.000727	7.267326	1.231118	0.029038
 133	6.6000e-02	2.6309	9.447533	0.000646	6.459845	1.094327	0.025812
 134	6.6500e-02	2.6508	9.592725	0.000727	7.267326	1.231118	0.029038
 135	6.7000e-02	2.6709	9.770181	0.000888	8.882287	1.504700	0.035491
 136	6.7500e-02	2.6917	9.915373	0.000727	7.267326	1.231118	0.029038
 137	6.8000e-02	2.7118	10.044432	0.000646	6.459845	1.094327	0.025812
 138	6.8500e-02	2.7309	10.177524	0.000666	6.661715	1.128525	0.026618
 139	6.9000e-02	2.7515	10.318683	0.000707	7.065456	1.196921	0.028232
 140	6.9500e-02	2.7710	10.451775	0.000666	6.661715	1.128525	0.026618
 141	7.0000e-02	2.7914	10.552602	0.000505	5.046754	0.854943	0.020165
 142	7.0500e-02	2.8110	10.742158	0.000949	9.487898	1.607293	0.037911
 143	7.1000e-02	2.8317	10.879283	0.000686	6.863586	1.162723	0.027425
 144	7.1500e-02	2.8513	10.984144	0.000525	5.248624	0.889141	0.020972
 145	7.2000e-02	2.8711	11.121269	0.000686	6.863586	1.162723	0.027425
 146	7.2500e-02	2.8911	11.302759	0.000908	9.084157	1.538898	0.036298
 147	7.3000e-02	2.9114	11.435851	0.000666	6.661715	1.128525	0.026618
 148	7.3500e-02	2.9316	11.601208	0.000828	8.276677	1.402107	0.033071
 149	7.4000e-02	2.9510	11.750433	0.000747	7.469196	1.265316	0.029845
 150	7.4500e-02	2.9712	11.839161	0.000444	4.441144	0.752350	0.017746
 151	7.5000e-02	2.9921	12.012584	0.000868	8.680417	1.470502	0.034685
 152	7.5500e-02	3.0110	12.153743	0.000707	7.065456	1.196921	0.028232
 153	7.6000e-02	3.0310	12.274736	0.000606	6.056105	1.025932	0.024199
 154	7.6500e-02	3.0521	12.415894	0.000707	7.065456	1.196921	0.028232
 155	7.7000e-02	3.0719	12.569152	0.000767	7.671066	1.299514	0.030652
 156	7.7500e-02	3.0907	12.678045	0.000545	5.450494	0.923339	0.021779
 157	7.8000e-02	3.1107	12.839369	0.000807	8.074807	1.367909	0.032265
 158	7.8500e-02	3.1314	13.004726	0.000828	8.276677	1.402107	0.033071
 159	7.9000e-02	3.1508	13.186216	0.000908	9.084157	1.538898	0.036298
 160	7.9500e-02	3.1712	13.274944	0.000444	4.441144	0.752350	0.017746
 161	8.0000e-02	3.1914	13.452400	0.000888	8.882287	1.504700	0.035491
 162	8.0500e-02	3.2117	13.617757	0.000828	8.276677	1.402107	0.033071
 163	8.1000e-02	3.2309	13.702453	0.000424	4.239273	0.718152	0.016939
 164	8.1500e-02	3.2520	13.775048	0.000363	3.633663	0.615559	0.014519
 165	8.2000e-02	3.2718	13.912174	0.000686	6.863586	1.162723	0.027425
 166	8.2500e-02	3.2916	14.125928	0.001070	10.699119	1.812480	0.042751
 167	8.3000e-02	3.3115	14.279186	0.000767	7.671066	1.299514	0.030652
 168	8.3500e-02	3.3315	14.476807	0.000989	9.891638	1.675689	0.039524
 169	8.4000e-02	3.3516	14.593767	0.000585	5.854235	0.991734	0.023392
 170	8.4500e-02	3.3717	14.767191	0.000868	8.680417	1.470502	0.034685
 171	8.5000e-02	3.3908	14.847853	0.000404	4.037403	0.683955	0.016132
 172	8.5500e-02	3.4114	14.984978	0.000686	6.863586	1.162723	0.027425
 173	8.6000e-02	3.4319	15.162434	0.000888	8.882287	1.504700	0.035491
 174	8.6500e-02	3.4523	15.295526	0.000666	6.661715	1.128525	0.026618
 175	8.7000e-02	3.4723	15.444751	0.000747	7.469196	1.265316	0.029845
 176	8.7500e-02	3.4906	15.537512	0.000464	4.643014	0.786548	0.018552
 177	8.8000e-02	3.5114	15.714969	0.000888	8.882287	1.504700	0.035491
 178	8.8500e-02	3.5323	15.864193	0.000747	7.469196	1.265316	0.029845
 179	8.9000e-02	3.5519	15.997286	0.000666	6.661715	1.128525	0.026618
 180	8.9500e-02	3.5718	16.174742	0.000888	8.882287	1.504700	0.035491
 181	9.0000e-02	3.5919	16.360264	0.000929	9.286028	1.573096	0.037105
 182	9.0500e-02	3.6118	16.481257	0.000606	6.056105	1.025932	0.024199
 183	9.1000e-02	3.6314	16.594184	0.000565	5.652365	0.957536	0.022585
 184	9.1500e-02	3.6523	16.735343	0.000707	7.065456	1.196921	0.028232
 185	9.2000e-02	3.6719	16.908766	0.000868	8.680417	1.470502	0.034685
 186	9.2500e-02	3.6922	17.021693	0.000565	5.652365	0.957536	0.022585
 187	9.3000e-02	3.7122	17.170917	0.000747	7.469196	1.265316	0.029845
 188	9.3500e-02	3.7329	17.299976	0.000646	6.459845	1.094327	0.025812
 189	9.4000e-02	3.7524	17.449201	0.000747	7.469196	1.265316	0.029845
 190	9.4500e-02	3.7711	17.618591	0.000848	8.478547	1.436305	0.033878
 191	9.5000e-02	3.7933	17.804114	0.000929	9.286028	1.573096	0.037105
 192	9.5500e-02	3.8129	17.900908	0.000484	4.844884	0.820746	0.019359
 193	9.6000e-02	3.8312	18.042067	0.000707	7.065456	1.196921	0.028232
 194	9.6500e-02	3.8518	18.207424	0.000828	8.276677	1.402107	0.033071
 195	9.7000e-02	3.8730	18.352615	0.000727	7.267326	1.231118	0.029038
 196	9.7500e-02	3.8921	18.469575	0.000585	5.854235	0.991734	0.023392
 197	9.8000e-02	3.9124	18.634932	0.000828	8.276677	1.402107	0.033071
 198	9.8500e-02	3.9322	18.755925	0.000606	6.056105	1.025932	0.024199
 199	9.9000e-02	3.9520	18.864819	0.000545	5.450494	0.923339	0.021779
 200	9.9500e-02	3.9716	19.062441	0.000989	9.891638	1.675689	0.039524
 201	1.0000e-01	3.9912	19.171334	0.000545	5.450494	0.923339	0.021779
 202	1.0050e-01	4.0121	19.340724	0.000848	8.478547	1.436305	0.033878
 203	1.0100e-01	4.0320	19.538346	0.000989	9.891638	1.675689	0.039524
 204	1.0150e-01	4.0527	19.570611	0.000161	1.614961	0.273582	0.006453
 205	1.0200e-01	4.0717	19.760167	0.000949	9.487898	1.607293	0.037911
 206	1.0250e-01	4.0924	19.877126	0.000585	5.854235	0.991734	0.023392
 207	1.0300e-01	4.1118	20.042484	0.000828	8.276677	1.402107	0.033071
 208	1.0350e-01	4.1316	20.236072	0.000969	9.689768	1.641491	0.038718
 209	1.0400e-01	4.1516	20.405462	0.000848	8.478547	1.436305	0.033878
 210	1.0450e-01	4.1721	20.522422	0.000585	5.854235	0.991734	0.023392
 211	1.0500e-01	4.1919	20.595018	0.000363	3.633663	0.615559	0.014519
 212	1.0550e-01	4.2122	20.756342	0.000807	8.074807	1.367909	0.032265
 213	1.0600e-01	4.2325	20.921699	0.000828	8.276677	1.402107	0.033071
 214	1.0650e-01	4.2511	21.070924	0.000747	7.469196	1.265316	0.029845
 215	1.0700e-01	4.2719	21.187884	0.000585	5.854235	0.991734	0.023392
 216	1.0750e-01	4.2920	21.349207	0.000807	8.074807	1.367909	0.032265
 217	1.0800e-01	4.3116	21.462134	0.000565	5.652365	0.957536	0.022585
 218	1.0850e-01	4.3323	21.619425	0.000787	7.872936	1.333712	0.031458
 219	1.0900e-01	4.3524	21.772683	0.000767	7.671066	1.299514	0.030652
 220	1.0950e-01	4.3726	21.942073	0.000848	8.478547	1.436305	0.033878
 221	1.1000e-01	4.3921	22.083231	0.000707	7.065456	1.196921	0.028232
 222	1.1050e-01	4.4119	22.216324	0.000666	6.661715	1.128525	0.026618
 223	1.1100e-01	4.4333	22.365548	0.000747	7.469196	1.265316	0.029845
 224	1.1150e-01	4.4525	22.498641	0.000666	6.661715	1.128525	0.026618
 225	1.1200e-01	4.4728	22.647865	0.000747	7.469196	1.265316	0.029845
 226	1.1250e-01	4.4922	22.744660	0.000484	4.844884	0.820746	0.019359
 227	1.1300e-01	4.5123	22.958414	0.001070	10.699119	1.812480	0.042751
 228	1.1350e-01	4.5326	23.059241	0.000505	5.046754	0.854943	0.020165
 229	1.1400e-01	4.5526	23.200400	0.000707	7.065456	1.196921	0.028232
 230	1.1450e-01	4.5731	23.337525	0.000686	6.863586	1.162723	0.027425
 231	1.1500e-01	4.5926	23.482717	0.000727	7.267326	1.231118	0.029038
 232	1.1550e-01	4.6126	23.595643	0.000565	5.652365	0.957536	0.022585
 233	1.1600e-01	4.6332	23.732769	0.000686	6.863586	1.162723	0.027425
 234	1.1650e-01	4.6527	23.886026	0.000767	7.671066	1.299514	0.030652
 235	1.1700e-01	4.6729	24.011053	0.000626	6.257975	1.060130	0.025005
 236	1.1750e-01	4.6931	24.196575	0.000929	9.286028	1.573096	0.037105
 237	1.1800e-01	4.7125	24.378065	0.000908	9.084157	1.538898	0.036298
 238	1.1850e-01	4.7340	24.482925	0.000525	5.248624	0.889141	0.020972
 239	1.1900e-01	4.7528	24.628117	0.000727	7.267326	1.231118	0.029038
 240	1.1950e-01	4.7729	24.785407	0.000787	7.872936	1.333712	0.031458
 241	1.2000e-01	4.7926	24.918500	0.000666	6.661715	1.128525	0.026618
 242	1.2050e-01	4.8132	25.083857	0.000828	8.276677	1.402107	0.033071
 243	1.2100e-01	4.8334	25.200817	0.000585	5.854235	0.991734	0.023392
 244	1.2150e-01	4.8535	25.350041	0.000747	7.469196	1.265316	0.029845
 245	1.2200e-01	4.8730	25.507332	0.000787	7.872936	1.333712	0.031458
 246	1.2250e-01	4.8920	25.628325	0.000606	6.056105	1.025932	0.024199
 247	1.2300e-01	4.9123	25.769484	0.000707	7.065456	1.196921	0.028232
 248	1.2350e-01	4.9335	25.975172	0.001030	10.295378	1.744084	0.041138
 249	1.2400e-01	4.9530	26.084065	0.000545	5.450494	0.923339	0.021779
 250	1.2450e-01	4.9731	26.209091	0.000626	6.257975	1.060130	0.025005
 251	1.2500e-01	4.9933	26.342184	0.000666	6.661715	1.128525	0.026618
 252	1.2550e-01	5.0128	26.539805	0.000989	9.891638	1.675689	0.039524
 253	1.2600e-01	5.0336	26.664831	0.000626	6.257975	1.060130	0.025005
 254	1.2650e-01	5.0539	26.757593	0.000464	4.643014	0.786548	0.018552
 255	1.2700e-01	5.0726	27.015711	0.001292	12.919691	2.188655	0.051624
 256	1.2750e-01	5.0928	27.031843	0.000081	0.807481	0.136791	0.003226
 257	1.2800e-01	5.1135	27.201234	0.000848	8.478547	1.436305	0.033878
 258	1.2850e-01	5.1331	27.346425	0.000727	7.267326	1.231118	0.029038
 259	1.2900e-01	5.1529	27.483550	0.000686	6.863586	1.162723	0.027425
 260	1.2950e-01	5.1730	27.580345	0.000484	4.844884	0.820746	0.019359
 261	1.3000e-01	5.1929	27.721503	0.000707	7.065456	1.196921	0.028232
 262	1.3050e-01	5.2130	27.911059	0.000949	9.487898	1.607293	0.037911
