»»»»»»»»»»»»»»»»»»»»»»»»»»»»»»»»»»»» Hysteresis ««««««««««««««««««««««««««««««««««««
»»»  Executed Version:	5.48.1
»»»  Vision Version:	5.48.4 (R)
»»»  Vision Compiled:	9/18/24
»»»  Driver Version:	5.47.0
»»»  Windows Version:	Windows 8 or 8.1
»»»  Processor Information:	x86 (AMD or Intel) - 32 Processors
»»»  Tester Name:	PMF21124-494 (100V)
»»»  Tester S/N:	PMF21124-494
»»»  Internal Amp Type:	100V RevK 270k
»»»  Internal Amp S/N:	iAB2-596/K     
»»»  Execution Count:	1
»»»»»»»»»»»»»»»»»»»»»»»»»»»»»»»»»»»»»»»»»»««««««««««««««««««««««««««««««««««««««««««

Stored:	7/8/2025 - 15:39:43
Configured:	07/08/25 02:50:47 PM
Executed:	07/08/25 03:39:03 PM

»»»»»»»»»»»»»»»»»»»»»»»»»»»»»»»»»»» Sample Info ««««««««««««««««««««««««««««««««««««
Sample Name:	
Lot Name:	
Wafer Name:	
Die Row/Column:	0/0
Capacitor Number:	0
Sample Area (cm2):	1.00e-04
Sample Thickness (microns):	1.50e-01

Amplifier:	Internal

»»»»»»»»»»»»»»»»»»»»»»»»»»»»»»»»»»» Tester Info «««««««««««««««««««««««««««««««««««
Tester Name:	PMF21124-494 (100V)
Tester Serial Number:	PMF21124-494
Return Signal Amp. Level:	0.19 [Index: 3]

»»»»»»»»»»»»»»»»»»»»»»»»»»»»»»»» Hysteresis Info ««««««««««««««««««««««««««««««««««
Task Name:	Hyst-724
Volts:	10.00
Field:	666.67 (kV/cm)
DCBias:	0.00
DCField:	0.00 (kV/cm)
Hysteresis Period (ms):	1.00e+00
Preset:	Enabled
Preset Delay (ms):	1.00e+03
Profile:	Standard Bipolar

»»»»»»»»»»»»»»»»»»»»»»»»»»»»»»»»»»»»»» Data «««««««««««««««««««««««««««««««««««««««
Points:	2001

Valid Data

Point	Time (ms)	Drive Voltage	Measured Polarization (uC/cm2)	Capacitance (uF)	Normalized Capacitance (uF/cm2)	Dielectric Constant	Instantaneous Current (mA)
   1	0.0000e+00	0.0008	3.871775	0.000464	4.644681	0.786830	0.018552
   2	5.0000e-04	0.0100	3.964536	0.000464	4.644681	0.786830	0.018552
   3	1.0000e-03	0.0273	4.113761	0.000747	7.471878	1.265770	0.029845
   4	1.5000e-03	0.0478	4.283151	0.000848	8.481592	1.436821	0.033878
   5	2.0000e-03	0.0679	4.420276	0.000687	6.866050	1.163140	0.027425
   6	2.5000e-03	0.0872	4.609832	0.000949	9.491305	1.607871	0.037911
   7	3.0000e-03	0.1070	4.835685	0.001131	11.308789	1.915761	0.045171
   8	3.5000e-03	0.1275	4.936513	0.000505	5.048566	0.855250	0.020165
   9	4.0000e-03	0.1480	5.118002	0.000909	9.087420	1.539451	0.036298
  10	4.5000e-03	0.1672	5.271260	0.000767	7.673821	1.299980	0.030652
  11	5.0000e-03	0.1875	5.472915	0.001010	10.097133	1.710501	0.040331
  12	5.5000e-03	0.2075	5.662470	0.000949	9.491305	1.607871	0.037911
  13	6.0000e-03	0.2254	5.606007	-0.000283	-2.827197	-0.478940	-0.011293
  14	6.5000e-03	0.2474	5.989151	0.001918	19.184552	3.249951	0.076629
  15	7.0000e-03	0.2678	6.122244	0.000666	6.664108	1.128930	0.026618
  16	7.5000e-03	0.2872	6.291634	0.000848	8.481592	1.436821	0.033878
  17	8.0000e-03	0.3083	6.473123	0.000909	9.087420	1.539451	0.036298
  18	8.5000e-03	0.3271	6.670745	0.000990	9.895190	1.676291	0.039524
  19	9.0000e-03	0.3479	6.803837	0.000666	6.664108	1.128930	0.026618
  20	9.5000e-03	0.3675	7.037757	0.001171	11.712674	1.984181	0.046784
  21	1.0000e-02	0.3871	7.219246	0.000909	9.087420	1.539451	0.036298
  22	1.0500e-02	0.4073	7.428968	0.001050	10.501018	1.778921	0.041944
  23	1.1000e-02	0.4282	7.461232	0.000162	1.615541	0.273680	0.006453
  24	1.1500e-02	0.4470	7.666920	0.001030	10.299075	1.744711	0.041138
  25	1.2000e-02	0.4687	7.824211	0.000788	7.875764	1.334190	0.031458
  26	1.2500e-02	0.4874	7.961337	0.000687	6.866050	1.163140	0.027425
  27	1.3000e-02	0.5074	8.199289	0.001191	11.914617	2.018391	0.047591
  28	1.3500e-02	0.5272	8.360613	0.000808	8.077706	1.368400	0.032265
  29	1.4000e-02	0.5482	8.525970	0.000828	8.279649	1.402610	0.033071
  30	1.4500e-02	0.5679	8.687294	0.000808	8.077706	1.368400	0.032265
  31	1.5000e-02	0.5874	9.074472	0.001939	19.386495	3.284161	0.077435
  32	1.5500e-02	0.6079	8.961545	-0.000565	-5.654394	-0.957880	-0.022585
  33	1.6000e-02	0.6288	9.199498	0.001191	11.914617	2.018391	0.047591
  34	1.6500e-02	0.6470	9.372921	0.000868	8.683534	1.471031	0.034685
  35	1.7000e-02	0.6671	9.485848	0.000565	5.654394	0.957880	0.022585
  36	1.7500e-02	0.6877	9.780264	0.001474	14.741814	2.497331	0.058883
  37	1.8000e-02	0.7072	9.945621	0.000828	8.279649	1.402610	0.033071
  38	1.8500e-02	0.7272	10.010151	0.000323	3.231082	0.547360	0.012906
  39	1.9000e-02	0.7478	10.276335	0.001333	13.328215	2.257861	0.053237
  40	1.9500e-02	0.7674	10.417494	0.000707	7.067993	1.197350	0.028232
  41	2.0000e-02	0.7880	10.594950	0.000889	8.885477	1.505241	0.035491
  42	2.0500e-02	0.8080	10.768373	0.000868	8.683534	1.471031	0.034685
  43	2.1000e-02	0.8276	10.921631	0.000767	7.673821	1.299980	0.030652
  44	2.1500e-02	0.8477	11.091021	0.000848	8.481592	1.436821	0.033878
  45	2.2000e-02	0.8682	11.288643	0.000990	9.895190	1.676291	0.039524
  46	2.2500e-02	0.8868	11.474166	0.000929	9.289362	1.573661	0.037105
  47	2.3000e-02	0.9083	11.595158	0.000606	6.058280	1.026300	0.024199
  48	2.3500e-02	0.9280	11.788747	0.000969	9.693247	1.642081	0.038718
  49	2.4000e-02	0.9480	11.954104	0.000828	8.279649	1.402610	0.033071
  50	2.4500e-02	0.9676	12.139627	0.000929	9.289362	1.573661	0.037105
  51	2.5000e-02	0.9881	12.325149	0.000929	9.289362	1.573661	0.037105
  52	2.5500e-02	1.0077	12.490506	0.000828	8.279649	1.402610	0.033071
  53	2.6000e-02	1.0284	12.619566	0.000646	6.462165	1.094720	0.025812
  54	2.6500e-02	1.0478	12.837353	0.001090	10.904903	1.847341	0.043557
  55	2.7000e-02	1.0680	13.002710	0.000828	8.279649	1.402610	0.033071
  56	2.7500e-02	1.0876	13.160001	0.000788	7.875764	1.334190	0.031458
  57	2.8000e-02	1.1085	13.293093	0.000666	6.664108	1.128930	0.026618
  58	2.8500e-02	1.1285	13.510880	0.001090	10.904903	1.847341	0.043557
  59	2.9000e-02	1.1477	13.652039	0.000707	7.067993	1.197350	0.028232
  60	2.9500e-02	1.1681	13.833528	0.000909	9.087420	1.539451	0.036298
  61	3.0000e-02	1.1891	14.043249	0.001050	10.501018	1.778921	0.041944
  62	3.0500e-02	1.2081	14.208606	0.000828	8.279649	1.402610	0.033071
  63	3.1000e-02	1.2275	14.394129	0.000929	9.289362	1.573661	0.037105
  64	3.1500e-02	1.2474	14.579651	0.000929	9.289362	1.573661	0.037105
  65	3.2000e-02	1.2683	14.749042	0.000848	8.481592	1.436821	0.033878
  66	3.2500e-02	1.2872	14.918432	0.000848	8.481592	1.436821	0.033878
  67	3.3000e-02	1.3070	15.116054	0.000990	9.895190	1.676291	0.039524
  68	3.3500e-02	1.3274	15.233013	0.000586	5.856337	0.992090	0.023392
  69	3.4000e-02	1.3484	15.442735	0.001050	10.501018	1.778921	0.041944
  70	3.4500e-02	1.3671	15.575827	0.000666	6.664108	1.128930	0.026618
  71	3.5000e-02	1.3874	15.769416	0.000969	9.693247	1.642081	0.038718
  72	3.5500e-02	1.4078	15.971070	0.001010	10.097133	1.710501	0.040331
  73	3.6000e-02	1.4279	16.128361	0.000788	7.875764	1.334190	0.031458
  74	3.6500e-02	1.4473	16.297751	0.000848	8.481592	1.436821	0.033878
  75	3.7000e-02	1.4668	16.459075	0.000808	8.077706	1.368400	0.032265
  76	3.7500e-02	1.4881	16.684929	0.001131	11.308789	1.915761	0.045171
  77	3.8000e-02	1.5080	16.834154	0.000747	7.471878	1.265770	0.029845
  78	3.8500e-02	1.5279	17.007577	0.000868	8.683534	1.471031	0.034685
  79	3.9000e-02	1.5482	17.176967	0.000848	8.481592	1.436821	0.033878
  80	3.9500e-02	1.5672	17.382655	0.001030	10.299075	1.744711	0.041138
  81	4.0000e-02	1.5877	17.580277	0.000990	9.895190	1.676291	0.039524
  82	4.0500e-02	1.6072	17.753700	0.000868	8.683534	1.471031	0.034685
  83	4.1000e-02	1.6281	17.910991	0.000788	7.875764	1.334190	0.031458
  84	4.1500e-02	1.6476	18.096513	0.000929	9.289362	1.573661	0.037105
  85	4.2000e-02	1.6681	18.302201	0.001030	10.299075	1.744711	0.041138
  86	4.2500e-02	1.6876	18.366731	0.000323	3.231082	0.547360	0.012906
  87	4.3000e-02	1.7078	18.608717	0.001212	12.116559	2.052601	0.048397
  88	4.3500e-02	1.7279	18.790206	0.000909	9.087420	1.539451	0.036298
  89	4.4000e-02	1.7483	18.935398	0.000727	7.269936	1.231560	0.029038
  90	4.4500e-02	1.7667	19.145119	0.001050	10.501018	1.778921	0.041944
  91	4.5000e-02	1.7882	19.318542	0.000868	8.683534	1.471031	0.034685
  92	4.5500e-02	1.8073	19.508098	0.000949	9.491305	1.607871	0.037911
  93	4.6000e-02	1.8274	19.677488	0.000848	8.481592	1.436821	0.033878
  94	4.6500e-02	1.8476	19.838812	0.000808	8.077706	1.368400	0.032265
  95	4.7000e-02	1.8671	20.020301	0.000909	9.087420	1.539451	0.036298
  96	4.7500e-02	1.8878	20.205824	0.000929	9.289362	1.573661	0.037105
  97	4.8000e-02	1.9083	20.351016	0.000727	7.269936	1.231560	0.029038
  98	4.8500e-02	1.9278	20.548637	0.000990	9.895190	1.676291	0.039524
  99	4.9000e-02	1.9476	20.766425	0.001090	10.904903	1.847341	0.043557
 100	4.9500e-02	1.9675	20.943881	0.000889	8.885477	1.505241	0.035491
 101	5.0000e-02	1.9882	21.064874	0.000606	6.058280	1.026300	0.024199
 102	5.0500e-02	2.0071	21.298794	0.001171	11.712674	1.984181	0.046784
 103	5.1000e-02	2.0282	21.443985	0.000727	7.269936	1.231560	0.029038
 104	5.1500e-02	2.0477	21.613375	0.000848	8.481592	1.436821	0.033878
 105	5.2000e-02	2.0680	21.847295	0.001171	11.712674	1.984181	0.046784
 106	5.2500e-02	2.0868	22.077182	0.001151	11.510731	1.949971	0.045977
 107	5.3000e-02	2.1079	22.169943	0.000464	4.644681	0.786830	0.018552
 108	5.3500e-02	2.1278	22.331267	0.000808	8.077706	1.368400	0.032265
 109	5.4000e-02	2.1481	22.532922	0.001010	10.097133	1.710501	0.040331
 110	5.4500e-02	2.1680	22.694246	0.000808	8.077706	1.368400	0.032265
 111	5.5000e-02	2.1874	22.867669	0.000868	8.683534	1.471031	0.034685
 112	5.5500e-02	2.2083	23.097556	0.001151	11.510731	1.949971	0.045977
 113	5.6000e-02	2.2282	23.242747	0.000727	7.269936	1.231560	0.029038
 114	5.6500e-02	2.2475	23.416170	0.000868	8.683534	1.471031	0.034685
 115	5.7000e-02	2.2678	23.577494	0.000808	8.077706	1.368400	0.032265
 116	5.7500e-02	2.2888	23.775116	0.000990	9.895190	1.676291	0.039524
 117	5.8000e-02	2.3077	23.976771	0.001010	10.097133	1.710501	0.040331
 118	5.8500e-02	2.3286	24.162294	0.000929	9.289362	1.573661	0.037105
 119	5.9000e-02	2.3479	24.283287	0.000606	6.058280	1.026300	0.024199
 120	5.9500e-02	2.3678	24.513173	0.001151	11.510731	1.949971	0.045977
 121	6.0000e-02	2.3885	24.638199	0.000626	6.260222	1.060510	0.025005
 122	6.0500e-02	2.4073	24.868086	0.001151	11.510731	1.949971	0.045977
 123	6.1000e-02	2.4283	25.061675	0.000969	9.693247	1.642081	0.038718
 124	6.1500e-02	2.4481	24.888251	-0.000868	-8.683534	-1.471031	-0.034685
 125	6.2000e-02	2.4683	25.460951	0.002868	28.675857	4.857822	0.114540
 126	6.2500e-02	2.4878	25.614209	0.000767	7.673821	1.299980	0.030652
 127	6.3000e-02	2.5074	25.763434	0.000747	7.471878	1.265770	0.029845
 128	6.3500e-02	2.5284	25.985254	0.001111	11.106846	1.881551	0.044364
 129	6.4000e-02	2.5480	26.082049	0.000485	4.846624	0.821040	0.019359
 130	6.4500e-02	2.5679	26.340167	0.001292	12.924330	2.189441	0.051624
 131	6.5000e-02	2.5874	26.517623	0.000889	8.885477	1.505241	0.035491
 132	6.5500e-02	2.6074	26.650716	0.000666	6.664108	1.128930	0.026618
 133	6.6000e-02	2.6280	26.856404	0.001030	10.299075	1.744711	0.041138
 134	6.6500e-02	2.6483	27.005628	0.000747	7.471878	1.265770	0.029845
 135	6.7000e-02	2.6674	27.166952	0.000808	8.077706	1.368400	0.032265
 136	6.7500e-02	2.6877	27.348442	0.000909	9.087420	1.539451	0.036298
 137	6.8000e-02	2.7075	27.558163	0.001050	10.501018	1.778921	0.041944
 138	6.8500e-02	2.7267	27.723520	0.000828	8.279649	1.402610	0.033071
 139	6.9000e-02	2.7472	27.900976	0.000889	8.885477	1.505241	0.035491
 140	6.9500e-02	2.7670	28.046168	0.000727	7.269936	1.231560	0.029038
 141	7.0000e-02	2.7872	28.211525	0.000828	8.279649	1.402610	0.033071
 142	7.0500e-02	2.8081	28.417213	0.001030	10.299075	1.744711	0.041138
 143	7.1000e-02	2.8281	28.590636	0.000868	8.683534	1.471031	0.034685
 144	7.1500e-02	2.8477	28.808423	0.001090	10.904903	1.847341	0.043557
 145	7.2000e-02	2.8683	28.973780	0.000828	8.279649	1.402610	0.033071
 146	7.2500e-02	2.8879	29.110906	0.000687	6.866050	1.163140	0.027425
 147	7.3000e-02	2.9076	29.316594	0.001030	10.299075	1.744711	0.041138
 148	7.3500e-02	2.9279	29.534381	0.001090	10.904903	1.847341	0.043557
 149	7.4000e-02	2.9477	29.691672	0.000788	7.875764	1.334190	0.031458
 150	7.4500e-02	2.9675	29.865095	0.000868	8.683534	1.471031	0.034685
 151	7.5000e-02	2.9877	30.103048	0.001191	11.914617	2.018391	0.047591
 152	7.5500e-02	3.0081	30.215975	0.000565	5.654394	0.957880	0.022585
 153	7.6000e-02	3.0286	30.389398	0.000868	8.683534	1.471031	0.034685
 154	7.6500e-02	3.0486	30.566854	0.000889	8.885477	1.505241	0.035491
 155	7.7000e-02	3.0676	30.756410	0.000949	9.491305	1.607871	0.037911
 156	7.7500e-02	3.0872	30.901601	0.000727	7.269936	1.231560	0.029038
 157	7.8000e-02	3.1073	31.127455	0.001131	11.308789	1.915761	0.045171
 158	7.8500e-02	3.1287	31.272647	0.000727	7.269936	1.231560	0.029038
 159	7.9000e-02	3.1476	31.442037	0.000848	8.481592	1.436821	0.033878
 160	7.9500e-02	3.1677	31.675956	0.001171	11.712674	1.984181	0.046784
 161	8.0000e-02	3.1880	31.800982	0.000626	6.260222	1.060510	0.025005
 162	8.0500e-02	3.2069	31.954240	0.000767	7.673821	1.299980	0.030652
 163	8.1000e-02	3.2272	32.212359	0.001292	12.924330	2.189441	0.051624
 164	8.1500e-02	3.2477	32.365616	0.000767	7.673821	1.299980	0.030652
 165	8.2000e-02	3.2678	32.502742	0.000687	6.866050	1.163140	0.027425
 166	8.2500e-02	3.2883	32.668099	0.000828	8.279649	1.402610	0.033071
 167	8.3000e-02	3.3081	32.845555	0.000889	8.885477	1.505241	0.035491
 168	8.3500e-02	3.3276	33.047210	0.001010	10.097133	1.710501	0.040331
 169	8.4000e-02	3.3478	33.220633	0.000868	8.683534	1.471031	0.034685
 170	8.4500e-02	3.3676	33.373891	0.000767	7.673821	1.299980	0.030652
 171	8.5000e-02	3.3876	33.551347	0.000889	8.885477	1.505241	0.035491
 172	8.5500e-02	3.4079	33.704605	0.000767	7.673821	1.299980	0.030652
 173	8.6000e-02	3.4280	33.869962	0.000828	8.279649	1.402610	0.033071
 174	8.6500e-02	3.4479	34.067584	0.000990	9.895190	1.676291	0.039524
 175	8.7000e-02	3.4680	34.253106	0.000929	9.289362	1.573661	0.037105
 176	8.7500e-02	3.4888	34.450728	0.000990	9.895190	1.676291	0.039524
 177	8.8000e-02	3.5083	34.587854	0.000687	6.866050	1.163140	0.027425
 178	8.8500e-02	3.5275	34.833873	0.001232	12.318502	2.086811	0.049204
 179	8.9000e-02	3.5477	34.930667	0.000485	4.846624	0.821040	0.019359
 180	8.9500e-02	3.5681	35.136355	0.001030	10.299075	1.744711	0.041138
 181	9.0000e-02	3.5876	35.329944	0.000969	9.693247	1.642081	0.038718
 182	9.0500e-02	3.6078	35.495301	0.000828	8.279649	1.402610	0.033071
 183	9.1000e-02	3.6282	35.717121	0.001111	11.106846	1.881551	0.044364
 184	9.1500e-02	3.6481	35.817949	0.000505	5.048566	0.855250	0.020165
 185	9.2000e-02	3.6682	36.051868	0.001171	11.712674	1.984181	0.046784
 186	9.2500e-02	3.6873	36.188994	0.000687	6.866050	1.163140	0.027425
 187	9.3000e-02	3.7091	36.370483	0.000909	9.087420	1.539451	0.036298
 188	9.3500e-02	3.7286	36.535840	0.000828	8.279649	1.402610	0.033071
 189	9.4000e-02	3.7482	36.709263	0.000868	8.683534	1.471031	0.034685
 190	9.4500e-02	3.7680	36.878654	0.000848	8.481592	1.436821	0.033878
 191	9.5000e-02	3.7892	37.052077	0.000868	8.683534	1.471031	0.034685
 192	9.5500e-02	3.8077	37.221467	0.000848	8.481592	1.436821	0.033878
 193	9.6000e-02	3.8275	37.390857	0.000848	8.481592	1.436821	0.033878
 194	9.6500e-02	3.8470	37.527982	0.000687	6.866050	1.163140	0.027425
 195	9.7000e-02	3.8673	37.661075	0.000666	6.664108	1.128930	0.026618
 196	9.7500e-02	3.8882	37.890961	0.001151	11.510731	1.949971	0.045977
 197	9.8000e-02	3.9075	38.052285	0.000808	8.077706	1.368400	0.032265
 198	9.8500e-02	3.9285	38.189411	0.000687	6.866050	1.163140	0.027425
 199	9.9000e-02	3.9484	38.516092	0.001636	16.357355	2.771011	0.065336
 200	9.9500e-02	3.9673	38.629018	0.000565	5.654394	0.957880	0.022585
 201	1.0000e-01	3.9881	38.705647	0.000384	3.836910	0.649990	0.015326
 202	1.0050e-01	4.0074	38.875037	0.000848	8.481592	1.436821	0.033878
 203	1.0100e-01	4.0274	39.092825	0.001090	10.904903	1.847341	0.043557
 204	1.0150e-01	4.0485	39.266248	0.000868	8.683534	1.471031	0.034685
 205	1.0200e-01	4.0680	39.447737	0.000909	9.087420	1.539451	0.036298
 206	1.0250e-01	4.0884	39.625194	0.000889	8.885477	1.505241	0.035491
 207	1.0300e-01	4.1080	39.770385	0.000727	7.269936	1.231560	0.029038
 208	1.0350e-01	4.1278	39.996239	0.001131	11.308789	1.915761	0.045171
 209	1.0400e-01	4.1479	40.133364	0.000687	6.866050	1.163140	0.027425
 210	1.0450e-01	4.1681	40.347118	0.001070	10.702961	1.813131	0.042751
 211	1.0500e-01	4.1888	40.484244	0.000687	6.866050	1.163140	0.027425
 212	1.0550e-01	4.2081	40.637502	0.000767	7.673821	1.299980	0.030652
 213	1.0600e-01	4.2276	40.818991	0.000909	9.087420	1.539451	0.036298
 214	1.0650e-01	4.2482	40.972249	0.000767	7.673821	1.299980	0.030652
 215	1.0700e-01	4.2682	41.141639	0.000848	8.481592	1.436821	0.033878
 216	1.0750e-01	4.2878	41.294897	0.000767	7.673821	1.299980	0.030652
 217	1.0800e-01	4.3079	41.464287	0.000848	8.481592	1.436821	0.033878
 218	1.0850e-01	4.3286	41.581247	0.000586	5.856337	0.992090	0.023392
 219	1.0900e-01	4.3475	41.807100	0.001131	11.308789	1.915761	0.045171
 220	1.0950e-01	4.3672	41.940192	0.000666	6.664108	1.128930	0.026618
 221	1.1000e-01	4.3887	42.206377	0.001333	13.328215	2.257861	0.053237
 222	1.1050e-01	4.4080	42.315271	0.000545	5.452452	0.923670	0.021779
 223	1.1100e-01	4.4284	42.488694	0.000868	8.683534	1.471031	0.034685
 224	1.1150e-01	4.4482	42.674216	0.000929	9.289362	1.573661	0.037105
 225	1.1200e-01	4.4684	42.799242	0.000626	6.260222	1.060510	0.025005
 226	1.1250e-01	4.4885	42.972666	0.000868	8.683534	1.471031	0.034685
 227	1.1300e-01	4.5084	43.097692	0.000626	6.260222	1.060510	0.025005
 228	1.1350e-01	4.5279	43.291280	0.000969	9.693247	1.642081	0.038718
 229	1.1400e-01	4.5479	43.517134	0.001131	11.308789	1.915761	0.045171
 230	1.1450e-01	4.5685	43.682491	0.000828	8.279649	1.402610	0.033071
 231	1.1500e-01	4.5883	43.771219	0.000444	4.442738	0.752620	0.017746
 232	1.1550e-01	4.6082	43.912378	0.000707	7.067993	1.197350	0.028232
 233	1.1600e-01	4.6278	44.114033	0.001010	10.097133	1.710501	0.040331
 234	1.1650e-01	4.6480	44.279390	0.000828	8.279649	1.402610	0.033071
 235	1.1700e-01	4.6680	44.481044	0.001010	10.097133	1.710501	0.040331
 236	1.1750e-01	4.6881	44.646402	0.000828	8.279649	1.402610	0.033071
 237	1.1800e-01	4.7084	44.787560	0.000707	7.067993	1.197350	0.028232
 238	1.1850e-01	4.7302	44.948884	0.000808	8.077706	1.368400	0.032265
 239	1.1900e-01	4.7485	45.086009	0.000687	6.866050	1.163140	0.027425
 240	1.1950e-01	4.7693	45.283631	0.000990	9.895190	1.676291	0.039524
 241	1.2000e-01	4.7882	45.448988	0.000828	8.279649	1.402610	0.033071
 242	1.2050e-01	4.8090	45.630478	0.000909	9.087420	1.539451	0.036298
 243	1.2100e-01	4.8282	45.787768	0.000788	7.875764	1.334190	0.031458
 244	1.2150e-01	4.8480	45.920861	0.000666	6.664108	1.128930	0.026618
 245	1.2200e-01	4.8689	46.098317	0.000889	8.885477	1.505241	0.035491
 246	1.2250e-01	4.8885	46.227376	0.000646	6.462165	1.094720	0.025812
 247	1.2300e-01	4.9075	46.392733	0.000828	8.279649	1.402610	0.033071
 248	1.2350e-01	4.9280	46.594388	0.001010	10.097133	1.710501	0.040331
 249	1.2400e-01	4.9495	46.755712	0.000808	8.077706	1.368400	0.032265
 250	1.2450e-01	4.9683	46.880738	0.000626	6.260222	1.060510	0.025005
 251	1.2500e-01	4.9878	47.066261	0.000929	9.289362	1.573661	0.037105
 252	1.2550e-01	5.0076	47.271949	0.001030	10.299075	1.744711	0.041138
 253	1.2600e-01	5.0281	47.417140	0.000727	7.269936	1.231560	0.029038
 254	1.2650e-01	5.0491	47.554266	0.000687	6.866050	1.163140	0.027425
 255	1.2700e-01	5.0677	47.739788	0.000929	9.289362	1.573661	0.037105
 256	1.2750e-01	5.0879	47.876914	0.000687	6.866050	1.163140	0.027425
 257	1.2800e-01	5.1080	48.034204	0.000788	7.875764	1.334190	0.031458
 258	1.2850e-01	5.1282	48.207628	0.000868	8.683534	1.471031	0.034685
 259	1.2900e-01	5.1486	48.352819	0.000727	7.269936	1.231560	0.029038
 260	1.2950e-01	5.1685	48.522209	0.000848	8.481592	1.436821	0.033878
