»»»»»»»»»»»»»»»»»»»»»»»»»»»»»»»»»»»» Hysteresis ««««««««««««««««««««««««««««««««««««
»»»  Executed Version:	5.48.1
»»»  Vision Version:	5.48.4 (R)
»»»  Vision Compiled:	9/18/24
»»»  Driver Version:	5.47.0
»»»  Windows Version:	Windows 8 or 8.1
»»»  Processor Information:	x86 (AMD or Intel) - 32 Processors
»»»  Tester Name:	PMF21124-494 (100V)
»»»  Tester S/N:	PMF21124-494
»»»  Internal Amp Type:	100V RevK 270k
»»»  Internal Amp S/N:	iAB2-596/K     
»»»  Execution Count:	1
»»»»»»»»»»»»»»»»»»»»»»»»»»»»»»»»»»»»»»»»»»««««««««««««««««««««««««««««««««««««««««««

Stored:	7/8/2025 - 16:1:29
Configured:	07/08/25 02:50:47 PM
Executed:	07/08/25 04:00:57 PM

»»»»»»»»»»»»»»»»»»»»»»»»»»»»»»»»»»» Sample Info ««««««««««««««««««««««««««««««««««««
Sample Name:	
Lot Name:	
Wafer Name:	
Die Row/Column:	0/0
Capacitor Number:	0
Sample Area (cm2):	1.00e-04
Sample Thickness (microns):	1.50e-01

Amplifier:	Internal

»»»»»»»»»»»»»»»»»»»»»»»»»»»»»»»»»»» Tester Info «««««««««««««««««««««««««««««««««««
Tester Name:	PMF21124-494 (100V)
Tester Serial Number:	PMF21124-494
Return Signal Amp. Level:	0.19 [Index: 3]

»»»»»»»»»»»»»»»»»»»»»»»»»»»»»»»» Hysteresis Info ««««««««««««««««««««««««««««««««««
Task Name:	Hyst-724
Volts:	10.00
Field:	666.67 (kV/cm)
DCBias:	0.00
DCField:	0.00 (kV/cm)
Hysteresis Period (ms):	2.00e+02
Preset:	Enabled
Preset Delay (ms):	1.00e+03
Profile:	Standard Bipolar

»»»»»»»»»»»»»»»»»»»»»»»»»»»»»»»»»»»»»» Data «««««««««««««««««««««««««««««««««««««««
Points:	2009

Valid Data

Point	Time (ms)	Drive Voltage	Measured Polarization (uC/cm2)	Capacitance (uF)	Normalized Capacitance (uF/cm2)	Dielectric Constant	Instantaneous Current (mA)
   1	0.0000e+00	-0.0006	25.888133	0.000649	6.486096	1.098774	0.000130
   2	9.9500e-02	0.0196	26.017321	0.000649	6.486096	1.098774	0.000130
   3	1.9900e-01	0.0392	26.134398	0.000588	5.878025	0.995764	0.000118
   4	2.9850e-01	0.0595	26.287809	0.000770	7.702239	1.304795	0.000154
   5	3.9800e-01	0.0793	26.457369	0.000851	8.513001	1.442141	0.000170
   6	4.9750e-01	0.0993	26.618854	0.000811	8.107620	1.373468	0.000162
   7	5.9700e-01	0.1181	26.707671	0.000446	4.459191	0.755407	0.000089
   8	6.9650e-01	0.1387	26.909528	0.001013	10.134525	1.716835	0.000203
   9	7.9600e-01	0.1599	27.018531	0.000547	5.472644	0.927091	0.000110
  10	8.9550e-01	0.1784	27.171942	0.000770	7.702239	1.304795	0.000154
  11	9.9500e-01	0.1985	27.325353	0.000770	7.702239	1.304795	0.000154
  12	1.0945e+00	0.2176	27.507024	0.000912	9.121073	1.545152	0.000183
  13	1.1940e+00	0.2393	27.599878	0.000466	4.661882	0.789744	0.000093
  14	1.2935e+00	0.2583	27.761364	0.000811	8.107620	1.373468	0.000162
  15	1.3930e+00	0.2776	27.930924	0.000851	8.513001	1.442141	0.000170
  16	1.4925e+00	0.2985	28.039926	0.000547	5.472644	0.927091	0.000110
  17	1.5920e+00	0.3191	28.189300	0.000750	7.499549	1.270458	0.000150
  18	1.6915e+00	0.3381	28.366934	0.000892	8.918382	1.510815	0.000179
  19	1.7910e+00	0.3571	28.475937	0.000547	5.472644	0.927091	0.000110
  20	1.8905e+00	0.3777	28.677794	0.001013	10.134525	1.716835	0.000203
  21	1.9900e+00	0.3976	28.827168	0.000750	7.499549	1.270458	0.000150
  22	2.0895e+00	0.4173	28.984616	0.000790	7.904930	1.339131	0.000158
  23	2.1890e+00	0.4385	29.121879	0.000689	6.891477	1.167448	0.000138
  24	2.2885e+00	0.4581	29.271253	0.000750	7.499549	1.270458	0.000150
  25	2.3880e+00	0.4782	29.408515	0.000689	6.891477	1.167448	0.000138
  26	2.4875e+00	0.4972	29.553852	0.000730	7.296858	1.236121	0.000146
  27	2.5870e+00	0.5168	29.739560	0.000932	9.323763	1.579488	0.000187
  28	2.6865e+00	0.5374	29.864712	0.000628	6.283406	1.064438	0.000126
  29	2.7860e+00	0.5573	30.014086	0.000750	7.499549	1.270458	0.000150
  30	2.8855e+00	0.5771	30.163460	0.000750	7.499549	1.270458	0.000150
  31	2.9850e+00	0.5969	30.312834	0.000750	7.499549	1.270458	0.000150
  32	3.0845e+00	0.6173	30.502579	0.000953	9.526454	1.613825	0.000191
  33	3.1840e+00	0.6381	30.660027	0.000790	7.904930	1.339131	0.000158
  34	3.2835e+00	0.6570	30.756919	0.000486	4.864572	0.824081	0.000097
  35	3.3830e+00	0.6766	30.938590	0.000912	9.121073	1.545152	0.000183
  36	3.4825e+00	0.6970	31.087964	0.000750	7.499549	1.270458	0.000150
  37	3.5820e+00	0.7169	31.245412	0.000790	7.904930	1.339131	0.000158
  38	3.6815e+00	0.7361	31.386712	0.000709	7.094168	1.201785	0.000142
  39	3.7810e+00	0.7571	31.564346	0.000892	8.918382	1.510815	0.000179
  40	3.8805e+00	0.7761	31.709683	0.000730	7.296858	1.236121	0.000146
  41	3.9800e+00	0.7958	31.859057	0.000750	7.499549	1.270458	0.000150
  42	4.0795e+00	0.8160	31.996319	0.000689	6.891477	1.167448	0.000138
  43	4.1790e+00	0.8369	32.153768	0.000790	7.904930	1.339131	0.000158
  44	4.2785e+00	0.8560	32.311216	0.000790	7.904930	1.339131	0.000158
  45	4.3780e+00	0.8763	32.472701	0.000811	8.107620	1.373468	0.000162
  46	4.4775e+00	0.8952	32.618038	0.000730	7.296858	1.236121	0.000146
  47	4.5770e+00	0.9158	32.755301	0.000689	6.891477	1.167448	0.000138
  48	4.6765e+00	0.9353	32.904675	0.000750	7.499549	1.270458	0.000150
  49	4.7760e+00	0.9566	33.114606	0.001054	10.539906	1.785508	0.000211
  50	4.8755e+00	0.9743	33.215534	0.000507	5.067263	0.858418	0.000101
  51	4.9750e+00	0.9962	33.360871	0.000730	7.296858	1.236121	0.000146
  52	5.0745e+00	1.0162	33.530431	0.000851	8.513001	1.442141	0.000170
  53	5.1740e+00	1.0361	33.679805	0.000750	7.499549	1.270458	0.000150
  54	5.2735e+00	1.0554	33.800919	0.000608	6.080715	1.030101	0.000122
  55	5.3730e+00	1.0751	34.010850	0.001054	10.539906	1.785508	0.000211
  56	5.4725e+00	1.0961	34.144076	0.000669	6.688787	1.133111	0.000134
  57	5.5720e+00	1.1163	34.285375	0.000709	7.094168	1.201785	0.000142
  58	5.6715e+00	1.1359	34.426675	0.000709	7.094168	1.201785	0.000142
  59	5.7710e+00	1.1559	34.580086	0.000770	7.702239	1.304795	0.000154
  60	5.8705e+00	1.1751	34.729460	0.000750	7.499549	1.270458	0.000150
  61	5.9700e+00	1.1945	34.907094	0.000892	8.918382	1.510815	0.000179
  62	6.0695e+00	1.2144	35.056468	0.000750	7.499549	1.270458	0.000150
  63	6.1690e+00	1.2355	35.201805	0.000730	7.296858	1.236121	0.000146
  64	6.2685e+00	1.2547	35.355216	0.000770	7.702239	1.304795	0.000154
  65	6.3680e+00	1.2745	35.500553	0.000730	7.296858	1.236121	0.000146
  66	6.4675e+00	1.2942	35.629741	0.000649	6.486096	1.098774	0.000130
  67	6.5670e+00	1.3132	35.815450	0.000932	9.323763	1.579488	0.000187
  68	6.6665e+00	1.3342	35.960787	0.000730	7.296858	1.236121	0.000146
  69	6.7660e+00	1.3533	36.138421	0.000892	8.918382	1.510815	0.000179
  70	6.8655e+00	1.3741	36.263572	0.000628	6.283406	1.064438	0.000126
  71	6.9650e+00	1.3943	36.421020	0.000790	7.904930	1.339131	0.000158
  72	7.0645e+00	1.4137	36.614803	0.000973	9.729144	1.648162	0.000195
  73	7.1640e+00	1.4339	36.703620	0.000446	4.459191	0.755407	0.000089
  74	7.2635e+00	1.4542	36.897402	0.000973	9.729144	1.648162	0.000195
  75	7.3630e+00	1.4735	37.066962	0.000851	8.513001	1.442141	0.000170
  76	7.4625e+00	1.4933	37.212299	0.000730	7.296858	1.236121	0.000146
  77	7.5620e+00	1.5133	37.341487	0.000649	6.486096	1.098774	0.000130
  78	7.6615e+00	1.5331	37.519121	0.000892	8.918382	1.510815	0.000179
  79	7.7610e+00	1.5534	37.656384	0.000689	6.891477	1.167448	0.000138
  80	7.8605e+00	1.5727	37.817869	0.000811	8.107620	1.373468	0.000162
  81	7.9600e+00	1.5933	38.015689	0.000993	9.931835	1.682498	0.000199
  82	8.0595e+00	1.6134	38.161026	0.000730	7.296858	1.236121	0.000146
  83	8.1590e+00	1.6332	38.318474	0.000790	7.904930	1.339131	0.000158
  84	8.2585e+00	1.6528	38.447662	0.000649	6.486096	1.098774	0.000130
  85	8.3580e+00	1.6732	38.633370	0.000932	9.323763	1.579488	0.000187
  86	8.4575e+00	1.6935	38.754485	0.000608	6.080715	1.030101	0.000122
  87	8.5570e+00	1.7122	38.887710	0.000669	6.688787	1.133111	0.000134
  88	8.6565e+00	1.7318	39.061307	0.000872	8.715692	1.476478	0.000174
  89	8.7560e+00	1.7530	39.247015	0.000932	9.323763	1.579488	0.000187
  90	8.8555e+00	1.7722	39.428686	0.000912	9.121073	1.545152	0.000183
  91	8.9550e+00	1.7923	39.549800	0.000608	6.080715	1.030101	0.000122
  92	9.0545e+00	1.8118	39.695137	0.000730	7.296858	1.236121	0.000146
  93	9.1540e+00	1.8325	39.860660	0.000831	8.310311	1.407805	0.000166
  94	9.2535e+00	1.8517	40.058479	0.000993	9.931835	1.682498	0.000199
  95	9.3530e+00	1.8726	40.219965	0.000811	8.107620	1.373468	0.000162
  96	9.4525e+00	1.8920	40.349153	0.000649	6.486096	1.098774	0.000130
  97	9.5520e+00	1.9118	40.534861	0.000932	9.323763	1.579488	0.000187
  98	9.6515e+00	1.9314	40.676161	0.000709	7.094168	1.201785	0.000142
  99	9.7510e+00	1.9521	40.857832	0.000912	9.121073	1.545152	0.000183
 100	9.8505e+00	1.9711	40.966835	0.000547	5.472644	0.927091	0.000110
 101	9.9500e+00	1.9930	41.128320	0.000811	8.107620	1.373468	0.000162
 102	1.0050e+01	2.0123	41.330177	0.001013	10.134525	1.716835	0.000203
 103	1.0149e+01	2.0308	41.471477	0.000709	7.094168	1.201785	0.000142
 104	1.0248e+01	2.0514	41.616814	0.000730	7.296858	1.236121	0.000146
 105	1.0348e+01	2.0707	41.758114	0.000709	7.094168	1.201785	0.000142
 106	1.0447e+01	2.0911	41.955933	0.000993	9.931835	1.682498	0.000199
 107	1.0547e+01	2.1107	42.085122	0.000649	6.486096	1.098774	0.000130
 108	1.0646e+01	2.1311	42.190087	0.000527	5.269953	0.892754	0.000105
 109	1.0746e+01	2.1509	42.383870	0.000973	9.729144	1.648162	0.000195
 110	1.0845e+01	2.1705	42.561504	0.000892	8.918382	1.510815	0.000179
 111	1.0945e+01	2.1911	42.670506	0.000547	5.472644	0.927091	0.000110
 112	1.1044e+01	2.2108	42.840066	0.000851	8.513001	1.442141	0.000170
 113	1.1144e+01	2.2301	43.021737	0.000912	9.121073	1.545152	0.000183
 114	1.1243e+01	2.2511	43.171111	0.000750	7.499549	1.270458	0.000150
 115	1.1343e+01	2.2706	43.332596	0.000811	8.107620	1.373468	0.000162
 116	1.1443e+01	2.2909	43.486008	0.000770	7.702239	1.304795	0.000154
 117	1.1542e+01	2.3104	43.631344	0.000730	7.296858	1.236121	0.000146
 118	1.1642e+01	2.3302	43.788793	0.000790	7.904930	1.339131	0.000158
 119	1.1741e+01	2.3514	43.934130	0.000730	7.296858	1.236121	0.000146
 120	1.1841e+01	2.3705	44.091578	0.000790	7.904930	1.339131	0.000158
 121	1.1940e+01	2.3901	44.273249	0.000912	9.121073	1.545152	0.000183
 122	1.2040e+01	2.4106	44.434735	0.000811	8.107620	1.373468	0.000162
 123	1.2139e+01	2.4303	44.567960	0.000669	6.688787	1.133111	0.000134
 124	1.2239e+01	2.4509	44.741557	0.000872	8.715692	1.476478	0.000174
 125	1.2338e+01	2.4702	44.862671	0.000608	6.080715	1.030101	0.000122
 126	1.2438e+01	2.4899	45.040305	0.000892	8.918382	1.510815	0.000179
 127	1.2537e+01	2.5096	45.217939	0.000892	8.918382	1.510815	0.000179
 128	1.2636e+01	2.5294	45.415758	0.000993	9.931835	1.682498	0.000199
 129	1.2736e+01	2.5497	45.532835	0.000588	5.878025	0.995764	0.000118
 130	1.2835e+01	2.5692	45.698358	0.000831	8.310311	1.407805	0.000166
 131	1.2935e+01	2.5890	45.859843	0.000811	8.107620	1.373468	0.000162
 132	1.3034e+01	2.6092	45.997106	0.000689	6.891477	1.167448	0.000138
 133	1.3134e+01	2.6299	46.186851	0.000953	9.526454	1.613825	0.000191
 134	1.3233e+01	2.6482	46.348337	0.000811	8.107620	1.373468	0.000162
 135	1.3333e+01	2.6688	46.513859	0.000831	8.310311	1.407805	0.000166
 136	1.3432e+01	2.6893	46.647085	0.000669	6.688787	1.133111	0.000134
 137	1.3532e+01	2.7090	46.796459	0.000750	7.499549	1.270458	0.000150
 138	1.3632e+01	2.7283	46.933722	0.000689	6.891477	1.167448	0.000138
 139	1.3731e+01	2.7483	47.119430	0.000932	9.323763	1.579488	0.000187
 140	1.3831e+01	2.7685	47.268804	0.000750	7.499549	1.270458	0.000150
 141	1.3930e+01	2.7879	47.402029	0.000669	6.688787	1.133111	0.000134
 142	1.4030e+01	2.8089	47.611960	0.001054	10.539906	1.785508	0.000211
 143	1.4129e+01	2.8284	47.765371	0.000770	7.702239	1.304795	0.000154
 144	1.4229e+01	2.8482	47.882448	0.000588	5.878025	0.995764	0.000118
 145	1.4328e+01	2.8686	48.060082	0.000892	8.918382	1.510815	0.000179
 146	1.4428e+01	2.8872	48.181196	0.000608	6.080715	1.030101	0.000122
 147	1.4527e+01	2.9079	48.379016	0.000993	9.931835	1.682498	0.000199
 148	1.4627e+01	2.9273	48.556650	0.000892	8.918382	1.510815	0.000179
 149	1.4726e+01	2.9473	48.718136	0.000811	8.107620	1.373468	0.000162
 150	1.4825e+01	2.9682	48.891732	0.000872	8.715692	1.476478	0.000174
 151	1.4925e+01	2.9871	49.008809	0.000588	5.878025	0.995764	0.000118
 152	1.5024e+01	3.0079	49.186443	0.000892	8.918382	1.510815	0.000179
 153	1.5124e+01	3.0271	49.335817	0.000750	7.499549	1.270458	0.000150
 154	1.5223e+01	3.0472	49.497303	0.000811	8.107620	1.373468	0.000162
 155	1.5323e+01	3.0677	49.658788	0.000811	8.107620	1.373468	0.000162
 156	1.5422e+01	3.0870	49.767791	0.000547	5.472644	0.927091	0.000110
 157	1.5522e+01	3.1070	49.925239	0.000790	7.904930	1.339131	0.000158
 158	1.5621e+01	3.1275	50.131133	0.001034	10.337216	1.751172	0.000207
 159	1.5721e+01	3.1481	50.256284	0.000628	6.283406	1.064438	0.000126
 160	1.5820e+01	3.1673	50.389510	0.000669	6.688787	1.133111	0.000134
 161	1.5920e+01	3.1869	50.567144	0.000892	8.918382	1.510815	0.000179
 162	1.6020e+01	3.2058	50.720555	0.000770	7.702239	1.304795	0.000154
 163	1.6119e+01	3.2271	50.861855	0.000709	7.094168	1.201785	0.000142
 164	1.6218e+01	3.2471	51.023340	0.000811	8.107620	1.373468	0.000162
 165	1.6318e+01	3.2667	51.188863	0.000831	8.310311	1.407805	0.000166
 166	1.6418e+01	3.2867	51.354385	0.000831	8.310311	1.407805	0.000166
 167	1.6517e+01	3.3070	51.479536	0.000628	6.283406	1.064438	0.000126
 168	1.6616e+01	3.3261	51.641022	0.000811	8.107620	1.373468	0.000162
 169	1.6716e+01	3.3466	51.830767	0.000953	9.526454	1.613825	0.000191
 170	1.6816e+01	3.3669	51.968030	0.000689	6.891477	1.167448	0.000138
 171	1.6915e+01	3.3867	52.089144	0.000608	6.080715	1.030101	0.000122
 172	1.7015e+01	3.4055	52.262741	0.000872	8.715692	1.476478	0.000174
 173	1.7114e+01	3.4270	52.424226	0.000811	8.107620	1.373468	0.000162
 174	1.7213e+01	3.4460	52.557452	0.000669	6.688787	1.133111	0.000134
 175	1.7313e+01	3.4651	52.702788	0.000730	7.296858	1.236121	0.000146
 176	1.7413e+01	3.4853	52.888497	0.000932	9.323763	1.579488	0.000187
 177	1.7512e+01	3.5061	53.001537	0.000568	5.675334	0.961428	0.000114
 178	1.7611e+01	3.5261	53.215505	0.001074	10.742597	1.819845	0.000215
 179	1.7711e+01	3.5462	53.316433	0.000507	5.067263	0.858418	0.000101
 180	1.7811e+01	3.5651	53.494067	0.000892	8.918382	1.510815	0.000179
 181	1.7910e+01	3.5845	53.659590	0.000831	8.310311	1.407805	0.000166
 182	1.8009e+01	3.6057	53.788778	0.000649	6.486096	1.098774	0.000130
 183	1.8109e+01	3.6259	53.970449	0.000912	9.121073	1.545152	0.000183
 184	1.8209e+01	3.6440	54.119823	0.000750	7.499549	1.270458	0.000150
 185	1.8308e+01	3.6666	54.253049	0.000669	6.688787	1.133111	0.000134
 186	1.8407e+01	3.6848	54.390311	0.000689	6.891477	1.167448	0.000138
 187	1.8507e+01	3.7051	54.539685	0.000750	7.499549	1.270458	0.000150
 188	1.8607e+01	3.7247	54.693096	0.000770	7.702239	1.304795	0.000154
 189	1.8706e+01	3.7452	54.858619	0.000831	8.310311	1.407805	0.000166
 190	1.8805e+01	3.7641	55.024142	0.000831	8.310311	1.407805	0.000166
 191	1.8905e+01	3.7850	55.153330	0.000649	6.486096	1.098774	0.000130
 192	1.9005e+01	3.8033	55.278481	0.000628	6.283406	1.064438	0.000126
 193	1.9104e+01	3.8248	55.476301	0.000993	9.931835	1.682498	0.000199
 194	1.9203e+01	3.8442	55.577229	0.000507	5.067263	0.858418	0.000101
 195	1.9303e+01	3.8633	55.787160	0.001054	10.539906	1.785508	0.000211
 196	1.9402e+01	3.8833	55.908274	0.000608	6.080715	1.030101	0.000122
 197	1.9502e+01	3.9045	56.073797	0.000831	8.310311	1.407805	0.000166
 198	1.9602e+01	3.9236	56.207022	0.000669	6.688787	1.133111	0.000134
 199	1.9701e+01	3.9437	56.348322	0.000709	7.094168	1.201785	0.000142
 200	1.9800e+01	3.9634	56.534030	0.000932	9.323763	1.579488	0.000187
 201	1.9900e+01	3.9841	56.655144	0.000608	6.080715	1.030101	0.000122
 202	2.0000e+01	4.0034	56.812593	0.000790	7.904930	1.339131	0.000158
 203	2.0099e+01	4.0234	56.982152	0.000851	8.513001	1.442141	0.000170
 204	2.0198e+01	4.0427	57.107304	0.000628	6.283406	1.064438	0.000126
 205	2.0298e+01	4.0636	57.268789	0.000811	8.107620	1.373468	0.000162
 206	2.0398e+01	4.0829	57.410089	0.000709	7.094168	1.201785	0.000142
 207	2.0497e+01	4.1039	57.591760	0.000912	9.121073	1.545152	0.000183
 208	2.0596e+01	4.1238	57.729022	0.000689	6.891477	1.167448	0.000138
 209	2.0696e+01	4.1428	57.878397	0.000750	7.499549	1.270458	0.000150
 210	2.0796e+01	4.1625	57.999511	0.000608	6.080715	1.030101	0.000122
 211	2.0895e+01	4.1834	58.156959	0.000790	7.904930	1.339131	0.000158
 212	2.0994e+01	4.2032	58.286147	0.000649	6.486096	1.098774	0.000130
 213	2.1094e+01	4.2226	58.475893	0.000953	9.526454	1.613825	0.000191
 214	2.1194e+01	4.2425	58.605081	0.000649	6.486096	1.098774	0.000130
 215	2.1293e+01	4.2637	58.750418	0.000730	7.296858	1.236121	0.000146
 216	2.1392e+01	4.2828	58.891718	0.000709	7.094168	1.201785	0.000142
 217	2.1492e+01	4.3027	59.033017	0.000709	7.094168	1.201785	0.000142
 218	2.1591e+01	4.3227	59.162206	0.000649	6.486096	1.098774	0.000130
 219	2.1691e+01	4.3432	59.319654	0.000790	7.904930	1.339131	0.000158
 220	2.1791e+01	4.3623	59.460954	0.000709	7.094168	1.201785	0.000142
 221	2.1890e+01	4.3823	59.606291	0.000730	7.296858	1.236121	0.000146
 222	2.1989e+01	4.4016	59.779887	0.000872	8.715692	1.476478	0.000174
 223	2.2089e+01	4.4210	59.896964	0.000588	5.878025	0.995764	0.000118
 224	2.2189e+01	4.4424	60.034227	0.000689	6.891477	1.167448	0.000138
 225	2.2288e+01	4.4624	60.159378	0.000628	6.283406	1.064438	0.000126
 226	2.2387e+01	4.4817	60.284529	0.000628	6.283406	1.064438	0.000126
 227	2.2487e+01	4.5013	60.446015	0.000811	8.107620	1.373468	0.000162
 228	2.2587e+01	4.5217	60.607500	0.000811	8.107620	1.373468	0.000162
 229	2.2686e+01	4.5415	60.724577	0.000588	5.878025	0.995764	0.000118
 230	2.2785e+01	4.5615	60.873951	0.000750	7.499549	1.270458	0.000150
 231	2.2885e+01	4.5819	61.043511	0.000851	8.513001	1.442141	0.000170
 232	2.2985e+01	4.6004	61.140402	0.000486	4.864572	0.824081	0.000097
 233	2.3084e+01	4.6210	61.313999	0.000872	8.715692	1.476478	0.000174
 234	2.3183e+01	4.6413	61.439150	0.000628	6.283406	1.064438	0.000126
 235	2.3283e+01	4.6613	61.580450	0.000709	7.094168	1.201785	0.000142
 236	2.3383e+01	4.6812	61.758084	0.000892	8.918382	1.510815	0.000179
 237	2.3482e+01	4.7012	61.871124	0.000568	5.675334	0.961428	0.000114
 238	2.3581e+01	4.7213	62.020498	0.000750	7.499549	1.270458	0.000150
 239	2.3681e+01	4.7414	62.165835	0.000730	7.296858	1.236121	0.000146
 240	2.3780e+01	4.7616	62.274837	0.000547	5.472644	0.927091	0.000110
 241	2.3880e+01	4.7807	62.444397	0.000851	8.513001	1.442141	0.000170
 242	2.3980e+01	4.8008	62.569548	0.000628	6.283406	1.064438	0.000126
 243	2.4079e+01	4.8208	62.694699	0.000628	6.283406	1.064438	0.000126
 244	2.4178e+01	4.8399	62.880408	0.000932	9.323763	1.579488	0.000187
 245	2.4278e+01	4.8600	63.005559	0.000628	6.283406	1.064438	0.000126
 246	2.4378e+01	4.8801	63.134747	0.000649	6.486096	1.098774	0.000130
 247	2.4477e+01	4.9004	63.284121	0.000750	7.499549	1.270458	0.000150
 248	2.4576e+01	4.9197	63.429458	0.000730	7.296858	1.236121	0.000146
 249	2.4676e+01	4.9409	63.578832	0.000750	7.499549	1.270458	0.000150
 250	2.4776e+01	4.9593	63.736280	0.000790	7.904930	1.339131	0.000158
 251	2.4875e+01	4.9800	63.825097	0.000446	4.459191	0.755407	0.000089
 252	2.4974e+01	5.0001	64.006769	0.000912	9.121073	1.545152	0.000183
 253	2.5074e+01	5.0198	64.135957	0.000649	6.486096	1.098774	0.000130
 254	2.5174e+01	5.0396	64.281294	0.000730	7.296858	1.236121	0.000146
 255	2.5273e+01	5.0595	64.414519	0.000669	6.688787	1.133111	0.000134
 256	2.5372e+01	5.0788	64.559856	0.000730	7.296858	1.236121	0.000146
 257	2.5472e+01	5.0999	64.680970	0.000608	6.080715	1.030101	0.000122
 258	2.5572e+01	5.1190	64.806121	0.000628	6.283406	1.064438	0.000126
 259	2.5671e+01	5.1394	65.012015	0.001034	10.337216	1.751172	0.000207
 260	2.5770e+01	5.1586	65.096795	0.000426	4.256501	0.721071	0.000085
 261	2.5870e+01	5.1776	65.234058	0.000689	6.891477	1.167448	0.000138
