»»»»»»»»»»»»»»»»»»»»»»»»»»»»»»»»»»»» Hysteresis ««««««««««««««««««««««««««««««««««««
»»»  Executed Version:	5.48.1
»»»  Vision Version:	5.48.4 (R)
»»»  Vision Compiled:	9/18/24
»»»  Driver Version:	5.47.0
»»»  Windows Version:	Windows 8 or 8.1
»»»  Processor Information:	x86 (AMD or Intel) - 32 Processors
»»»  Tester Name:	PMF21124-494 (100V)
»»»  Tester S/N:	PMF21124-494
»»»  Internal Amp Type:	100V RevK 270k
»»»  Internal Amp S/N:	iAB2-596/K     
»»»  Execution Count:	1
»»»»»»»»»»»»»»»»»»»»»»»»»»»»»»»»»»»»»»»»»»««««««««««««««««««««««««««««««««««««««««««

Stored:	7/8/2025 - 16:6:15
Configured:	07/08/25 02:50:47 PM
Executed:	07/08/25 04:05:49 PM

»»»»»»»»»»»»»»»»»»»»»»»»»»»»»»»»»»» Sample Info ««««««««««««««««««««««««««««««««««««
Sample Name:	
Lot Name:	
Wafer Name:	
Die Row/Column:	0/0
Capacitor Number:	0
Sample Area (cm2):	1.00e-04
Sample Thickness (microns):	1.50e-01

Amplifier:	Internal

»»»»»»»»»»»»»»»»»»»»»»»»»»»»»»»»»»» Tester Info «««««««««««««««««««««««««««««««««««
Tester Name:	PMF21124-494 (100V)
Tester Serial Number:	PMF21124-494
Return Signal Amp. Level:	0.19 [Index: 3]

»»»»»»»»»»»»»»»»»»»»»»»»»»»»»»»» Hysteresis Info ««««««««««««««««««««««««««««««««««
Task Name:	Hyst-724
Volts:	10.00
Field:	666.67 (kV/cm)
DCBias:	0.00
DCField:	0.00 (kV/cm)
Hysteresis Period (ms):	1.00e+00
Preset:	Enabled
Preset Delay (ms):	1.00e+03
Profile:	Standard Bipolar

»»»»»»»»»»»»»»»»»»»»»»»»»»»»»»»»»»»»»» Data «««««««««««««««««««««««««««««««««««««««
Points:	2001

Valid Data

Point	Time (ms)	Drive Voltage	Measured Polarization (uC/cm2)	Capacitance (uF)	Normalized Capacitance (uF/cm2)	Dielectric Constant	Instantaneous Current (mA)
   1	0.0000e+00	-0.0002	-3.770947	0.000000	0.000000	0.000000	0.000000
   2	5.0000e-04	0.0115	-3.770947	0.000000	0.000000	0.000000	0.000000
   3	1.0000e-03	0.0286	-3.774980	-0.000020	-0.201927	-0.034207	-0.000807
   4	1.5000e-03	0.0488	-3.690285	0.000424	4.240472	0.718355	0.016939
   5	2.0000e-03	0.0687	-3.682219	0.000040	0.403854	0.068415	0.001613
   6	2.5000e-03	0.0883	-3.641888	0.000202	2.019272	0.342074	0.008066
   7	3.0000e-03	0.1080	-3.545094	0.000485	4.846253	0.820978	0.019359
   8	3.5000e-03	0.1281	-3.472498	0.000363	3.634690	0.615733	0.014519
   9	4.0000e-03	0.1485	-3.355538	0.000586	5.855890	0.992015	0.023392
  10	4.5000e-03	0.1688	-3.258744	0.000485	4.846253	0.820978	0.019359
  11	5.0000e-03	0.1878	-3.129685	0.000646	6.461671	1.094637	0.025812
  12	5.5000e-03	0.2079	-3.040956	0.000444	4.442399	0.752563	0.017746
  13	6.0000e-03	0.2293	-2.899798	0.000707	7.067453	1.197259	0.028232
  14	6.5000e-03	0.2481	-2.774772	0.000626	6.259744	1.060429	0.025005
  15	7.0000e-03	0.2682	-2.645713	0.000646	6.461671	1.094637	0.025812
  16	7.5000e-03	0.2876	-2.536819	0.000545	5.452035	0.923600	0.021779
  17	8.0000e-03	0.3078	-2.371462	0.000828	8.279016	1.402503	0.033071
  18	8.5000e-03	0.3283	-2.282734	0.000444	4.442399	0.752563	0.017746
  19	9.0000e-03	0.3484	-2.169807	0.000565	5.653962	0.957807	0.022585
  20	9.5000e-03	0.3683	-2.028649	0.000707	7.067453	1.197259	0.028232
  21	1.0000e-02	0.3875	-1.843126	0.000929	9.288652	1.573540	0.037105
  22	1.0500e-02	0.4085	-1.685835	0.000788	7.875162	1.334089	0.031458
  23	1.1000e-02	0.4282	-1.568875	0.000586	5.855890	0.992015	0.023392
  24	1.1500e-02	0.4485	-1.439816	0.000646	6.461671	1.094637	0.025812
  25	1.2000e-02	0.4685	-1.302691	0.000687	6.865526	1.163052	0.027425
  26	1.2500e-02	0.4880	-1.181698	0.000606	6.057817	1.026222	0.024199
  27	1.3000e-02	0.5088	-1.044573	0.000687	6.865526	1.163052	0.027425
  28	1.3500e-02	0.5288	-0.887282	0.000788	7.875162	1.334089	0.031458
  29	1.4000e-02	0.5492	-0.705792	0.000909	9.086725	1.539333	0.036298
  30	1.4500e-02	0.5679	-0.556568	0.000747	7.471307	1.265674	0.029845
  31	1.5000e-02	0.5870	-0.423475	0.000666	6.663599	1.128844	0.026618
  32	1.5500e-02	0.6084	-0.270218	0.000767	7.673235	1.299881	0.030652
  33	1.6000e-02	0.6284	-0.165357	0.000525	5.250108	0.889392	0.020972
  34	1.6500e-02	0.6481	0.000000	0.000828	8.279016	1.402503	0.033071
  35	1.7000e-02	0.6681	0.153258	0.000767	7.673235	1.299881	0.030652
  36	1.7500e-02	0.6879	0.302482	0.000747	7.471307	1.265674	0.029845
  37	1.8000e-02	0.7071	0.439608	0.000687	6.865526	1.163052	0.027425
  38	1.8500e-02	0.7284	0.608998	0.000848	8.480944	1.436711	0.033878
  39	1.9000e-02	0.7483	0.758223	0.000747	7.471307	1.265674	0.029845
  40	1.9500e-02	0.7684	0.923580	0.000828	8.279016	1.402503	0.033071
  41	2.0000e-02	0.7889	1.048606	0.000626	6.259744	1.060429	0.025005
  42	2.0500e-02	0.8084	1.165565	0.000586	5.855890	0.992015	0.023392
  43	2.1000e-02	0.8283	1.330923	0.000828	8.279016	1.402503	0.033071
  44	2.1500e-02	0.8475	1.464015	0.000666	6.663599	1.128844	0.026618
  45	2.2000e-02	0.8685	1.637438	0.000868	8.682871	1.470918	0.034685
  46	2.2500e-02	0.8884	1.790696	0.000767	7.673235	1.299881	0.030652
  47	2.3000e-02	0.9093	1.891523	0.000505	5.048181	0.855185	0.020165
  48	2.3500e-02	0.9283	2.068980	0.000888	8.884798	1.505126	0.035491
  49	2.4000e-02	0.9488	2.246436	0.000888	8.884798	1.505126	0.035491
  50	2.4500e-02	0.9687	2.355330	0.000545	5.452035	0.923600	0.021779
  51	2.5000e-02	0.9880	2.476323	0.000606	6.057817	1.026222	0.024199
  52	2.5500e-02	1.0081	2.637646	0.000808	8.077089	1.368296	0.032265
  53	2.6000e-02	1.0287	2.798970	0.000808	8.077089	1.368296	0.032265
  54	2.6500e-02	1.0480	2.992559	0.000969	9.692507	1.641955	0.038718
  55	2.7000e-02	1.0683	3.105486	0.000565	5.653962	0.957807	0.022585
  56	2.7500e-02	1.0887	3.242611	0.000687	6.865526	1.163052	0.027425
  57	2.8000e-02	1.1090	3.403935	0.000808	8.077089	1.368296	0.032265
  58	2.8500e-02	1.1284	3.625756	0.001111	11.105998	1.881407	0.044364
  59	2.9000e-02	1.1489	3.766914	0.000707	7.067453	1.197259	0.028232
  60	2.9500e-02	1.1693	3.851609	0.000424	4.240472	0.718355	0.016939
  61	3.0000e-02	1.1891	3.996801	0.000727	7.269380	1.231466	0.029038
  62	3.0500e-02	1.2082	4.218621	0.001111	11.105998	1.881407	0.044364
  63	3.1000e-02	1.2288	4.347680	0.000646	6.461671	1.094637	0.025812
  64	3.1500e-02	1.2485	4.488839	0.000707	7.067453	1.197259	0.028232
  65	3.2000e-02	1.2689	4.654196	0.000828	8.279016	1.402503	0.033071
  66	3.2500e-02	1.2880	4.779222	0.000626	6.259744	1.060429	0.025005
  67	3.3000e-02	1.3076	4.936513	0.000788	7.875162	1.334089	0.031458
  68	3.3500e-02	1.3275	5.037340	0.000505	5.048181	0.855185	0.020165
  69	3.4000e-02	1.3479	5.174466	0.000687	6.865526	1.163052	0.027425
  70	3.4500e-02	1.3686	5.376120	0.001010	10.096361	1.710370	0.040331
  71	3.5000e-02	1.3885	5.565676	0.000949	9.490580	1.607748	0.037911
  72	3.5500e-02	1.4090	5.718934	0.000767	7.673235	1.299881	0.030652
  73	3.6000e-02	1.4276	5.888324	0.000848	8.480944	1.436711	0.033878
  74	3.6500e-02	1.4481	5.997218	0.000545	5.452035	0.923600	0.021779
  75	3.7000e-02	1.4688	6.138376	0.000707	7.067453	1.197259	0.028232
  76	3.7500e-02	1.4883	6.271468	0.000666	6.663599	1.128844	0.026618
  77	3.8000e-02	1.5076	6.440858	0.000848	8.480944	1.436711	0.033878
  78	3.8500e-02	1.5279	6.598149	0.000788	7.875162	1.334089	0.031458
  79	3.9000e-02	1.5486	6.719142	0.000606	6.057817	1.026222	0.024199
  80	3.9500e-02	1.5683	6.924830	0.001030	10.298289	1.744577	0.041138
  81	4.0000e-02	1.5876	7.037757	0.000565	5.653962	0.957807	0.022585
  82	4.0500e-02	1.6077	7.195048	0.000788	7.875162	1.334089	0.031458
  83	4.1000e-02	1.6279	7.360405	0.000828	8.279016	1.402503	0.033071
  84	4.1500e-02	1.6478	7.497530	0.000687	6.865526	1.163052	0.027425
  85	4.2000e-02	1.6671	7.670954	0.000868	8.682871	1.470918	0.034685
  86	4.2500e-02	1.6884	7.836311	0.000828	8.279016	1.402503	0.033071
  87	4.3000e-02	1.7078	8.001668	0.000828	8.279016	1.402503	0.033071
  88	4.3500e-02	1.7288	8.126694	0.000626	6.259744	1.060429	0.025005
  89	4.4000e-02	1.7483	8.259786	0.000666	6.663599	1.128844	0.026618
  90	4.4500e-02	1.7685	8.425143	0.000828	8.279016	1.402503	0.033071
  91	4.5000e-02	1.7881	8.606632	0.000909	9.086725	1.539333	0.036298
  92	4.5500e-02	1.8088	8.735692	0.000646	6.461671	1.094637	0.025812
  93	4.6000e-02	1.8274	8.876850	0.000707	7.067453	1.197259	0.028232
  94	4.6500e-02	1.8481	9.066406	0.000949	9.490580	1.607748	0.037911
  95	4.7000e-02	1.8684	9.223697	0.000788	7.875162	1.334089	0.031458
  96	4.7500e-02	1.8887	9.385020	0.000808	8.077089	1.368296	0.032265
  97	4.8000e-02	1.9092	9.530212	0.000727	7.269380	1.231466	0.029038
  98	4.8500e-02	1.9287	9.675404	0.000727	7.269380	1.231466	0.029038
  99	4.9000e-02	1.9479	9.792363	0.000586	5.855890	0.992015	0.023392
 100	4.9500e-02	1.9675	9.981919	0.000949	9.490580	1.607748	0.037911
 101	5.0000e-02	1.9885	10.098879	0.000586	5.855890	0.992015	0.023392
 102	5.0500e-02	2.0087	10.361030	0.001313	13.125270	2.223481	0.052430
 103	5.1000e-02	2.0277	10.473957	0.000565	5.653962	0.957807	0.022585
 104	5.1500e-02	2.0479	10.607049	0.000666	6.663599	1.128844	0.026618
 105	5.2000e-02	2.0682	10.764340	0.000788	7.875162	1.334089	0.031458
 106	5.2500e-02	2.0883	10.965995	0.001010	10.096361	1.710370	0.040331
 107	5.3000e-02	2.1076	11.091021	0.000626	6.259744	1.060429	0.025005
 108	5.3500e-02	2.1283	11.203948	0.000565	5.653962	0.957807	0.022585
 109	5.4000e-02	2.1471	11.349139	0.000727	7.269380	1.231466	0.029038
 110	5.4500e-02	2.1674	11.542728	0.000969	9.692507	1.641955	0.038718
 111	5.5000e-02	2.1884	11.695986	0.000767	7.673235	1.299881	0.030652
 112	5.5500e-02	2.2086	11.873442	0.000888	8.884798	1.505126	0.035491
 113	5.6000e-02	2.2292	11.978303	0.000525	5.250108	0.889392	0.020972
 114	5.6500e-02	2.2479	12.151726	0.000868	8.682871	1.470918	0.034685
 115	5.7000e-02	2.2684	12.288851	0.000687	6.865526	1.163052	0.027425
 116	5.7500e-02	2.2894	12.446142	0.000788	7.875162	1.334089	0.031458
 117	5.8000e-02	2.3080	12.647797	0.001010	10.096361	1.710370	0.040331
 118	5.8500e-02	2.3274	12.784923	0.000687	6.865526	1.163052	0.027425
 119	5.9000e-02	2.3483	12.966412	0.000909	9.086725	1.539333	0.036298
 120	5.9500e-02	2.3672	13.063206	0.000485	4.846253	0.820978	0.019359
 121	6.0000e-02	2.3889	13.240663	0.000888	8.884798	1.505126	0.035491
 122	6.0500e-02	2.4091	13.422152	0.000909	9.086725	1.539333	0.036298
 123	6.1000e-02	2.4281	13.555244	0.000666	6.663599	1.128844	0.026618
 124	6.1500e-02	2.4478	13.724635	0.000848	8.480944	1.436711	0.033878
 125	6.2000e-02	2.4683	13.849661	0.000626	6.259744	1.060429	0.025005
 126	6.2500e-02	2.4878	14.019051	0.000848	8.480944	1.436711	0.033878
 127	6.3000e-02	2.5083	14.172308	0.000767	7.673235	1.299881	0.030652
 128	6.3500e-02	2.5296	14.329599	0.000788	7.875162	1.334089	0.031458
 129	6.4000e-02	2.5484	14.438493	0.000545	5.452035	0.923600	0.021779
 130	6.4500e-02	2.5684	14.628049	0.000949	9.490580	1.607748	0.037911
 131	6.5000e-02	2.5879	14.813571	0.000929	9.288652	1.573540	0.037105
 132	6.5500e-02	2.6083	14.930531	0.000586	5.855890	0.992015	0.023392
 133	6.6000e-02	2.6286	15.095888	0.000828	8.279016	1.402503	0.033071
 134	6.6500e-02	2.6472	15.249146	0.000767	7.673235	1.299881	0.030652
 135	6.7000e-02	2.6674	15.426602	0.000888	8.884798	1.505126	0.035491
 136	6.7500e-02	2.6878	15.616158	0.000949	9.490580	1.607748	0.037911
 137	6.8000e-02	2.7087	15.712952	0.000485	4.846253	0.820978	0.019359
 138	6.8500e-02	2.7283	15.878309	0.000828	8.279016	1.402503	0.033071
 139	6.9000e-02	2.7480	16.039633	0.000808	8.077089	1.368296	0.032265
 140	6.9500e-02	2.7677	16.204990	0.000828	8.279016	1.402503	0.033071
 141	7.0000e-02	2.7887	16.309851	0.000525	5.250108	0.889392	0.020972
 142	7.0500e-02	2.8078	16.471175	0.000808	8.077089	1.368296	0.032265
 143	7.1000e-02	2.8290	16.563936	0.000464	4.644326	0.786770	0.018552
 144	7.1500e-02	2.8485	16.822054	0.001292	12.923343	2.189274	0.051624
 145	7.2000e-02	2.8670	16.987411	0.000828	8.279016	1.402503	0.033071
 146	7.2500e-02	2.8882	17.112437	0.000626	6.259744	1.060429	0.025005
 147	7.3000e-02	2.9083	17.261662	0.000747	7.471307	1.265674	0.029845
 148	7.3500e-02	2.9286	17.418953	0.000788	7.875162	1.334089	0.031458
 149	7.4000e-02	2.9480	17.592376	0.000868	8.682871	1.470918	0.034685
 150	7.4500e-02	2.9678	17.753700	0.000808	8.077089	1.368296	0.032265
 151	7.5000e-02	2.9878	17.854528	0.000505	5.048181	0.855185	0.020165
 152	7.5500e-02	3.0084	18.015851	0.000808	8.077089	1.368296	0.032265
 153	7.6000e-02	3.0286	18.185242	0.000848	8.480944	1.436711	0.033878
 154	7.6500e-02	3.0478	18.326400	0.000707	7.067453	1.197259	0.028232
 155	7.7000e-02	3.0685	18.515956	0.000949	9.490580	1.607748	0.037911
 156	7.7500e-02	3.0890	18.649048	0.000666	6.663599	1.128844	0.026618
 157	7.8000e-02	3.1079	18.802306	0.000767	7.673235	1.299881	0.030652
 158	7.8500e-02	3.1290	18.919266	0.000586	5.855890	0.992015	0.023392
 159	7.9000e-02	3.1487	19.112854	0.000969	9.692507	1.641955	0.038718
 160	7.9500e-02	3.1686	19.286278	0.000868	8.682871	1.470918	0.034685
 161	8.0000e-02	3.1894	19.500032	0.001070	10.702143	1.812992	0.042751
 162	8.0500e-02	3.2086	19.580694	0.000404	4.038545	0.684148	0.016132
 163	8.1000e-02	3.2284	19.729918	0.000747	7.471307	1.265674	0.029845
 164	8.1500e-02	3.2480	19.858978	0.000646	6.461671	1.094637	0.025812
 165	8.2000e-02	3.2678	20.040467	0.000909	9.086725	1.539333	0.036298
 166	8.2500e-02	3.2886	20.157427	0.000586	5.855890	0.992015	0.023392
 167	8.3000e-02	3.3081	20.367148	0.001050	10.500216	1.778785	0.041944
 168	8.3500e-02	3.3280	20.520406	0.000767	7.673235	1.299881	0.030652
 169	8.4000e-02	3.3484	20.629299	0.000545	5.452035	0.923600	0.021779
 170	8.4500e-02	3.3685	20.818855	0.000949	9.490580	1.607748	0.037911
 171	8.5000e-02	3.3881	20.939848	0.000606	6.057817	1.026222	0.024199
 172	8.5500e-02	3.4088	21.105205	0.000828	8.279016	1.402503	0.033071
 173	8.6000e-02	3.4277	21.197966	0.000464	4.644326	0.786770	0.018552
 174	8.6500e-02	3.4482	21.403654	0.001030	10.298289	1.744577	0.041138
 175	8.7000e-02	3.4683	21.581111	0.000888	8.884798	1.505126	0.035491
 176	8.7500e-02	3.4882	21.726302	0.000727	7.269380	1.231466	0.029038
 177	8.8000e-02	3.5080	21.859394	0.000666	6.663599	1.128844	0.026618
 178	8.8500e-02	3.5278	22.012652	0.000767	7.673235	1.299881	0.030652
 179	8.9000e-02	3.5486	22.186075	0.000868	8.682871	1.470918	0.034685
 180	8.9500e-02	3.5669	22.323201	0.000687	6.865526	1.163052	0.027425
 181	9.0000e-02	3.5883	22.460326	0.000687	6.865526	1.163052	0.027425
 182	9.0500e-02	3.6075	22.621650	0.000808	8.077089	1.368296	0.032265
 183	9.1000e-02	3.6278	22.746676	0.000626	6.259744	1.060429	0.025005
 184	9.1500e-02	3.6484	22.908000	0.000808	8.077089	1.368296	0.032265
 185	9.2000e-02	3.6694	23.057225	0.000747	7.471307	1.265674	0.029845
 186	9.2500e-02	3.6884	23.234681	0.000888	8.884798	1.505126	0.035491
 187	9.3000e-02	3.7079	23.363740	0.000646	6.461671	1.094637	0.025812
 188	9.3500e-02	3.7286	23.512965	0.000747	7.471307	1.265674	0.029845
 189	9.4000e-02	3.7488	23.674289	0.000808	8.077089	1.368296	0.032265
 190	9.4500e-02	3.7683	23.839646	0.000828	8.279016	1.402503	0.033071
 191	9.5000e-02	3.7891	23.980804	0.000707	7.067453	1.197259	0.028232
 192	9.5500e-02	3.8080	24.186492	0.001030	10.298289	1.744577	0.041138
 193	9.6000e-02	3.8284	24.259088	0.000363	3.634690	0.615733	0.014519
 194	9.6500e-02	3.8489	24.420412	0.000808	8.077089	1.368296	0.032265
 195	9.7000e-02	3.8678	24.581736	0.000808	8.077089	1.368296	0.032265
 196	9.7500e-02	3.8879	24.722894	0.000707	7.067453	1.197259	0.028232
 197	9.8000e-02	3.9075	24.892285	0.000848	8.480944	1.436711	0.033878
 198	9.8500e-02	3.9282	25.037476	0.000727	7.269380	1.231466	0.029038
 199	9.9000e-02	3.9487	25.162502	0.000626	6.259744	1.060429	0.025005
 200	9.9500e-02	3.9680	25.319793	0.000788	7.875162	1.334089	0.031458
 201	1.0000e-01	3.9880	25.561779	0.001212	12.115634	2.052444	0.048397
 202	1.0050e-01	4.0088	25.630342	0.000343	3.432763	0.581526	0.013713
 203	1.0100e-01	4.0283	25.759401	0.000646	6.461671	1.094637	0.025812
 204	1.0150e-01	4.0469	25.912659	0.000767	7.673235	1.299881	0.030652
 205	1.0200e-01	4.0680	26.069949	0.000788	7.875162	1.334089	0.031458
 206	1.0250e-01	4.0884	26.203042	0.000666	6.663599	1.128844	0.026618
 207	1.0300e-01	4.1080	26.315968	0.000565	5.653962	0.957807	0.022585
 208	1.0350e-01	4.1286	26.529723	0.001070	10.702143	1.812992	0.042751
 209	1.0400e-01	4.1487	26.634583	0.000525	5.250108	0.889392	0.020972
 210	1.0450e-01	4.1687	26.779775	0.000727	7.269380	1.231466	0.029038
 211	1.0500e-01	4.1876	26.957231	0.000888	8.884798	1.505126	0.035491
 212	1.0550e-01	4.2079	27.090323	0.000666	6.663599	1.128844	0.026618
 213	1.0600e-01	4.2285	27.267780	0.000888	8.884798	1.505126	0.035491
 214	1.0650e-01	4.2475	27.380706	0.000565	5.653962	0.957807	0.022585
 215	1.0700e-01	4.2677	27.517832	0.000687	6.865526	1.163052	0.027425
 216	1.0750e-01	4.2880	27.650924	0.000666	6.663599	1.128844	0.026618
 217	1.0800e-01	4.3094	27.816281	0.000828	8.279016	1.402503	0.033071
 218	1.0850e-01	4.3286	27.957440	0.000707	7.067453	1.197259	0.028232
 219	1.0900e-01	4.3489	28.090532	0.000666	6.663599	1.128844	0.026618
 220	1.0950e-01	4.3683	28.259922	0.000848	8.480944	1.436711	0.033878
 221	1.1000e-01	4.3891	28.413180	0.000767	7.673235	1.299881	0.030652
 222	1.1050e-01	4.4083	28.578537	0.000828	8.279016	1.402503	0.033071
 223	1.1100e-01	4.4288	28.695497	0.000586	5.855890	0.992015	0.023392
 224	1.1150e-01	4.4482	28.848754	0.000767	7.673235	1.299881	0.030652
 225	1.1200e-01	4.4684	28.989913	0.000707	7.067453	1.197259	0.028232
 226	1.1250e-01	4.4881	29.110906	0.000606	6.057817	1.026222	0.024199
 227	1.1300e-01	4.5090	29.276263	0.000828	8.279016	1.402503	0.033071
 228	1.1350e-01	4.5279	29.385156	0.000545	5.452035	0.923600	0.021779
 229	1.1400e-01	4.5483	29.554547	0.000848	8.480944	1.436711	0.033878
 230	1.1450e-01	4.5680	29.675540	0.000606	6.057817	1.026222	0.024199
 231	1.1500e-01	4.5880	29.832830	0.000788	7.875162	1.334089	0.031458
 232	1.1550e-01	4.6082	30.014320	0.000909	9.086725	1.539333	0.036298
 233	1.1600e-01	4.6289	30.135313	0.000606	6.057817	1.026222	0.024199
 234	1.1650e-01	4.6494	30.252273	0.000586	5.855890	0.992015	0.023392
 235	1.1700e-01	4.6686	30.405530	0.000767	7.673235	1.299881	0.030652
 236	1.1750e-01	4.6887	30.498292	0.000464	4.644326	0.786770	0.018552
 237	1.1800e-01	4.7086	30.720112	0.001111	11.105998	1.881407	0.044364
 238	1.1850e-01	4.7284	30.857237	0.000687	6.865526	1.163052	0.027425
 239	1.1900e-01	4.7481	30.998396	0.000707	7.067453	1.197259	0.028232
 240	1.1950e-01	4.7684	31.171819	0.000868	8.682871	1.470918	0.034685
 241	1.2000e-01	4.7888	31.276680	0.000525	5.250108	0.889392	0.020972
 242	1.2050e-01	4.8093	31.429937	0.000767	7.673235	1.299881	0.030652
 243	1.2100e-01	4.8279	31.563030	0.000666	6.663599	1.128844	0.026618
 244	1.2150e-01	4.8492	31.671923	0.000545	5.452035	0.923600	0.021779
 245	1.2200e-01	4.8688	31.825181	0.000767	7.673235	1.299881	0.030652
 246	1.2250e-01	4.8883	31.986505	0.000808	8.077089	1.368296	0.032265
 247	1.2300e-01	4.9084	32.087332	0.000505	5.048181	0.855185	0.020165
 248	1.2350e-01	4.9292	32.260756	0.000868	8.682871	1.470918	0.034685
 249	1.2400e-01	4.9493	32.381749	0.000606	6.057817	1.026222	0.024199
 250	1.2450e-01	4.9686	32.567271	0.000929	9.288652	1.573540	0.037105
 251	1.2500e-01	4.9896	32.817323	0.001252	12.519488	2.120859	0.050010
 252	1.2550e-01	5.0093	32.841522	0.000121	1.211563	0.205244	0.004840
 253	1.2600e-01	5.0293	32.942349	0.000505	5.048181	0.855185	0.020165
 254	1.2650e-01	5.0494	33.079475	0.000687	6.865526	1.163052	0.027425
 255	1.2700e-01	5.0687	33.260964	0.000909	9.086725	1.539333	0.036298
 256	1.2750e-01	5.0891	33.402123	0.000707	7.067453	1.197259	0.028232
 257	1.2800e-01	5.1088	33.551347	0.000747	7.471307	1.265674	0.029845
 258	1.2850e-01	5.1295	33.684440	0.000666	6.663599	1.128844	0.026618
 259	1.2900e-01	5.1480	33.769135	0.000424	4.240472	0.718355	0.016939
 260	1.2950e-01	5.1685	33.946591	0.000888	8.884798	1.505126	0.035491
 261	1.3000e-01	5.1880	34.091782	0.000727	7.269380	1.231466	0.029038
 262	1.3050e-01	5.2087	34.228908	0.000687	6.865526	1.163052	0.027425
