»»»»»»»»»»»»»»»»»»»»»»»»»»»»»»»»»»»» Hysteresis ««««««««««««««««««««««««««««««««««««
»»»  Executed Version:	5.48.1
»»»  Vision Version:	5.48.4 (R)
»»»  Vision Compiled:	9/18/24
»»»  Driver Version:	5.47.0
»»»  Windows Version:	Windows 8 or 8.1
»»»  Processor Information:	x86 (AMD or Intel) - 32 Processors
»»»  Tester Name:	PMF21124-494 (100V)
»»»  Tester S/N:	PMF21124-494
»»»  Internal Amp Type:	100V RevK 270k
»»»  Internal Amp S/N:	iAB2-596/K     
»»»  Execution Count:	1
»»»»»»»»»»»»»»»»»»»»»»»»»»»»»»»»»»»»»»»»»»««««««««««««««««««««««««««««««««««««««««««

Stored:	7/9/2025 - 14:19:12
Configured:	07/09/25 02:06:30 PM
Executed:	07/09/25 02:18:45 PM

»»»»»»»»»»»»»»»»»»»»»»»»»»»»»»»»»»» Sample Info ««««««««««««««««««««««««««««««««««««
Sample Name:	
Lot Name:	
Wafer Name:	
Die Row/Column:	0/0
Capacitor Number:	0
Sample Area (cm2):	1.00e-04
Sample Thickness (microns):	1.50e-01

Amplifier:	Internal

»»»»»»»»»»»»»»»»»»»»»»»»»»»»»»»»»»» Tester Info «««««««««««««««««««««««««««««««««««
Tester Name:	PMF21124-494 (100V)
Tester Serial Number:	PMF21124-494
Return Signal Amp. Level:	0.19 [Index: 3]

»»»»»»»»»»»»»»»»»»»»»»»»»»»»»»»» Hysteresis Info ««««««««««««««««««««««««««««««««««
Task Name:	Hyst-900
Volts:	10.00
Field:	666.67 (kV/cm)
DCBias:	0.00
DCField:	0.00 (kV/cm)
Hysteresis Period (ms):	1.00e+00
Preset:	Enabled
Preset Delay (ms):	1.00e+03
Profile:	Standard Bipolar

»»»»»»»»»»»»»»»»»»»»»»»»»»»»»»»»»»»»»» Data «««««««««««««««««««««««««««««««««««««««
Points:	2001

Valid Data

Point	Time (ms)	Drive Voltage	Measured Polarization (uC/cm2)	Capacitance (uF)	Normalized Capacitance (uF/cm2)	Dielectric Constant	Instantaneous Current (mA)
   1	0.0000e+00	0.0005	-12.770807	0.000808	8.076827	1.368252	0.032265
   2	5.0000e-04	0.0109	-12.609483	0.000808	8.076827	1.368252	0.032265
   3	1.0000e-03	0.0288	-12.500589	0.000545	5.451858	0.923570	0.021779
   4	1.5000e-03	0.0482	-12.327166	0.000868	8.682589	1.470870	0.034685
   5	2.0000e-03	0.0682	-12.101312	0.001131	11.307558	1.915552	0.045171
   6	2.5000e-03	0.0889	-11.899657	0.001010	10.096034	1.710314	0.040331
   7	3.0000e-03	0.1088	-11.710102	0.000949	9.490272	1.607696	0.037911
   8	3.5000e-03	0.1281	-11.536679	0.000868	8.682589	1.470870	0.034685
   9	4.0000e-03	0.1472	-11.330991	0.001030	10.297954	1.744521	0.041138
  10	4.5000e-03	0.1688	-11.242262	0.000444	4.442255	0.752538	0.017746
  11	5.0000e-03	0.1883	-10.988177	0.001272	12.721002	2.154996	0.050817
  12	5.5000e-03	0.2083	-10.794588	0.000969	9.692192	1.641902	0.038718
  13	6.0000e-03	0.2288	-10.580834	0.001070	10.701796	1.812933	0.042751
  14	6.5000e-03	0.2475	-10.391279	0.000949	9.490272	1.607696	0.037911
  15	7.0000e-03	0.2681	-10.185591	0.001030	10.297954	1.744521	0.041138
  16	7.5000e-03	0.2876	-10.016200	0.000848	8.480668	1.436664	0.033878
  17	8.0000e-03	0.3085	-9.794380	0.001111	11.105637	1.881346	0.044364
  18	8.5000e-03	0.3279	-9.604824	0.000949	9.490272	1.607696	0.037911
  19	9.0000e-03	0.3492	-9.451567	0.000767	7.672986	1.299839	0.030652
  20	9.5000e-03	0.3682	-9.197481	0.001272	12.721002	2.154996	0.050817
  21	1.0000e-02	0.3884	-9.036157	0.000808	8.076827	1.368252	0.032265
  22	1.0500e-02	0.4083	-8.826436	0.001050	10.499875	1.778727	0.041944
  23	1.1000e-02	0.4287	-8.640914	0.000929	9.288351	1.573489	0.037105
  24	1.1500e-02	0.4478	-8.382795	0.001292	12.922923	2.189202	0.051624
  25	1.2000e-02	0.4691	-8.205339	0.000888	8.884510	1.505077	0.035491
  26	1.2500e-02	0.4883	-8.076280	0.000646	6.461462	1.094601	0.025812
  27	1.3000e-02	0.5084	-7.806062	0.001353	13.528685	2.291821	0.054044
  28	1.3500e-02	0.5283	-7.648771	0.000787	7.874906	1.334045	0.031458
  29	1.4000e-02	0.5482	-7.439050	0.001050	10.499875	1.778727	0.041944
  30	1.4500e-02	0.5685	-7.233362	0.001030	10.297954	1.744521	0.041138
  31	1.5000e-02	0.5882	-7.063972	0.000848	8.480668	1.436664	0.033878
  32	1.5500e-02	0.6078	-6.886516	0.000888	8.884510	1.505077	0.035491
  33	1.6000e-02	0.6284	-6.624364	0.001312	13.124844	2.223409	0.052430
  34	1.6500e-02	0.6483	-6.450941	0.000868	8.682589	1.470870	0.034685
  35	1.7000e-02	0.6684	-6.309783	0.000707	7.067224	1.197220	0.028232
  36	1.7500e-02	0.6883	-6.087962	0.001111	11.105637	1.881346	0.044364
  37	1.8000e-02	0.7085	-5.882274	0.001030	10.297954	1.744521	0.041138
  38	1.8500e-02	0.7290	-5.583825	0.001494	14.942130	2.531265	0.059690
  39	1.9000e-02	0.7480	-5.499130	0.000424	4.240334	0.718332	0.016939
  40	1.9500e-02	0.7696	-5.305541	0.000969	9.692192	1.641902	0.038718
  41	2.0000e-02	0.7883	-5.111952	0.000969	9.692192	1.641902	0.038718
  42	2.0500e-02	0.8088	-4.902231	0.001050	10.499875	1.778727	0.041944
  43	2.1000e-02	0.8281	-4.668312	0.001171	11.711399	1.983965	0.046784
  44	2.1500e-02	0.8494	-4.494888	0.000868	8.682589	1.470870	0.034685
  45	2.2000e-02	0.8683	-4.305333	0.000949	9.490272	1.607696	0.037911
  46	2.2500e-02	0.8888	-4.079479	0.001131	11.307558	1.915552	0.045171
  47	2.3000e-02	0.9090	-3.873791	0.001030	10.297954	1.744521	0.041138
  48	2.3500e-02	0.9290	-3.704401	0.000848	8.480668	1.436664	0.033878
  49	2.4000e-02	0.9488	-3.454349	0.001252	12.519082	2.120790	0.050010
  50	2.4500e-02	0.9688	-3.268826	0.000929	9.288351	1.573489	0.037105
  51	2.5000e-02	0.9886	-3.083304	0.000929	9.288351	1.573489	0.037105
  52	2.5500e-02	1.0094	-2.849384	0.001171	11.711399	1.983965	0.046784
  53	2.6000e-02	1.0281	-2.623531	0.001131	11.307558	1.915552	0.045171
  54	2.6500e-02	1.0489	-2.510604	0.000565	5.653779	0.957776	0.022585
  55	2.7000e-02	1.0696	-2.288783	0.001111	11.105637	1.881346	0.044364
  56	2.7500e-02	1.0885	-2.038731	0.001252	12.519082	2.120790	0.050010
  57	2.8000e-02	1.1091	-1.893540	0.000727	7.269144	1.231426	0.029038
  58	2.8500e-02	1.1297	-1.635421	0.001292	12.922923	2.189202	0.051624
  59	2.9000e-02	1.1484	-1.478131	0.000787	7.874906	1.334045	0.031458
  60	2.9500e-02	1.1694	-1.280509	0.000989	9.894113	1.676108	0.039524
  61	3.0000e-02	1.1890	-1.058688	0.001111	11.105637	1.881346	0.044364
  62	3.0500e-02	1.2092	-0.897364	0.000808	8.076827	1.368252	0.032265
  63	3.1000e-02	1.2290	-0.671511	0.001131	11.307558	1.915552	0.045171
  64	3.1500e-02	1.2489	-0.425492	0.001232	12.317161	2.086584	0.049204
  65	3.2000e-02	1.2698	-0.231903	0.000969	9.692192	1.641902	0.038718
  66	3.2500e-02	1.2881	-0.066546	0.000828	8.278748	1.402458	0.033071
  67	3.3000e-02	1.3084	0.171407	0.001191	11.913320	2.018171	0.047591
  68	3.3500e-02	1.3281	0.332731	0.000808	8.076827	1.368252	0.032265
  69	3.4000e-02	1.3483	0.530352	0.000989	9.894113	1.676108	0.039524
  70	3.4500e-02	1.3684	0.732007	0.001010	10.096034	1.710314	0.040331
  71	3.5000e-02	1.3880	1.034490	0.001514	15.144050	2.565472	0.060496
  72	3.5500e-02	1.4087	1.155483	0.000606	6.057620	1.026189	0.024199
  73	3.6000e-02	1.4282	1.353105	0.000989	9.894113	1.676108	0.039524
  74	3.6500e-02	1.4478	1.574925	0.001111	11.105637	1.881346	0.044364
  75	3.7000e-02	1.4676	1.736249	0.000808	8.076827	1.368252	0.032265
  76	3.7500e-02	1.4890	1.982268	0.001232	12.317161	2.086584	0.049204
  77	3.8000e-02	1.5077	2.171824	0.000949	9.490272	1.607696	0.037911
  78	3.8500e-02	1.5279	2.365412	0.000969	9.692192	1.641902	0.038718
  79	3.9000e-02	1.5488	2.567067	0.001010	10.096034	1.710314	0.040331
  80	3.9500e-02	1.5683	2.841318	0.001373	13.730606	2.326028	0.054850
  81	4.0000e-02	1.5884	3.022807	0.000909	9.086430	1.539283	0.036298
  82	4.0500e-02	1.6083	3.228495	0.001030	10.297954	1.744521	0.041138
  83	4.1000e-02	1.6278	3.418051	0.000949	9.490272	1.607696	0.037911
  84	4.1500e-02	1.6486	3.611640	0.000969	9.692192	1.641902	0.038718
  85	4.2000e-02	1.6682	3.789096	0.000888	8.884510	1.505077	0.035491
  86	4.2500e-02	1.6888	4.035115	0.001232	12.317161	2.086584	0.049204
  87	4.3000e-02	1.7082	4.256936	0.001111	11.105637	1.881346	0.044364
  88	4.3500e-02	1.7286	4.438425	0.000909	9.086430	1.539283	0.036298
  89	4.4000e-02	1.7493	4.684444	0.001232	12.317161	2.086584	0.049204
  90	4.4500e-02	1.7677	4.869967	0.000929	9.288351	1.573489	0.037105
  91	4.5000e-02	1.7882	5.051456	0.000909	9.086430	1.539283	0.036298
  92	4.5500e-02	1.8079	5.285376	0.001171	11.711399	1.983965	0.046784
  93	4.6000e-02	1.8280	5.410402	0.000626	6.259541	1.060395	0.025005
  94	4.6500e-02	1.8488	5.688686	0.001393	13.932526	2.360234	0.055657
  95	4.7000e-02	1.8690	5.878241	0.000949	9.490272	1.607696	0.037911
  96	4.7500e-02	1.8851	6.055698	0.000888	8.884510	1.505077	0.035491
  97	4.8000e-02	1.9081	6.338014	0.001413	14.134447	2.394440	0.056463
  98	4.8500e-02	1.9284	6.503371	0.000828	8.278748	1.402458	0.033071
  99	4.9000e-02	1.9484	6.741324	0.001191	11.913320	2.018171	0.047591
 100	4.9500e-02	1.9685	6.999443	0.001292	12.922923	2.189202	0.051624
 101	5.0000e-02	1.9888	7.088171	0.000444	4.442255	0.752538	0.017746
 102	5.0500e-02	2.0081	7.394686	0.001535	15.345971	2.599678	0.061303
 103	5.1000e-02	2.0289	7.547944	0.000767	7.672986	1.299839	0.030652
 104	5.1500e-02	2.0483	7.689102	0.000707	7.067224	1.197220	0.028232
 105	5.2000e-02	2.0688	7.991585	0.001514	15.144050	2.565472	0.060496
 106	5.2500e-02	2.0889	8.136776	0.000727	7.269144	1.231426	0.029038
 107	5.3000e-02	2.1091	8.338431	0.001010	10.096034	1.710314	0.040331
 108	5.3500e-02	2.1280	8.596550	0.001292	12.922923	2.189202	0.051624
 109	5.4000e-02	2.1485	8.761907	0.000828	8.278748	1.402458	0.033071
 110	5.4500e-02	2.1692	8.951462	0.000949	9.490272	1.607696	0.037911
 111	5.5000e-02	2.1885	9.193448	0.001212	12.115240	2.052377	0.048397
 112	5.5500e-02	2.2095	9.354772	0.000808	8.076827	1.368252	0.032265
 113	5.6000e-02	2.2287	9.524162	0.000848	8.480668	1.436664	0.033878
 114	5.6500e-02	2.2482	9.778248	0.001272	12.721002	2.154996	0.050817
 115	5.7000e-02	2.2690	9.992002	0.001070	10.701796	1.812933	0.042751
 116	5.7500e-02	2.2890	10.181557	0.000949	9.490272	1.607696	0.037911
 117	5.8000e-02	2.3096	10.411444	0.001151	11.509478	1.949758	0.045977
 118	5.8500e-02	2.3281	10.617132	0.001030	10.297954	1.744521	0.041138
 119	5.9000e-02	2.3489	10.879283	0.001312	13.124844	2.223409	0.052430
 120	5.9500e-02	2.3695	11.076905	0.000989	9.894113	1.676108	0.039524
 121	6.0000e-02	2.3895	11.266461	0.000949	9.490272	1.607696	0.037911
 122	6.0500e-02	2.4088	11.447950	0.000909	9.086430	1.539283	0.036298
 123	6.1000e-02	2.4283	11.653638	0.001030	10.297954	1.744521	0.041138
 124	6.1500e-02	2.4491	11.875459	0.001111	11.105637	1.881346	0.044364
 125	6.2000e-02	2.4689	12.085180	0.001050	10.499875	1.778727	0.041944
 126	6.2500e-02	2.4887	12.238438	0.000767	7.672986	1.299839	0.030652
 127	6.3000e-02	2.5089	12.436060	0.000989	9.894113	1.676108	0.039524
 128	6.3500e-02	2.5293	12.690145	0.001272	12.721002	2.154996	0.050817
 129	6.4000e-02	2.5485	12.887767	0.000989	9.894113	1.676108	0.039524
 130	6.4500e-02	2.5684	13.097488	0.001050	10.499875	1.778727	0.041944
 131	6.5000e-02	2.5888	13.274944	0.000888	8.884510	1.505077	0.035491
 132	6.5500e-02	2.6088	13.460467	0.000929	9.288351	1.573489	0.037105
 133	6.6000e-02	2.6284	13.698419	0.001191	11.913320	2.018171	0.047591
 134	6.6500e-02	2.6486	13.871843	0.000868	8.682589	1.470870	0.034685
 135	6.7000e-02	2.6688	14.069464	0.000989	9.894113	1.676108	0.039524
 136	6.7500e-02	2.6889	14.355814	0.001434	14.336368	2.428646	0.057270
 137	6.8000e-02	2.7087	14.517138	0.000808	8.076827	1.368252	0.032265
 138	6.8500e-02	2.7289	14.714760	0.000989	9.894113	1.676108	0.039524
 139	6.9000e-02	2.7484	14.936581	0.001111	11.105637	1.881346	0.044364
 140	6.9500e-02	2.7683	15.138236	0.001010	10.096034	1.710314	0.040331
 141	7.0000e-02	2.7895	15.343924	0.001030	10.297954	1.744521	0.041138
 142	7.0500e-02	2.8082	15.517347	0.000868	8.682589	1.470870	0.034685
 143	7.1000e-02	2.8287	15.739167	0.001111	11.105637	1.881346	0.044364
 144	7.1500e-02	2.8474	15.940822	0.001010	10.096034	1.710314	0.040331
 145	7.2000e-02	2.8690	16.154576	0.001070	10.701796	1.812933	0.042751
 146	7.2500e-02	2.8889	16.360264	0.001030	10.297954	1.744521	0.041138
 147	7.3000e-02	2.9086	16.537721	0.000888	8.884510	1.505077	0.035491
 148	7.3500e-02	2.9280	16.771641	0.001171	11.711399	1.983965	0.046784
 149	7.4000e-02	2.9486	16.993461	0.001111	11.105637	1.881346	0.044364
 150	7.4500e-02	2.9681	17.154785	0.000808	8.076827	1.368252	0.032265
 151	7.5000e-02	2.9895	17.384672	0.001151	11.509478	1.949758	0.045977
 152	7.5500e-02	3.0084	17.578260	0.000969	9.692192	1.641902	0.038718
 153	7.6000e-02	3.0289	17.800081	0.001111	11.105637	1.881346	0.044364
 154	7.6500e-02	3.0497	17.985603	0.000929	9.288351	1.573489	0.037105
 155	7.7000e-02	3.0695	18.227589	0.001212	12.115240	2.052377	0.048397
 156	7.7500e-02	3.0890	18.376814	0.000747	7.471065	1.265633	0.029845
 157	7.8000e-02	3.1091	18.614767	0.001191	11.913320	2.018171	0.047591
 158	7.8500e-02	3.1296	18.808355	0.000969	9.692192	1.641902	0.038718
 159	7.9000e-02	3.1496	18.973712	0.000828	8.278748	1.402458	0.033071
 160	7.9500e-02	3.1689	19.175367	0.001010	10.096034	1.710314	0.040331
 161	8.0000e-02	3.1897	19.441552	0.001333	13.326764	2.257615	0.053237
 162	8.0500e-02	3.2086	19.570611	0.000646	6.461462	1.094601	0.025812
 163	8.1000e-02	3.2297	19.784365	0.001070	10.701796	1.812933	0.042751
 164	8.1500e-02	3.2492	19.965855	0.000909	9.086430	1.539283	0.036298
 165	8.2000e-02	3.2687	20.215907	0.001252	12.519082	2.120790	0.050010
 166	8.2500e-02	3.2892	20.373198	0.000787	7.874906	1.334045	0.031458
 167	8.3000e-02	3.3090	20.558720	0.000929	9.288351	1.573489	0.037105
 168	8.3500e-02	3.3298	20.824905	0.001333	13.326764	2.257615	0.053237
 169	8.4000e-02	3.3487	20.974129	0.000747	7.471065	1.265633	0.029845
 170	8.4500e-02	3.3691	21.224181	0.001252	12.519082	2.120790	0.050010
 171	8.5000e-02	3.3887	21.393572	0.000848	8.480668	1.436664	0.033878
 172	8.5500e-02	3.4094	21.558929	0.000828	8.278748	1.402458	0.033071
 173	8.6000e-02	3.4291	21.800914	0.001212	12.115240	2.052377	0.048397
 174	8.6500e-02	3.4485	21.994503	0.000969	9.692192	1.641902	0.038718
 175	8.7000e-02	3.4692	22.159860	0.000828	8.278748	1.402458	0.033071
 176	8.7500e-02	3.4888	22.357482	0.000989	9.894113	1.676108	0.039524
 177	8.8000e-02	3.5092	22.615600	0.001292	12.922923	2.189202	0.051624
 178	8.8500e-02	3.5295	22.776924	0.000808	8.076827	1.368252	0.032265
 179	8.9000e-02	3.5492	22.970513	0.000969	9.692192	1.641902	0.038718
 180	8.9500e-02	3.5678	23.184267	0.001070	10.701796	1.812933	0.042751
 181	9.0000e-02	3.5889	23.361724	0.000888	8.884510	1.505077	0.035491
 182	9.0500e-02	3.6084	23.547246	0.000929	9.288351	1.573489	0.037105
 183	9.1000e-02	3.6295	23.773100	0.001131	11.307558	1.915552	0.045171
 184	9.1500e-02	3.6493	23.930391	0.000787	7.874906	1.334045	0.031458
 185	9.2000e-02	3.6700	24.152211	0.001111	11.105637	1.881346	0.044364
 186	9.2500e-02	3.6890	24.365965	0.001070	10.701796	1.812933	0.042751
 187	9.3000e-02	3.7097	24.543422	0.000888	8.884510	1.505077	0.035491
 188	9.3500e-02	3.7302	24.777341	0.001171	11.711399	1.983965	0.046784
 189	9.4000e-02	3.7494	24.918500	0.000707	7.067224	1.197220	0.028232
 190	9.4500e-02	3.7698	25.104022	0.000929	9.288351	1.573489	0.037105
 191	9.5000e-02	3.7897	25.354074	0.001252	12.519082	2.120790	0.050010
 192	9.5500e-02	3.8086	25.575895	0.001111	11.105637	1.881346	0.044364
 193	9.6000e-02	3.8297	25.757384	0.000909	9.086430	1.539283	0.036298
 194	9.6500e-02	3.8492	25.910642	0.000767	7.672986	1.299839	0.030652
 195	9.7000e-02	3.8688	26.128429	0.001090	10.903716	1.847140	0.043557
 196	9.7500e-02	3.8889	26.338150	0.001050	10.499875	1.778727	0.041944
 197	9.8000e-02	3.9087	26.527706	0.000949	9.490272	1.607696	0.037911
 198	9.8500e-02	3.9282	26.684997	0.000787	7.874906	1.334045	0.031458
 199	9.9000e-02	3.9490	26.898751	0.001070	10.701796	1.812933	0.042751
 200	9.9500e-02	3.9691	27.100406	0.001010	10.096034	1.710314	0.040331
 201	1.0000e-01	3.9880	27.269796	0.000848	8.480668	1.436664	0.033878
 202	1.0050e-01	4.0094	27.479517	0.001050	10.499875	1.778727	0.041944
 203	1.0100e-01	4.0286	27.677139	0.000989	9.894113	1.676108	0.039524
 204	1.0150e-01	4.0491	27.923158	0.001232	12.317161	2.086584	0.049204
 205	1.0200e-01	4.0689	28.084482	0.000808	8.076827	1.368252	0.032265
 206	1.0250e-01	4.0900	28.249839	0.000828	8.278748	1.402458	0.033071
 207	1.0300e-01	4.1095	28.503924	0.001272	12.721002	2.154996	0.050817
 208	1.0350e-01	4.1296	28.705579	0.001010	10.096034	1.710314	0.040331
 209	1.0400e-01	4.1492	28.830605	0.000626	6.259541	1.060395	0.025005
 210	1.0450e-01	4.1689	29.040326	0.001050	10.499875	1.778727	0.041944
 211	1.0500e-01	4.1890	29.250048	0.001050	10.499875	1.778727	0.041944
 212	1.0550e-01	4.2093	29.435570	0.000929	9.288351	1.573489	0.037105
 213	1.0600e-01	4.2297	29.746119	0.001555	15.547892	2.633884	0.062110
 214	1.0650e-01	4.2499	29.729986	-0.000081	-0.807683	-0.136825	-0.003226
 215	1.0700e-01	4.2697	30.068767	0.001696	16.961336	2.873328	0.067756
 216	1.0750e-01	4.2892	30.173627	0.000525	5.249937	0.889363	0.020972
 217	1.0800e-01	4.3097	30.411580	0.001191	11.913320	2.018171	0.047591
 218	1.0850e-01	4.3304	30.560805	0.000747	7.471065	1.265633	0.029845
 219	1.0900e-01	4.3497	30.754393	0.000969	9.692192	1.641902	0.038718
 220	1.0950e-01	4.3698	30.923784	0.000848	8.480668	1.436664	0.033878
 221	1.1000e-01	4.3887	31.113339	0.000949	9.490272	1.607696	0.037911
 222	1.1050e-01	4.4098	31.383557	0.001353	13.528685	2.291821	0.054044
 223	1.1100e-01	4.4301	31.524715	0.000707	7.067224	1.197220	0.028232
 224	1.1150e-01	4.4501	31.694105	0.000848	8.480668	1.436664	0.033878
 225	1.1200e-01	4.4702	31.895760	0.001010	10.096034	1.710314	0.040331
 226	1.1250e-01	4.4898	32.073217	0.000888	8.884510	1.505077	0.035491
 227	1.1300e-01	4.5096	32.286971	0.001070	10.701796	1.812933	0.042751
 228	1.1350e-01	4.5288	32.468460	0.000909	9.086430	1.539283	0.036298
 229	1.1400e-01	4.5496	32.653983	0.000929	9.288351	1.573489	0.037105
 230	1.1450e-01	4.5694	32.867737	0.001070	10.701796	1.812933	0.042751
 231	1.1500e-01	4.5883	32.972598	0.000525	5.249937	0.889363	0.020972
 232	1.1550e-01	4.6095	33.214584	0.001212	12.115240	2.052377	0.048397
 233	1.1600e-01	4.6307	33.424305	0.001050	10.499875	1.778727	0.041944
 234	1.1650e-01	4.6497	33.601761	0.000888	8.884510	1.505077	0.035491
 235	1.1700e-01	4.6695	33.783250	0.000909	9.086430	1.539283	0.036298
 236	1.1750e-01	4.6896	34.005071	0.001111	11.105637	1.881346	0.044364
 237	1.1800e-01	4.7098	34.174461	0.000848	8.480668	1.436664	0.033878
 238	1.1850e-01	4.7302	34.364017	0.000949	9.490272	1.607696	0.037911
 239	1.1900e-01	4.7507	34.537440	0.000868	8.682589	1.470870	0.034685
 240	1.1950e-01	4.7707	34.743128	0.001030	10.297954	1.744521	0.041138
 241	1.2000e-01	4.7903	34.904452	0.000808	8.076827	1.368252	0.032265
 242	1.2050e-01	4.8102	35.114173	0.001050	10.499875	1.778727	0.041944
 243	1.2100e-01	4.8294	35.287596	0.000868	8.682589	1.470870	0.034685
 244	1.2150e-01	4.8492	35.505384	0.001090	10.903716	1.847140	0.043557
 245	1.2200e-01	4.8694	35.654608	0.000747	7.471065	1.265633	0.029845
 246	1.2250e-01	4.8901	35.840131	0.000929	9.288351	1.573489	0.037105
 247	1.2300e-01	4.9103	36.033719	0.000969	9.692192	1.641902	0.038718
 248	1.2350e-01	4.9298	36.231341	0.000989	9.894113	1.676108	0.039524
 249	1.2400e-01	4.9503	36.412831	0.000909	9.086430	1.539283	0.036298
 250	1.2450e-01	4.9701	36.614486	0.001010	10.096034	1.710314	0.040331
 251	1.2500e-01	4.9890	36.763710	0.000747	7.471065	1.265633	0.029845
 252	1.2550e-01	5.0098	36.953266	0.000949	9.490272	1.607696	0.037911
 253	1.2600e-01	5.0311	37.195252	0.001212	12.115240	2.052377	0.048397
 254	1.2650e-01	5.0519	37.344477	0.000747	7.471065	1.265633	0.029845
 255	1.2700e-01	5.0693	37.509834	0.000828	8.278748	1.402458	0.033071
 256	1.2750e-01	5.0900	37.675191	0.000828	8.278748	1.402458	0.033071
 257	1.2800e-01	5.1105	37.872812	0.000989	9.894113	1.676108	0.039524
 258	1.2850e-01	5.1300	38.042203	0.000848	8.480668	1.436664	0.033878
 259	1.2900e-01	5.1492	38.255957	0.001070	10.701796	1.812933	0.042751
 260	1.2950e-01	5.1698	38.485843	0.001151	11.509478	1.949758	0.045977
