»»»»»»»»»»»»»»»»»»»»»»»»»»»»»»»»»»»» Hysteresis ««««««««««««««««««««««««««««««««««««
»»»  Executed Version:	5.48.1
»»»  Vision Version:	5.48.4 (R)
»»»  Vision Compiled:	9/18/24
»»»  Driver Version:	5.47.0
»»»  Windows Version:	Windows 8 or 8.1
»»»  Processor Information:	x86 (AMD or Intel) - 32 Processors
»»»  Tester Name:	PMF21124-494 (100V)
»»»  Tester S/N:	PMF21124-494
»»»  Internal Amp Type:	100V RevK 270k
»»»  Internal Amp S/N:	iAB2-596/K     
»»»  Execution Count:	1
»»»»»»»»»»»»»»»»»»»»»»»»»»»»»»»»»»»»»»»»»»««««««««««««««««««««««««««««««««««««««««««

Stored:	7/9/2025 - 14:12:25
Configured:	07/09/25 02:06:30 PM
Executed:	07/09/25 02:11:50 PM

»»»»»»»»»»»»»»»»»»»»»»»»»»»»»»»»»»» Sample Info ««««««««««««««««««««««««««««««««««««
Sample Name:	
Lot Name:	
Wafer Name:	
Die Row/Column:	0/0
Capacitor Number:	0
Sample Area (cm2):	1.00e-04
Sample Thickness (microns):	1.50e-01

Amplifier:	Internal

»»»»»»»»»»»»»»»»»»»»»»»»»»»»»»»»»»» Tester Info «««««««««««««««««««««««««««««««««««
Tester Name:	PMF21124-494 (100V)
Tester Serial Number:	PMF21124-494
Return Signal Amp. Level:	0.19 [Index: 3]

»»»»»»»»»»»»»»»»»»»»»»»»»»»»»»»» Hysteresis Info ««««««««««««««««««««««««««««««««««
Task Name:	Hyst-900
Volts:	10.00
Field:	666.67 (kV/cm)
DCBias:	0.00
DCField:	0.00 (kV/cm)
Hysteresis Period (ms):	1.00e+00
Preset:	Enabled
Preset Delay (ms):	1.00e+03
Profile:	Standard Bipolar

»»»»»»»»»»»»»»»»»»»»»»»»»»»»»»»»»»»»»» Data «««««««««««««««««««««««««««««««««««««««
Points:	2001

Valid Data

Point	Time (ms)	Drive Voltage	Measured Polarization (uC/cm2)	Capacitance (uF)	Normalized Capacitance (uF/cm2)	Dielectric Constant	Instantaneous Current (mA)
   1	0.0000e+00	0.0009	-1.264376	0.000707	7.066724	1.197135	0.028232
   2	5.0000e-04	0.0108	-1.123218	0.000707	7.066724	1.197135	0.028232
   3	1.0000e-03	0.0288	-0.998192	0.000626	6.259099	1.060320	0.025005
   4	1.5000e-03	0.0491	-0.848967	0.000747	7.470537	1.265543	0.029845
   5	2.0000e-03	0.0685	-0.647312	0.001010	10.095320	1.710194	0.040331
   6	2.5000e-03	0.0881	-0.417426	0.001151	11.508665	1.949621	0.045977
   7	3.0000e-03	0.1080	-0.268201	0.000747	7.470537	1.265543	0.029845
   8	3.5000e-03	0.1283	-0.050414	0.001090	10.902946	1.847009	0.043557
   9	4.0000e-03	0.1488	0.139142	0.000949	9.489601	1.607582	0.037911
  10	4.5000e-03	0.1683	0.352896	0.001070	10.701039	1.812805	0.042751
  11	5.0000e-03	0.1886	0.522286	0.000848	8.480069	1.436563	0.033878
  12	5.5000e-03	0.2084	0.691676	0.000848	8.480069	1.436563	0.033878
  13	6.0000e-03	0.2288	0.937695	0.001232	12.316291	2.086436	0.049204
  14	6.5000e-03	0.2490	1.183714	0.001232	12.316291	2.086436	0.049204
  15	7.0000e-03	0.2689	1.260343	0.000384	3.836222	0.649874	0.015326
  16	7.5000e-03	0.2891	1.510395	0.001252	12.518197	2.120640	0.050010
  17	8.0000e-03	0.3095	1.683819	0.000868	8.681975	1.470766	0.034685
  18	8.5000e-03	0.3278	1.816911	0.000666	6.662911	1.128728	0.026618
  19	9.0000e-03	0.3483	2.062930	0.001232	12.316291	2.086436	0.049204
  20	9.5000e-03	0.3683	2.240386	0.000888	8.883882	1.504970	0.035491
  21	1.0000e-02	0.3889	2.425909	0.000929	9.287695	1.573378	0.037105
  22	1.0500e-02	0.4083	2.599332	0.000868	8.681975	1.470766	0.034685
  23	1.1000e-02	0.4283	2.865517	0.001333	13.325823	2.257455	0.053237
  24	1.1500e-02	0.4488	3.014741	0.000747	7.470537	1.265543	0.029845
  25	1.2000e-02	0.4697	3.180098	0.000828	8.278163	1.402359	0.033071
  26	1.2500e-02	0.4889	3.438217	0.001292	12.922010	2.189048	0.051624
  27	1.3000e-02	0.5090	3.595507	0.000787	7.874350	1.333951	0.031458
  28	1.3500e-02	0.5291	3.776997	0.000909	9.085788	1.539174	0.036298
  29	1.4000e-02	0.5499	4.010917	0.001171	11.710571	1.983825	0.046784
  30	1.4500e-02	0.5692	4.196439	0.000929	9.287695	1.573378	0.037105
  31	1.5000e-02	0.5883	4.381962	0.000929	9.287695	1.573378	0.037105
  32	1.5500e-02	0.6087	4.575550	0.000969	9.691507	1.641786	0.038718
  33	1.6000e-02	0.6290	4.748974	0.000868	8.681975	1.470766	0.034685
  34	1.6500e-02	0.6479	4.938529	0.000949	9.489601	1.607582	0.037911
  35	1.7000e-02	0.6683	5.200681	0.001312	13.123916	2.223252	0.052430
  36	1.7500e-02	0.6875	5.374104	0.000868	8.681975	1.470766	0.034685
  37	1.8000e-02	0.7089	5.551560	0.000888	8.883882	1.504970	0.035491
  38	1.8500e-02	0.7286	5.737083	0.000929	9.287695	1.573378	0.037105
  39	1.9000e-02	0.7483	5.942771	0.001030	10.297227	1.744397	0.041138
  40	1.9500e-02	0.7692	6.156525	0.001070	10.701039	1.812805	0.042751
  41	2.0000e-02	0.7889	6.309783	0.000767	7.672443	1.299747	0.030652
  42	2.0500e-02	0.8086	6.491272	0.000909	9.085788	1.539174	0.036298
  43	2.1000e-02	0.8292	6.696960	0.001030	10.297227	1.744397	0.041138
  44	2.1500e-02	0.8493	6.906681	0.001050	10.499133	1.778601	0.041944
  45	2.2000e-02	0.8688	7.072038	0.000828	8.278163	1.402359	0.033071
  46	2.2500e-02	0.8896	7.285793	0.001070	10.701039	1.812805	0.042751
  47	2.3000e-02	0.9091	7.543911	0.001292	12.922010	2.189048	0.051624
  48	2.3500e-02	0.9293	7.648771	0.000525	5.249567	0.889301	0.020972
  49	2.4000e-02	0.9493	7.874625	0.001131	11.306759	1.915417	0.045171
  50	2.4500e-02	0.9692	8.072247	0.000989	9.893414	1.675990	0.039524
  51	2.5000e-02	0.9888	8.286001	0.001070	10.701039	1.812805	0.042751
  52	2.5500e-02	1.0093	8.439259	0.000767	7.672443	1.299747	0.030652
  53	2.6000e-02	1.0291	8.648980	0.001050	10.499133	1.778601	0.041944
  54	2.6500e-02	1.0488	8.830469	0.000909	9.085788	1.539174	0.036298
  55	2.7000e-02	1.0699	9.060356	0.001151	11.508665	1.949621	0.045977
  56	2.7500e-02	1.0895	9.270077	0.001050	10.499133	1.778601	0.041944
  57	2.8000e-02	1.1103	9.524162	0.001272	12.720103	2.154844	0.050817
  58	2.8500e-02	1.1292	9.637089	0.000565	5.653379	0.957708	0.022585
  59	2.9000e-02	1.1490	9.814545	0.000888	8.883882	1.504970	0.035491
  60	2.9500e-02	1.1682	10.064598	0.001252	12.518197	2.120640	0.050010
  61	3.0000e-02	1.1893	10.173491	0.000545	5.451473	0.923505	0.021779
  62	3.0500e-02	1.2088	10.431610	0.001292	12.922010	2.189048	0.051624
  63	3.1000e-02	1.2299	10.673595	0.001211	12.114384	2.052232	0.048397
  64	3.1500e-02	1.2496	10.814754	0.000707	7.066724	1.197135	0.028232
  65	3.2000e-02	1.2708	11.072872	0.001292	12.922010	2.189048	0.051624
  66	3.2500e-02	1.2892	11.266461	0.000969	9.691507	1.641786	0.038718
  67	3.3000e-02	1.3091	11.395520	0.000646	6.461005	1.094524	0.025812
  68	3.3500e-02	1.3281	11.613307	0.001090	10.902946	1.847009	0.043557
  69	3.4000e-02	1.3486	11.839161	0.001131	11.306759	1.915417	0.045171
  70	3.4500e-02	1.3687	12.040816	0.001010	10.095320	1.710194	0.040331
  71	3.5000e-02	1.3886	12.258603	0.001090	10.902946	1.847009	0.043557
  72	3.5500e-02	1.4089	12.411861	0.000767	7.672443	1.299747	0.030652
  73	3.6000e-02	1.4287	12.661913	0.001252	12.518197	2.120640	0.050010
  74	3.6500e-02	1.4484	12.835336	0.000868	8.681975	1.470766	0.034685
  75	3.7000e-02	1.4691	13.053124	0.001090	10.902946	1.847009	0.043557
  76	3.7500e-02	1.4893	13.226547	0.000868	8.681975	1.470766	0.034685
  77	3.8000e-02	1.5094	13.480632	0.001272	12.720103	2.154844	0.050817
  78	3.8500e-02	1.5291	13.666155	0.000929	9.287695	1.573378	0.037105
  79	3.9000e-02	1.5486	13.827479	0.000808	8.076256	1.368155	0.032265
  80	3.9500e-02	1.5693	14.053332	0.001131	11.306759	1.915417	0.045171
  81	4.0000e-02	1.5891	14.250954	0.000989	9.893414	1.675990	0.039524
  82	4.0500e-02	1.6086	14.424377	0.000868	8.681975	1.470766	0.034685
  83	4.1000e-02	1.6293	14.617966	0.000969	9.691507	1.641786	0.038718
  84	4.1500e-02	1.6492	14.843819	0.001131	11.306759	1.915417	0.045171
  85	4.2000e-02	1.6687	15.037408	0.000969	9.691507	1.641786	0.038718
  86	4.2500e-02	1.6884	15.186633	0.000747	7.470537	1.265543	0.029845
  87	4.3000e-02	1.7101	15.485082	0.001494	14.941074	2.531086	0.059690
  88	4.3500e-02	1.7297	15.642373	0.000787	7.874350	1.333951	0.031458
  89	4.4000e-02	1.7499	15.819829	0.000888	8.883882	1.504970	0.035491
  90	4.4500e-02	1.7688	16.037617	0.001090	10.902946	1.847009	0.043557
  91	4.5000e-02	1.7886	16.235238	0.000989	9.893414	1.675990	0.039524
  92	4.5500e-02	1.8091	16.428827	0.000969	9.691507	1.641786	0.038718
  93	4.6000e-02	1.8289	16.642581	0.001070	10.701039	1.812805	0.042751
  94	4.6500e-02	1.8485	16.860369	0.001090	10.902946	1.847009	0.043557
  95	4.7000e-02	1.8695	17.062024	0.001010	10.095320	1.710194	0.040331
  96	4.7500e-02	1.8897	17.267712	0.001030	10.297227	1.744397	0.041138
  97	4.8000e-02	1.9101	17.493565	0.001131	11.306759	1.915417	0.045171
  98	4.8500e-02	1.9287	17.646823	0.000767	7.672443	1.299747	0.030652
  99	4.9000e-02	1.9492	17.856544	0.001050	10.499133	1.778601	0.041944
 100	4.9500e-02	1.9679	17.884776	0.000141	1.413345	0.239427	0.005646
 101	5.0000e-02	1.9899	18.348582	0.002322	23.219236	3.933445	0.092761
 102	5.0500e-02	2.0087	18.437310	0.000444	4.441941	0.752485	0.017746
 103	5.1000e-02	2.0281	18.687362	0.001252	12.518197	2.120640	0.050010
 104	5.1500e-02	2.0495	18.860786	0.000868	8.681975	1.470766	0.034685
 105	5.2000e-02	2.0688	19.094705	0.001171	11.710571	1.983825	0.046784
 106	5.2500e-02	2.0894	19.308460	0.001070	10.701039	1.812805	0.042751
 107	5.3000e-02	2.1095	19.477850	0.000848	8.480069	1.436563	0.033878
 108	5.3500e-02	2.1298	19.671438	0.000969	9.691507	1.641786	0.038718
 109	5.4000e-02	2.1490	19.869060	0.000989	9.893414	1.675990	0.039524
 110	5.4500e-02	2.1689	20.098947	0.001151	11.508665	1.949621	0.045977
 111	5.5000e-02	2.1894	20.308668	0.001050	10.499133	1.778601	0.041944
 112	5.5500e-02	2.2092	20.518389	0.001050	10.499133	1.778601	0.041944
 113	5.6000e-02	2.2297	20.703912	0.000929	9.287695	1.573378	0.037105
 114	5.6500e-02	2.2487	20.865236	0.000808	8.076256	1.368155	0.032265
 115	5.7000e-02	2.2694	21.115288	0.001252	12.518197	2.120640	0.050010
 116	5.7500e-02	2.2899	21.288711	0.000868	8.681975	1.470766	0.034685
 117	5.8000e-02	2.3093	21.474234	0.000929	9.287695	1.573378	0.037105
 118	5.8500e-02	2.3297	21.675888	0.001010	10.095320	1.710194	0.040331
 119	5.9000e-02	2.3495	21.889643	0.001070	10.701039	1.812805	0.042751
 120	5.9500e-02	2.3691	22.127595	0.001191	11.912478	2.018028	0.047591
 121	6.0000e-02	2.3891	22.313118	0.000929	9.287695	1.573378	0.037105
 122	6.0500e-02	2.4095	22.534938	0.001110	11.104852	1.881213	0.044364
 123	6.1000e-02	2.4294	22.708362	0.000868	8.681975	1.470766	0.034685
 124	6.1500e-02	2.4496	22.958414	0.001252	12.518197	2.120640	0.050010
 125	6.2000e-02	2.4696	23.043109	0.000424	4.240034	0.718281	0.016939
 126	6.2500e-02	2.4893	23.333492	0.001454	14.537261	2.462679	0.058077
 127	6.3000e-02	2.5098	23.486750	0.000767	7.672443	1.299747	0.030652
 128	6.3500e-02	2.5295	23.684372	0.000989	9.893414	1.675990	0.039524
 129	6.4000e-02	2.5491	23.926357	0.001211	12.114384	2.052232	0.048397
 130	6.4500e-02	2.5690	24.132045	0.001030	10.297227	1.744397	0.041138
 131	6.5000e-02	2.5893	24.293369	0.000808	8.076256	1.368155	0.032265
 132	6.5500e-02	2.6099	24.539388	0.001232	12.316291	2.086436	0.049204
 133	6.6000e-02	2.6292	24.680547	0.000707	7.066724	1.197135	0.028232
 134	6.6500e-02	2.6486	24.970930	0.001454	14.537261	2.462679	0.058077
 135	6.7000e-02	2.6685	25.095956	0.000626	6.259099	1.060320	0.025005
 136	6.7500e-02	2.6888	25.277445	0.000909	9.085788	1.539174	0.036298
 137	6.8000e-02	2.7088	25.515398	0.001191	11.912478	2.018028	0.047591
 138	6.8500e-02	2.7292	25.684788	0.000848	8.480069	1.436563	0.033878
 139	6.9000e-02	2.7507	25.890476	0.001030	10.297227	1.744397	0.041138
 140	6.9500e-02	2.7698	26.136495	0.001232	12.316291	2.086436	0.049204
 141	7.0000e-02	2.7893	26.313952	0.000888	8.883882	1.504970	0.035491
 142	7.0500e-02	2.8091	26.463176	0.000747	7.470537	1.265543	0.029845
 143	7.1000e-02	2.8296	26.701129	0.001191	11.912478	2.018028	0.047591
 144	7.1500e-02	2.8488	26.886652	0.000929	9.287695	1.573378	0.037105
 145	7.2000e-02	2.8688	27.092340	0.001030	10.297227	1.744397	0.041138
 146	7.2500e-02	2.8882	27.269796	0.000888	8.883882	1.504970	0.035491
 147	7.3000e-02	2.9089	27.483550	0.001070	10.701039	1.812805	0.042751
 148	7.3500e-02	2.9291	27.677139	0.000969	9.691507	1.641786	0.038718
 149	7.4000e-02	2.9494	27.870728	0.000969	9.691507	1.641786	0.038718
 150	7.4500e-02	2.9698	28.068350	0.000989	9.893414	1.675990	0.039524
 151	7.5000e-02	2.9893	28.330501	0.001312	13.123916	2.223252	0.052430
 152	7.5500e-02	3.0090	28.475693	0.000727	7.268631	1.231339	0.029038
 153	7.6000e-02	3.0295	28.685414	0.001050	10.499133	1.778601	0.041944
 154	7.6500e-02	3.0496	28.842705	0.000787	7.874350	1.333951	0.031458
 155	7.7000e-02	3.0695	29.076624	0.001171	11.710571	1.983825	0.046784
 156	7.7500e-02	3.0898	29.266180	0.000949	9.489601	1.607582	0.037911
 157	7.8000e-02	3.1097	29.500100	0.001171	11.710571	1.983825	0.046784
 158	7.8500e-02	3.1288	29.637225	0.000686	6.864818	1.162932	0.027425
 159	7.9000e-02	3.1490	29.875178	0.001191	11.912478	2.018028	0.047591
 160	7.9500e-02	3.1691	30.036502	0.000808	8.076256	1.368155	0.032265
 161	8.0000e-02	3.1893	30.222024	0.000929	9.287695	1.573378	0.037105
 162	8.0500e-02	3.2101	30.427712	0.001030	10.297227	1.744397	0.041138
 163	8.1000e-02	3.2300	30.621301	0.000969	9.691507	1.641786	0.038718
 164	8.1500e-02	3.2491	30.839088	0.001090	10.902946	1.847009	0.043557
 165	8.2000e-02	3.2692	31.040743	0.001010	10.095320	1.710194	0.040331
 166	8.2500e-02	3.2898	31.234332	0.000969	9.691507	1.641786	0.038718
 167	8.3000e-02	3.3096	31.435987	0.001010	10.095320	1.710194	0.040331
 168	8.3500e-02	3.3301	31.613443	0.000888	8.883882	1.504970	0.035491
 169	8.4000e-02	3.3496	31.847363	0.001171	11.710571	1.983825	0.046784
 170	8.4500e-02	3.3685	31.976422	0.000646	6.461005	1.094524	0.025812
 171	8.5000e-02	3.3905	32.194210	0.001090	10.902946	1.847009	0.043557
 172	8.5500e-02	3.4094	32.391831	0.000989	9.893414	1.675990	0.039524
 173	8.6000e-02	3.4296	32.549122	0.000787	7.874350	1.333951	0.031458
 174	8.6500e-02	3.4501	32.766910	0.001090	10.902946	1.847009	0.043557
 175	8.7000e-02	3.4698	32.980664	0.001070	10.701039	1.812805	0.042751
 176	8.7500e-02	3.4893	33.170219	0.000949	9.489601	1.607582	0.037911
 177	8.8000e-02	3.5092	33.347676	0.000888	8.883882	1.504970	0.035491
 178	8.8500e-02	3.5287	33.553364	0.001030	10.297227	1.744397	0.041138
 179	8.9000e-02	3.5498	33.775184	0.001110	11.104852	1.881213	0.044364
 180	8.9500e-02	3.5687	33.912310	0.000686	6.864818	1.162932	0.027425
 181	9.0000e-02	3.5901	34.174461	0.001312	13.123916	2.223252	0.052430
 182	9.0500e-02	3.6096	34.319653	0.000727	7.268631	1.231339	0.029038
 183	9.1000e-02	3.6292	34.480977	0.000808	8.076256	1.368155	0.032265
 184	9.1500e-02	3.6490	34.610036	0.000646	6.461005	1.094524	0.025812
 185	9.2000e-02	3.6702	34.896386	0.001434	14.335355	2.428475	0.057270
 186	9.2500e-02	3.6903	35.077875	0.000909	9.085788	1.539174	0.036298
 187	9.3000e-02	3.7097	35.283563	0.001030	10.297227	1.744397	0.041138
 188	9.3500e-02	3.7302	35.493284	0.001050	10.499133	1.778601	0.041944
 189	9.4000e-02	3.7501	35.658641	0.000828	8.278163	1.402359	0.033071
 190	9.4500e-02	3.7701	35.795767	0.000686	6.864818	1.162932	0.027425
 191	9.5000e-02	3.7907	36.086150	0.001454	14.537261	2.462679	0.058077
 192	9.5500e-02	3.8086	36.150679	0.000323	3.230502	0.547262	0.012906
 193	9.6000e-02	3.8293	36.368467	0.001090	10.902946	1.847009	0.043557
 194	9.6500e-02	3.8501	36.610453	0.001211	12.114384	2.052232	0.048397
 195	9.7000e-02	3.8680	36.767743	0.000787	7.874350	1.333951	0.031458
 196	9.7500e-02	3.8899	36.957299	0.000949	9.489601	1.607582	0.037911
 197	9.8000e-02	3.9087	37.183153	0.001131	11.306759	1.915417	0.045171
 198	9.8500e-02	3.9299	37.404973	0.001110	11.104852	1.881213	0.044364
 199	9.9000e-02	3.9490	37.505800	0.000505	5.047660	0.855097	0.020165
 200	9.9500e-02	3.9696	37.767952	0.001312	13.123916	2.223252	0.052430
 201	1.0000e-01	3.9894	37.937342	0.000848	8.480069	1.436563	0.033878
 202	1.0050e-01	4.0100	38.086567	0.000747	7.470537	1.265543	0.029845
 203	1.0100e-01	4.0295	38.312420	0.001131	11.306759	1.915417	0.045171
 204	1.0150e-01	4.0497	38.481810	0.000848	8.480069	1.436563	0.033878
 205	1.0200e-01	4.0698	38.675399	0.000969	9.691507	1.641786	0.038718
 206	1.0250e-01	4.0900	38.856888	0.000909	9.085788	1.539174	0.036298
 207	1.0300e-01	4.1095	39.038378	0.000909	9.085788	1.539174	0.036298
 208	1.0350e-01	4.1296	39.211801	0.000868	8.681975	1.470766	0.034685
 209	1.0400e-01	4.1504	39.413456	0.001010	10.095320	1.710194	0.040331
 210	1.0450e-01	4.1699	39.550581	0.000686	6.864818	1.162932	0.027425
 211	1.0500e-01	4.1901	39.760303	0.001050	10.499133	1.778601	0.041944
 212	1.0550e-01	4.2102	39.965991	0.001030	10.297227	1.744397	0.041138
 213	1.0600e-01	4.2297	40.163612	0.000989	9.893414	1.675990	0.039524
 214	1.0650e-01	4.2499	40.405598	0.001211	12.114384	2.052232	0.048397
 215	1.0700e-01	4.2706	40.502393	0.000485	4.845754	0.820893	0.019359
 216	1.0750e-01	4.2905	40.675816	0.000868	8.681975	1.470766	0.034685
 217	1.0800e-01	4.3097	40.857305	0.000909	9.085788	1.539174	0.036298
 218	1.0850e-01	4.3292	41.062993	0.001030	10.297227	1.744397	0.041138
 219	1.0900e-01	4.3494	41.212218	0.000747	7.470537	1.265543	0.029845
 220	1.0950e-01	4.3695	41.417906	0.001030	10.297227	1.744397	0.041138
 221	1.1000e-01	4.3904	41.595362	0.000888	8.883882	1.504970	0.035491
 222	1.1050e-01	4.4098	41.788951	0.000969	9.691507	1.641786	0.038718
 223	1.1100e-01	4.4307	41.966408	0.000888	8.883882	1.504970	0.035491
 224	1.1150e-01	4.4498	42.192261	0.001131	11.306759	1.915417	0.045171
 225	1.1200e-01	4.4699	42.321320	0.000646	6.461005	1.094524	0.025812
 226	1.1250e-01	4.4897	42.490710	0.000848	8.480069	1.436563	0.033878
 227	1.1300e-01	4.5102	42.728663	0.001191	11.912478	2.018028	0.047591
 228	1.1350e-01	4.5306	42.922252	0.000969	9.691507	1.641786	0.038718
 229	1.1400e-01	4.5499	43.099708	0.000888	8.883882	1.504970	0.035491
 230	1.1450e-01	4.5703	43.244900	0.000727	7.268631	1.231339	0.029038
 231	1.1500e-01	4.5901	43.414290	0.000848	8.480069	1.436563	0.033878
 232	1.1550e-01	4.6100	43.579647	0.000828	8.278163	1.402359	0.033071
 233	1.1600e-01	4.6303	43.757103	0.000888	8.883882	1.504970	0.035491
 234	1.1650e-01	4.6503	43.914394	0.000787	7.874350	1.333951	0.031458
 235	1.1700e-01	4.6710	44.148314	0.001171	11.710571	1.983825	0.046784
 236	1.1750e-01	4.6896	44.309638	0.000808	8.076256	1.368155	0.032265
 237	1.1800e-01	4.7095	44.499193	0.000949	9.489601	1.607582	0.037911
 238	1.1850e-01	4.7308	44.700848	0.001010	10.095320	1.710194	0.040331
 239	1.1900e-01	4.7510	44.833941	0.000666	6.662911	1.128728	0.026618
 240	1.1950e-01	4.7711	45.023496	0.000949	9.489601	1.607582	0.037911
 241	1.2000e-01	4.7906	45.172721	0.000747	7.470537	1.265543	0.029845
 242	1.2050e-01	4.8102	45.418740	0.001232	12.316291	2.086436	0.049204
 243	1.2100e-01	4.8306	45.547799	0.000646	6.461005	1.094524	0.025812
 244	1.2150e-01	4.8505	45.701057	0.000767	7.672443	1.299747	0.030652
 245	1.2200e-01	4.8714	45.955142	0.001272	12.720103	2.154844	0.050817
 246	1.2250e-01	4.8901	46.055969	0.000505	5.047660	0.855097	0.020165
 247	1.2300e-01	4.9103	46.249558	0.000969	9.691507	1.641786	0.038718
 248	1.2350e-01	4.9310	46.459279	0.001050	10.499133	1.778601	0.041944
 249	1.2400e-01	4.9506	46.636736	0.000888	8.883882	1.504970	0.035491
 250	1.2450e-01	4.9696	46.794027	0.000787	7.874350	1.333951	0.031458
 251	1.2500e-01	4.9902	46.967450	0.000868	8.681975	1.470766	0.034685
 252	1.2550e-01	5.0110	47.161039	0.000969	9.691507	1.641786	0.038718
 253	1.2600e-01	5.0311	47.302197	0.000707	7.066724	1.197135	0.028232
 254	1.2650e-01	5.0516	47.467554	0.000828	8.278163	1.402359	0.033071
 255	1.2700e-01	5.0693	47.657110	0.000949	9.489601	1.607582	0.037911
 256	1.2750e-01	5.0897	47.826500	0.000848	8.480069	1.436563	0.033878
 257	1.2800e-01	5.1105	47.959592	0.000666	6.662911	1.128728	0.026618
 258	1.2850e-01	5.1306	48.149148	0.000949	9.489601	1.607582	0.037911
 259	1.2900e-01	5.1495	48.362902	0.001070	10.701039	1.812805	0.042751
 260	1.2950e-01	5.1697	48.576656	0.001070	10.701039	1.812805	0.042751
