»»»»»»»»»»»»»»»»»»»»»»»»»»»»»»»»»»»» Hysteresis ««««««««««««««««««««««««««««««««««««
»»»  Executed Version:	5.48.1
»»»  Vision Version:	5.48.4 (R)
»»»  Vision Compiled:	9/18/24
»»»  Driver Version:	5.47.0
»»»  Windows Version:	Windows 8 or 8.1
»»»  Processor Information:	x86 (AMD or Intel) - 32 Processors
»»»  Tester Name:	PMF21124-494 (100V)
»»»  Tester S/N:	PMF21124-494
»»»  Internal Amp Type:	100V RevK 270k
»»»  Internal Amp S/N:	iAB2-596/K     
»»»  Execution Count:	1
»»»»»»»»»»»»»»»»»»»»»»»»»»»»»»»»»»»»»»»»»»««««««««««««««««««««««««««««««««««««««««««

Stored:	7/9/2025 - 15:55:21
Configured:	07/09/25 02:06:30 PM
Executed:	07/09/25 03:54:57 PM

»»»»»»»»»»»»»»»»»»»»»»»»»»»»»»»»»»» Sample Info ««««««««««««««««««««««««««««««««««««
Sample Name:	
Lot Name:	
Wafer Name:	
Die Row/Column:	0/0
Capacitor Number:	0
Sample Area (cm2):	1.00e-04
Sample Thickness (microns):	1.50e-01

Amplifier:	Internal

»»»»»»»»»»»»»»»»»»»»»»»»»»»»»»»»»»» Tester Info «««««««««««««««««««««««««««««««««««
Tester Name:	PMF21124-494 (100V)
Tester Serial Number:	PMF21124-494
Return Signal Amp. Level:	0.19 [Index: 3]

»»»»»»»»»»»»»»»»»»»»»»»»»»»»»»»» Hysteresis Info ««««««««««««««««««««««««««««««««««
Task Name:	Hyst-900
Volts:	10.00
Field:	666.67 (kV/cm)
DCBias:	0.00
DCField:	0.00 (kV/cm)
Hysteresis Period (ms):	1.00e+00
Preset:	Enabled
Preset Delay (ms):	1.00e+03
Profile:	Standard Bipolar

»»»»»»»»»»»»»»»»»»»»»»»»»»»»»»»»»»»»»» Data «««««««««««««««««««««««««««««««««««««««
Points:	2001

Valid Data

Point	Time (ms)	Drive Voltage	Measured Polarization (uC/cm2)	Capacitance (uF)	Normalized Capacitance (uF/cm2)	Dielectric Constant	Instantaneous Current (mA)
   1	0.0000e+00	-0.0003	3.966552	0.000626	6.260509	1.060559	0.025005
   2	5.0000e-04	0.0099	4.091579	0.000626	6.260509	1.060559	0.025005
   3	1.0000e-03	0.0272	4.192406	0.000505	5.048798	0.855290	0.020165
   4	1.5000e-03	0.0471	4.321465	0.000646	6.462461	1.094771	0.025812
   5	2.0000e-03	0.0668	4.571517	0.001252	12.521019	2.121118	0.050010
   6	2.5000e-03	0.0880	4.708643	0.000687	6.866365	1.163194	0.027425
   7	3.0000e-03	0.1077	4.874000	0.000828	8.280028	1.402675	0.033071
   8	3.5000e-03	0.1278	5.051456	0.000889	8.885884	1.505310	0.035491
   9	4.0000e-03	0.1476	5.232945	0.000909	9.087836	1.539521	0.036298
  10	4.5000e-03	0.1672	5.434600	0.001010	10.097596	1.710579	0.040331
  11	5.0000e-03	0.1873	5.583825	0.000747	7.472221	1.265828	0.029845
  12	5.5000e-03	0.2078	5.773381	0.000949	9.491740	1.607944	0.037911
  13	6.0000e-03	0.2273	5.906473	0.000666	6.664413	1.128982	0.026618
  14	6.5000e-03	0.2471	6.047631	0.000707	7.068317	1.197405	0.028232
  15	7.0000e-03	0.2668	6.281551	0.001171	11.713211	1.984272	0.046784
  16	7.5000e-03	0.2879	6.467074	0.000929	9.289788	1.573733	0.037105
  17	8.0000e-03	0.3079	6.628398	0.000808	8.078077	1.368463	0.032265
  18	8.5000e-03	0.3279	6.866350	0.001192	11.915163	2.018483	0.047591
  19	9.0000e-03	0.3466	6.938946	0.000364	3.635134	0.615808	0.014519
  20	9.5000e-03	0.3667	7.172866	0.001171	11.713211	1.984272	0.046784
  21	1.0000e-02	0.3877	7.366455	0.000969	9.693692	1.642156	0.038718
  22	1.0500e-02	0.4070	7.527779	0.000808	8.078077	1.368463	0.032265
  23	1.1000e-02	0.4279	7.697169	0.000848	8.481980	1.436886	0.033878
  24	1.1500e-02	0.4475	7.882691	0.000929	9.289788	1.573733	0.037105
  25	1.2000e-02	0.4677	8.088379	0.001030	10.299548	1.744791	0.041138
  26	1.2500e-02	0.4881	8.237604	0.000747	7.472221	1.265828	0.029845
  27	1.3000e-02	0.5074	8.406994	0.000848	8.481980	1.436886	0.033878
  28	1.3500e-02	0.5267	8.632848	0.001131	11.309307	1.915848	0.045171
  29	1.4000e-02	0.5471	8.778039	0.000727	7.270269	1.231617	0.029038
  30	1.4500e-02	0.5680	8.903065	0.000626	6.260509	1.060559	0.025005
  31	1.5000e-02	0.5880	9.112786	0.001050	10.501500	1.779002	0.041944
  32	1.5500e-02	0.6072	9.298309	0.000929	9.289788	1.573733	0.037105
  33	1.6000e-02	0.6281	9.508030	0.001050	10.501500	1.779002	0.041944
  34	1.6500e-02	0.6480	9.661288	0.000767	7.674173	1.300040	0.030652
  35	1.7000e-02	0.6667	9.830678	0.000848	8.481980	1.436886	0.033878
  36	1.7500e-02	0.6871	10.076697	0.001232	12.319067	2.086906	0.049204
  37	1.8000e-02	0.7072	10.213822	0.000687	6.866365	1.163194	0.027425
  38	1.8500e-02	0.7275	10.391279	0.000889	8.885884	1.505310	0.035491
  39	1.9000e-02	0.7475	10.580834	0.000949	9.491740	1.607944	0.037911
  40	1.9500e-02	0.7673	10.806688	0.001131	11.309307	1.915848	0.045171
  41	2.0000e-02	0.7875	10.915581	0.000545	5.452702	0.923713	0.021779
  42	2.0500e-02	0.8069	11.153534	0.001192	11.915163	2.018483	0.047591
  43	2.1000e-02	0.8269	11.314858	0.000808	8.078077	1.368463	0.032265
  44	2.1500e-02	0.8481	11.435851	0.000606	6.058557	1.026347	0.024199
  45	2.2000e-02	0.8678	11.673804	0.001192	11.915163	2.018483	0.047591
  46	2.2500e-02	0.8875	11.875459	0.001010	10.097596	1.710579	0.040331
  47	2.3000e-02	0.9082	12.024683	0.000747	7.472221	1.265828	0.029845
  48	2.3500e-02	0.9274	12.169875	0.000727	7.270269	1.231617	0.029038
  49	2.4000e-02	0.9481	12.411861	0.001212	12.117115	2.052695	0.048397
  50	2.4500e-02	0.9674	12.520755	0.000545	5.452702	0.923713	0.021779
  51	2.5000e-02	0.9882	12.718376	0.000990	9.895644	1.676367	0.039524
  52	2.5500e-02	1.0083	12.863568	0.000727	7.270269	1.231617	0.029038
  53	2.6000e-02	1.0275	13.145885	0.001414	14.136634	2.394811	0.056463
  54	2.6500e-02	1.0465	13.303176	0.000788	7.876125	1.334252	0.031458
  55	2.7000e-02	1.0672	13.492731	0.000949	9.491740	1.607944	0.037911
  56	2.7500e-02	1.0877	13.633890	0.000707	7.068317	1.197405	0.028232
  57	2.8000e-02	1.1082	13.871843	0.001192	11.915163	2.018483	0.047591
  58	2.8500e-02	1.1287	14.041233	0.000848	8.481980	1.436886	0.033878
  59	2.9000e-02	1.1469	14.234822	0.000969	9.693692	1.642156	0.038718
  60	2.9500e-02	1.1680	14.400179	0.000828	8.280028	1.402675	0.033071
  61	3.0000e-02	1.1867	14.585701	0.000929	9.289788	1.573733	0.037105
  62	3.0500e-02	1.2079	14.714760	0.000646	6.462461	1.094771	0.025812
  63	3.1000e-02	1.2280	14.928514	0.001070	10.703451	1.813214	0.042751
  64	3.1500e-02	1.2476	15.118070	0.000949	9.491740	1.607944	0.037911
  65	3.2000e-02	1.2677	15.360056	0.001212	12.117115	2.052695	0.048397
  66	3.2500e-02	1.2875	15.525413	0.000828	8.280028	1.402675	0.033071
  67	3.3000e-02	1.3069	15.686737	0.000808	8.078077	1.368463	0.032265
  68	3.3500e-02	1.3278	15.864193	0.000889	8.885884	1.505310	0.035491
  69	3.4000e-02	1.3466	16.029550	0.000828	8.280028	1.402675	0.033071
  70	3.4500e-02	1.3672	16.235238	0.001030	10.299548	1.744791	0.041138
  71	3.5000e-02	1.3872	16.400595	0.000828	8.280028	1.402675	0.033071
  72	3.5500e-02	1.4065	16.642581	0.001212	12.117115	2.052695	0.048397
  73	3.6000e-02	1.4277	16.795839	0.000767	7.674173	1.300040	0.030652
  74	3.6500e-02	1.4478	16.965229	0.000848	8.481980	1.436886	0.033878
  75	3.7000e-02	1.4674	17.154785	0.000949	9.491740	1.607944	0.037911
  76	3.7500e-02	1.4871	17.364506	0.001050	10.501500	1.779002	0.041944
  77	3.8000e-02	1.5079	17.582293	0.001091	10.905403	1.847425	0.043557
  78	3.8500e-02	1.5273	17.751683	0.000848	8.481980	1.436886	0.033878
  79	3.9000e-02	1.5476	17.933173	0.000909	9.087836	1.539521	0.036298
  80	3.9500e-02	1.5679	18.122729	0.000949	9.491740	1.607944	0.037911
  81	4.0000e-02	1.5881	18.280019	0.000788	7.876125	1.334252	0.031458
  82	4.0500e-02	1.6071	18.461509	0.000909	9.087836	1.539521	0.036298
  83	4.1000e-02	1.6278	18.699462	0.001192	11.915163	2.018483	0.047591
  84	4.1500e-02	1.6473	18.848686	0.000747	7.472221	1.265828	0.029845
  85	4.2000e-02	1.6673	19.046308	0.000990	9.895644	1.676367	0.039524
  86	4.2500e-02	1.6870	19.276195	0.001151	11.511259	1.950060	0.045977
  87	4.3000e-02	1.7082	19.465750	0.000949	9.491740	1.607944	0.037911
  88	4.3500e-02	1.7282	19.574644	0.000545	5.452702	0.923713	0.021779
  89	4.4000e-02	1.7479	19.800498	0.001131	11.309307	1.915848	0.045171
  90	4.4500e-02	1.7676	20.014252	0.001070	10.703451	1.813214	0.042751
  91	4.5000e-02	1.7883	20.151377	0.000687	6.866365	1.163194	0.027425
  92	4.5500e-02	1.8071	20.457893	0.001535	15.348345	2.600080	0.061303
  93	4.6000e-02	1.8271	20.590985	0.000666	6.664413	1.128982	0.026618
  94	4.6500e-02	1.8470	20.808772	0.001091	10.905403	1.847425	0.043557
  95	4.7000e-02	1.8672	20.962030	0.000767	7.674173	1.300040	0.030652
  96	4.7500e-02	1.8883	21.147553	0.000929	9.289788	1.573733	0.037105
  97	4.8000e-02	1.9080	21.373406	0.001131	11.309307	1.915848	0.045171
  98	4.8500e-02	1.9266	21.558929	0.000929	9.289788	1.573733	0.037105
  99	4.9000e-02	1.9470	21.724286	0.000828	8.280028	1.402675	0.033071
 100	4.9500e-02	1.9690	21.901742	0.000889	8.885884	1.505310	0.035491
 101	5.0000e-02	1.9879	22.115496	0.001070	10.703451	1.813214	0.042751
 102	5.0500e-02	2.0073	22.305052	0.000949	9.491740	1.607944	0.037911
 103	5.1000e-02	2.0271	22.547038	0.001212	12.117115	2.052695	0.048397
 104	5.1500e-02	2.0471	22.700295	0.000767	7.674173	1.300040	0.030652
 105	5.2000e-02	2.0676	22.869686	0.000848	8.481980	1.436886	0.033878
 106	5.2500e-02	2.0872	23.099572	0.001151	11.511259	1.950060	0.045977
 107	5.3000e-02	2.1069	23.256863	0.000788	7.876125	1.334252	0.031458
 108	5.3500e-02	2.1283	23.450452	0.000969	9.693692	1.642156	0.038718
 109	5.4000e-02	2.1469	23.684372	0.001171	11.713211	1.984272	0.046784
 110	5.4500e-02	2.1674	23.890060	0.001030	10.299548	1.744791	0.041138
 111	5.5000e-02	2.1883	24.039284	0.000747	7.472221	1.265828	0.029845
 112	5.5500e-02	2.2085	24.224807	0.000929	9.289788	1.573733	0.037105
 113	5.6000e-02	2.2282	24.486958	0.001313	13.126874	2.223753	0.052430
 114	5.6500e-02	2.2473	24.636183	0.000747	7.472221	1.265828	0.029845
 115	5.7000e-02	2.2688	24.821705	0.000929	9.289788	1.573733	0.037105
 116	5.7500e-02	2.2879	25.003195	0.000909	9.087836	1.539521	0.036298
 117	5.8000e-02	2.3072	25.196784	0.000969	9.693692	1.642156	0.038718
 118	5.8500e-02	2.3273	25.366174	0.000848	8.481980	1.436886	0.033878
 119	5.9000e-02	2.3473	25.604126	0.001192	11.915163	2.018483	0.047591
 120	5.9500e-02	2.3679	25.817881	0.001070	10.703451	1.813214	0.042751
 121	6.0000e-02	2.3886	26.015503	0.000990	9.895644	1.676367	0.039524
 122	6.0500e-02	2.4074	26.164727	0.000747	7.472221	1.265828	0.029845
 123	6.1000e-02	2.4280	26.354283	0.000949	9.491740	1.607944	0.037911
 124	6.1500e-02	2.4481	26.584169	0.001151	11.511259	1.950060	0.045977
 125	6.2000e-02	2.4670	26.773725	0.000949	9.491740	1.607944	0.037911
 126	6.2500e-02	2.4873	27.007645	0.001171	11.713211	1.984272	0.046784
 127	6.3000e-02	2.5073	27.132671	0.000626	6.260509	1.060559	0.025005
 128	6.3500e-02	2.5287	27.382723	0.001252	12.521019	2.121118	0.050010
 129	6.4000e-02	2.5472	27.548080	0.000828	8.280028	1.402675	0.033071
 130	6.4500e-02	2.5681	27.717470	0.000848	8.481980	1.436886	0.033878
 131	6.5000e-02	2.5873	27.923158	0.001030	10.299548	1.744791	0.041138
 132	6.5500e-02	2.6070	28.108681	0.000929	9.289788	1.573733	0.037105
 133	6.6000e-02	2.6273	28.342600	0.001171	11.713211	1.984272	0.046784
 134	6.6500e-02	2.6469	28.463593	0.000606	6.058557	1.026347	0.024199
 135	6.7000e-02	2.6681	28.729778	0.001333	13.328826	2.257964	0.053237
 136	6.7500e-02	2.6877	28.895135	0.000828	8.280028	1.402675	0.033071
 137	6.8000e-02	2.7076	29.044360	0.000747	7.472221	1.265828	0.029845
 138	6.8500e-02	2.7271	29.266180	0.001111	11.107355	1.881637	0.044364
 139	6.9000e-02	2.7487	29.479934	0.001070	10.703451	1.813214	0.042751
 140	6.9500e-02	2.7673	29.661424	0.000909	9.087836	1.539521	0.036298
 141	7.0000e-02	2.7872	29.867112	0.001030	10.299548	1.744791	0.041138
 142	7.0500e-02	2.8081	30.072800	0.001030	10.299548	1.744791	0.041138
 143	7.1000e-02	2.8275	30.310753	0.001192	11.915163	2.018483	0.047591
 144	7.1500e-02	2.8480	30.468043	0.000788	7.876125	1.334252	0.031458
 145	7.2000e-02	2.8668	30.661632	0.000969	9.693692	1.642156	0.038718
 146	7.2500e-02	2.8873	30.899585	0.001192	11.915163	2.018483	0.047591
 147	7.3000e-02	2.9080	31.060909	0.000808	8.078077	1.368463	0.032265
 148	7.3500e-02	2.9280	31.250465	0.000949	9.491740	1.607944	0.037911
 149	7.4000e-02	2.9480	31.435987	0.000929	9.289788	1.573733	0.037105
 150	7.4500e-02	2.9674	31.609410	0.000868	8.683932	1.471098	0.034685
 151	7.5000e-02	2.9883	31.835264	0.001131	11.309307	1.915848	0.045171
 152	7.5500e-02	3.0078	32.044985	0.001050	10.501500	1.779002	0.041944
 153	7.6000e-02	3.0276	32.234541	0.000949	9.491740	1.607944	0.037911
 154	7.6500e-02	3.0471	32.420063	0.000929	9.289788	1.573733	0.037105
 155	7.7000e-02	3.0671	32.637850	0.001091	10.905403	1.847425	0.043557
 156	7.7500e-02	3.0882	32.871770	0.001171	11.713211	1.984272	0.046784
 157	7.8000e-02	3.1069	32.984697	0.000565	5.654654	0.957924	0.022585
 158	7.8500e-02	3.1274	33.178286	0.000969	9.693692	1.642156	0.038718
 159	7.9000e-02	3.1482	33.379941	0.001010	10.097596	1.710579	0.040331
 160	7.9500e-02	3.1674	33.605794	0.001131	11.309307	1.915848	0.045171
 161	8.0000e-02	3.1870	33.831648	0.001131	11.309307	1.915848	0.045171
 162	8.0500e-02	3.2077	34.005071	0.000868	8.683932	1.471098	0.034685
 163	8.1000e-02	3.2269	34.226891	0.001111	11.107355	1.881637	0.044364
 164	8.1500e-02	3.2471	34.368050	0.000707	7.068317	1.197405	0.028232
 165	8.2000e-02	3.2668	34.585837	0.001091	10.905403	1.847425	0.043557
 166	8.2500e-02	3.2877	34.791525	0.001030	10.299548	1.744791	0.041138
 167	8.3000e-02	3.3075	34.920584	0.000646	6.462461	1.094771	0.025812
 168	8.3500e-02	3.3271	35.154504	0.001171	11.713211	1.984272	0.046784
 169	8.4000e-02	3.3473	35.376324	0.001111	11.107355	1.881637	0.044364
 170	8.4500e-02	3.3677	35.586046	0.001050	10.501500	1.779002	0.041944
 171	8.5000e-02	3.3875	35.727204	0.000707	7.068317	1.197405	0.028232
 172	8.5500e-02	3.4073	35.884495	0.000788	7.876125	1.334252	0.031458
 173	8.6000e-02	3.4273	36.130514	0.001232	12.319067	2.086906	0.049204
 174	8.6500e-02	3.4488	36.320069	0.000949	9.491740	1.607944	0.037911
 175	8.7000e-02	3.4677	36.525757	0.001030	10.299548	1.744791	0.041138
 176	8.7500e-02	3.4880	36.695148	0.000848	8.481980	1.436886	0.033878
 177	8.8000e-02	3.5069	36.921001	0.001131	11.309307	1.915848	0.045171
 178	8.8500e-02	3.5272	37.138788	0.001091	10.905403	1.847425	0.043557
 179	8.9000e-02	3.5469	37.223484	0.000424	4.240990	0.718443	0.016939
 180	8.9500e-02	3.5669	37.461436	0.001192	11.915163	2.018483	0.047591
 181	9.0000e-02	3.5876	37.691323	0.001151	11.511259	1.950060	0.045977
 182	9.0500e-02	3.6078	37.856680	0.000828	8.280028	1.402675	0.033071
 183	9.1000e-02	3.6270	38.086567	0.001151	11.511259	1.950060	0.045977
 184	9.1500e-02	3.6475	38.231758	0.000727	7.270269	1.231617	0.029038
 185	9.2000e-02	3.6682	38.433413	0.001010	10.097596	1.710579	0.040331
 186	9.2500e-02	3.6871	38.602803	0.000848	8.481980	1.436886	0.033878
 187	9.3000e-02	3.7067	38.816557	0.001070	10.703451	1.813214	0.042751
 188	9.3500e-02	3.7280	39.034345	0.001091	10.905403	1.847425	0.043557
 189	9.4000e-02	3.7482	39.240033	0.001030	10.299548	1.744791	0.041138
 190	9.4500e-02	3.7678	39.409423	0.000848	8.481980	1.436886	0.033878
 191	9.5000e-02	3.7885	39.615111	0.001030	10.299548	1.744791	0.041138
 192	9.5500e-02	3.8068	39.816766	0.001010	10.097596	1.710579	0.040331
 193	9.6000e-02	3.8269	40.002288	0.000929	9.289788	1.573733	0.037105
 194	9.6500e-02	3.8470	40.147480	0.000727	7.270269	1.231617	0.029038
 195	9.7000e-02	3.8666	40.441896	0.001474	14.742490	2.497445	0.058883
 196	9.7500e-02	3.8870	40.558856	0.000586	5.856605	0.992136	0.023392
 197	9.8000e-02	3.9069	40.728246	0.000848	8.481980	1.436886	0.033878
 198	9.8500e-02	3.9268	40.913769	0.000929	9.289788	1.573733	0.037105
 199	9.9000e-02	3.9471	41.111391	0.000990	9.895644	1.676367	0.039524
 200	9.9500e-02	3.9664	41.288847	0.000889	8.885884	1.505310	0.035491
 201	1.0000e-01	3.9874	41.482436	0.000969	9.693692	1.642156	0.038718
 202	1.0050e-01	4.0076	41.671991	0.000949	9.491740	1.607944	0.037911
 203	1.0100e-01	4.0277	41.861547	0.000949	9.491740	1.607944	0.037911
 204	1.0150e-01	4.0472	42.043036	0.000909	9.087836	1.539521	0.036298
 205	1.0200e-01	4.0674	42.224526	0.000909	9.087836	1.539521	0.036298
 206	1.0250e-01	4.0881	42.438280	0.001070	10.703451	1.813214	0.042751
 207	1.0300e-01	4.1077	42.680266	0.001212	12.117115	2.052695	0.048397
 208	1.0350e-01	4.1272	42.845623	0.000828	8.280028	1.402675	0.033071
 209	1.0400e-01	4.1483	42.990815	0.000727	7.270269	1.231617	0.029038
 210	1.0450e-01	4.1675	43.176337	0.000929	9.289788	1.573733	0.037105
 211	1.0500e-01	4.1876	43.345727	0.000848	8.481980	1.436886	0.033878
 212	1.0550e-01	4.2078	43.559481	0.001070	10.703451	1.813214	0.042751
 213	1.0600e-01	4.2274	43.781302	0.001111	11.107355	1.881637	0.044364
 214	1.0650e-01	4.2468	43.991023	0.001050	10.501500	1.779002	0.041944
 215	1.0700e-01	4.2682	44.172512	0.000909	9.087836	1.539521	0.036298
 216	1.0750e-01	4.2874	44.362068	0.000949	9.491740	1.607944	0.037911
 217	1.0800e-01	4.3073	44.511293	0.000747	7.472221	1.265828	0.029845
 218	1.0850e-01	4.3280	44.696815	0.000929	9.289788	1.573733	0.037105
 219	1.0900e-01	4.3478	44.862172	0.000828	8.280028	1.402675	0.033071
 220	1.0950e-01	4.3668	45.112224	0.001252	12.521019	2.121118	0.050010
 221	1.1000e-01	4.3875	45.265482	0.000767	7.674173	1.300040	0.030652
 222	1.1050e-01	4.4080	45.434872	0.000848	8.481980	1.436886	0.033878
 223	1.1100e-01	4.4270	45.656693	0.001111	11.107355	1.881637	0.044364
 224	1.1150e-01	4.4482	45.882546	0.001131	11.309307	1.915848	0.045171
 225	1.1200e-01	4.4678	46.019672	0.000687	6.866365	1.163194	0.027425
 226	1.1250e-01	4.4873	46.156797	0.000687	6.866365	1.163194	0.027425
 227	1.1300e-01	4.5084	46.358452	0.001010	10.097596	1.710579	0.040331
 228	1.1350e-01	4.5282	46.499610	0.000707	7.068317	1.197405	0.028232
 229	1.1400e-01	4.5485	46.785960	0.001434	14.338586	2.429022	0.057270
 230	1.1450e-01	4.5673	46.894854	0.000545	5.452702	0.923713	0.021779
 231	1.1500e-01	4.5874	47.096509	0.001010	10.097596	1.710579	0.040331
 232	1.1550e-01	4.6082	47.354627	0.001292	12.924922	2.189541	0.051624
 233	1.1600e-01	4.6280	47.491753	0.000687	6.866365	1.163194	0.027425
 234	1.1650e-01	4.6478	47.693408	0.001010	10.097596	1.710579	0.040331
 235	1.1700e-01	4.6680	47.891029	0.000990	9.895644	1.676367	0.039524
 236	1.1750e-01	4.6881	48.056386	0.000828	8.280028	1.402675	0.033071
 237	1.1800e-01	4.7076	48.193512	0.000687	6.866365	1.163194	0.027425
 238	1.1850e-01	4.7279	48.447597	0.001272	12.722971	2.155330	0.050817
 239	1.1900e-01	4.7479	48.604888	0.000788	7.876125	1.334252	0.031458
 240	1.1950e-01	4.7681	48.782344	0.000889	8.885884	1.505310	0.035491
 241	1.2000e-01	4.7879	48.971900	0.000949	9.491740	1.607944	0.037911
 242	1.2050e-01	4.8080	49.189687	0.001091	10.905403	1.847425	0.043557
 243	1.2100e-01	4.8280	49.314713	0.000626	6.260509	1.060559	0.025005
 244	1.2150e-01	4.8482	49.496203	0.000909	9.087836	1.539521	0.036298
 245	1.2200e-01	4.8682	49.625262	0.000646	6.462461	1.094771	0.025812
 246	1.2250e-01	4.8883	49.895479	0.001353	13.530778	2.292176	0.054044
 247	1.2300e-01	4.9074	50.040671	0.000727	7.270269	1.231617	0.029038
 248	1.2350e-01	4.9277	50.234260	0.000969	9.693692	1.642156	0.038718
 249	1.2400e-01	4.9481	50.395584	0.000808	8.078077	1.368463	0.032265
 250	1.2450e-01	4.9683	50.609338	0.001070	10.703451	1.813214	0.042751
 251	1.2500e-01	4.9878	50.815026	0.001030	10.299548	1.744791	0.041138
 252	1.2550e-01	5.0081	50.927953	0.000565	5.654654	0.957924	0.022585
 253	1.2600e-01	5.0275	51.234468	0.001535	15.348345	2.600080	0.061303
 254	1.2650e-01	5.0491	51.331262	0.000485	4.846846	0.821078	0.019359
 255	1.2700e-01	5.0677	51.561149	0.001151	11.511259	1.950060	0.045977
 256	1.2750e-01	5.0885	51.629712	0.000343	3.433183	0.581597	0.013713
 257	1.2800e-01	5.1076	51.851532	0.001111	11.107355	1.881637	0.044364
 258	1.2850e-01	5.1282	52.008823	0.000788	7.876125	1.334252	0.031458
 259	1.2900e-01	5.1477	52.194346	0.000929	9.289788	1.573733	0.037105
 260	1.2950e-01	5.1678	52.355670	0.000808	8.078077	1.368463	0.032265
