»»»»»»»»»»»»»»»»»»»»»»»»»»»»»»»»»»»» Hysteresis ««««««««««««««««««««««««««««««««««««
»»»  Executed Version:	5.48.1
»»»  Vision Version:	5.48.4 (R)
»»»  Vision Compiled:	9/18/24
»»»  Driver Version:	5.47.0
»»»  Windows Version:	Windows 8 or 8.1
»»»  Processor Information:	x86 (AMD or Intel) - 32 Processors
»»»  Tester Name:	PMF21124-494 (100V)
»»»  Tester S/N:	PMF21124-494
»»»  Internal Amp Type:	100V RevK 270k
»»»  Internal Amp S/N:	iAB2-596/K     
»»»  Execution Count:	1
»»»»»»»»»»»»»»»»»»»»»»»»»»»»»»»»»»»»»»»»»»««««««««««««««««««««««««««««««««««««««««««

Stored:	7/8/2025 - 14:51:34
Configured:	07/08/25 02:50:47 PM
Executed:	07/08/25 02:51:14 PM

»»»»»»»»»»»»»»»»»»»»»»»»»»»»»»»»»»» Sample Info ««««««««««««««««««««««««««««««««««««
Sample Name:	
Lot Name:	
Wafer Name:	
Die Row/Column:	0/0
Capacitor Number:	0
Sample Area (cm2):	1.00e-04
Sample Thickness (microns):	1.50e-01

Amplifier:	Internal

»»»»»»»»»»»»»»»»»»»»»»»»»»»»»»»»»»» Tester Info «««««««««««««««««««««««««««««««««««
Tester Name:	PMF21124-494 (100V)
Tester Serial Number:	PMF21124-494
Return Signal Amp. Level:	0.19 [Index: 3]

»»»»»»»»»»»»»»»»»»»»»»»»»»»»»»»» Hysteresis Info ««««««««««««««««««««««««««««««««««
Task Name:	Hyst-724
Volts:	10.00
Field:	666.67 (kV/cm)
DCBias:	0.00
DCField:	0.00 (kV/cm)
Hysteresis Period (ms):	1.00e+00
Preset:	Enabled
Preset Delay (ms):	1.00e+03
Profile:	Standard Bipolar

»»»»»»»»»»»»»»»»»»»»»»»»»»»»»»»»»»»»»» Data «««««««««««««««««««««««««««««««««««««««
Points:	2001

Valid Data

Point	Time (ms)	Drive Voltage	Measured Polarization (uC/cm2)	Capacitance (uF)	Normalized Capacitance (uF/cm2)	Dielectric Constant	Instantaneous Current (mA)
   1	0.0000e+00	0.0014	6.561851	0.000505	5.045877	0.854795	0.020165
   2	5.0000e-04	0.0131	6.662679	0.000505	5.045877	0.854795	0.020165
   3	1.0000e-03	0.0313	6.719142	0.000283	2.825691	0.478685	0.011293
   4	1.5000e-03	0.0513	6.868367	0.000747	7.467899	1.265096	0.029845
   5	2.0000e-03	0.0709	7.013558	0.000727	7.266063	1.230904	0.029038
   6	2.5000e-03	0.0917	7.061956	0.000242	2.422021	0.410301	0.009679
   7	3.0000e-03	0.1112	7.215213	0.000767	7.669734	1.299288	0.030652
   8	3.5000e-03	0.1320	7.332173	0.000585	5.853218	0.991562	0.023392
   9	4.0000e-03	0.1507	7.441067	0.000545	5.449548	0.923178	0.021779
  10	4.5000e-03	0.1709	7.541894	0.000505	5.045877	0.854795	0.020165
  11	5.0000e-03	0.1907	7.691119	0.000747	7.467899	1.265096	0.029845
  12	5.5000e-03	0.2106	7.804046	0.000565	5.651383	0.957370	0.022585
  13	6.0000e-03	0.2301	7.900840	0.000484	4.844042	0.820603	0.019359
  14	6.5000e-03	0.2510	8.021833	0.000606	6.055053	1.025754	0.024199
  15	7.0000e-03	0.2705	8.142826	0.000606	6.055053	1.025754	0.024199
  16	7.5000e-03	0.2906	8.239620	0.000484	4.844042	0.820603	0.019359
  17	8.0000e-03	0.3104	8.352547	0.000565	5.651383	0.957370	0.022585
  18	8.5000e-03	0.3304	8.477573	0.000626	6.256888	1.059946	0.025005
  19	9.0000e-03	0.3513	8.602599	0.000626	6.256888	1.059946	0.025005
  20	9.5000e-03	0.3707	8.929280	0.001635	16.348643	2.769535	0.065336
  21	1.0000e-02	0.3912	8.759890	-0.000848	-8.477074	-1.436055	-0.033878
  22	1.0500e-02	0.4108	9.009942	0.001251	12.513776	2.119891	0.050010
  23	1.1000e-02	0.4316	9.114803	0.000525	5.247712	0.888987	0.020972
  24	1.1500e-02	0.4507	9.207564	0.000464	4.642207	0.786411	0.018552
  25	1.2000e-02	0.4711	9.389054	0.000908	9.082579	1.538631	0.036298
  26	1.2500e-02	0.4910	9.473749	0.000424	4.238537	0.718028	0.016939
  27	1.3000e-02	0.5106	9.554411	0.000404	4.036702	0.683836	0.016132
  28	1.3500e-02	0.5311	9.699602	0.000727	7.266063	1.230904	0.029038
  29	1.4000e-02	0.5512	9.848827	0.000747	7.467899	1.265096	0.029845
  30	1.4500e-02	0.5703	9.877058	0.000141	1.412846	0.239343	0.005646
  31	1.5000e-02	0.5902	9.994018	0.000585	5.853218	0.991562	0.023392
  32	1.5500e-02	0.6113	10.175508	0.000908	9.082579	1.538631	0.036298
  33	1.6000e-02	0.6316	10.316666	0.000706	7.064228	1.196713	0.028232
  34	1.6500e-02	0.6496	10.393295	0.000383	3.834867	0.649644	0.015326
  35	1.7000e-02	0.6717	10.530420	0.000686	6.862393	1.162521	0.027425
  36	1.7500e-02	0.6910	10.699811	0.000848	8.477074	1.436055	0.033878
  37	1.8000e-02	0.7115	10.816770	0.000585	5.853218	0.991562	0.023392
  38	1.8500e-02	0.7307	10.901466	0.000424	4.238537	0.718028	0.016939
  39	1.9000e-02	0.7513	10.990194	0.000444	4.440372	0.752219	0.017746
  40	1.9500e-02	0.7710	11.143451	0.000767	7.669734	1.299288	0.030652
  41	2.0000e-02	0.7913	11.264444	0.000606	6.055053	1.025754	0.024199
  42	2.0500e-02	0.8105	11.417702	0.000767	7.669734	1.299288	0.030652
  43	2.1000e-02	0.8318	11.522563	0.000525	5.247712	0.888987	0.020972
  44	2.1500e-02	0.8510	11.679854	0.000787	7.871569	1.333480	0.031458
  45	2.2000e-02	0.8714	11.780681	0.000505	5.045877	0.854795	0.020165
  46	2.2500e-02	0.8913	11.885542	0.000525	5.247712	0.888987	0.020972
  47	2.3000e-02	0.9117	12.030733	0.000727	7.266063	1.230904	0.029038
  48	2.3500e-02	0.9319	12.139627	0.000545	5.449548	0.923178	0.021779
  49	2.4000e-02	0.9506	12.296918	0.000787	7.871569	1.333480	0.031458
  50	2.4500e-02	0.9715	12.369513	0.000363	3.633032	0.615452	0.014519
  51	2.5000e-02	0.9913	12.514705	0.000727	7.266063	1.230904	0.029038
  52	2.5500e-02	1.0121	12.619566	0.000525	5.247712	0.888987	0.020972
  53	2.6000e-02	1.0315	12.784923	0.000828	8.275239	1.401863	0.033071
  54	2.6500e-02	1.0516	12.869618	0.000424	4.238537	0.718028	0.016939
  55	2.7000e-02	1.0715	13.022875	0.000767	7.669734	1.299288	0.030652
  56	2.7500e-02	1.0919	13.127736	0.000525	5.247712	0.888987	0.020972
  57	2.8000e-02	1.1121	13.313258	0.000928	9.284414	1.572822	0.037105
  58	2.8500e-02	1.1319	13.418119	0.000525	5.247712	0.888987	0.020972
  59	2.9000e-02	1.1511	13.555244	0.000686	6.862393	1.162521	0.027425
  60	2.9500e-02	1.1716	13.643973	0.000444	4.440372	0.752219	0.017746
  61	3.0000e-02	1.1911	13.777065	0.000666	6.660558	1.128329	0.026618
  62	3.0500e-02	1.2120	13.994852	0.001090	10.899095	1.846357	0.043557
  63	3.1000e-02	1.2320	14.079547	0.000424	4.238537	0.718028	0.016939
  64	3.1500e-02	1.2520	14.216673	0.000686	6.862393	1.162521	0.027425
  65	3.2000e-02	1.2722	14.277169	0.000303	3.027526	0.512877	0.012099
  66	3.2500e-02	1.2909	14.462692	0.000928	9.284414	1.572822	0.037105
  67	3.3000e-02	1.3113	14.583685	0.000606	6.055053	1.025754	0.024199
  68	3.3500e-02	1.3303	14.724843	0.000706	7.064228	1.196713	0.028232
  69	3.4000e-02	1.3514	14.882134	0.000787	7.871569	1.333480	0.031458
  70	3.4500e-02	1.3713	14.991028	0.000545	5.449548	0.923178	0.021779
  71	3.5000e-02	1.3920	15.099921	0.000545	5.449548	0.923178	0.021779
  72	3.5500e-02	1.4111	15.237047	0.000686	6.862393	1.162521	0.027425
  73	3.6000e-02	1.4310	15.378205	0.000706	7.064228	1.196713	0.028232
  74	3.6500e-02	1.4505	15.454834	0.000383	3.834867	0.649644	0.015326
  75	3.7000e-02	1.4709	15.591959	0.000686	6.862393	1.162521	0.027425
  76	3.7500e-02	1.4917	15.761349	0.000848	8.477074	1.436055	0.033878
  77	3.8000e-02	1.5112	15.914607	0.000767	7.669734	1.299288	0.030652
  78	3.8500e-02	1.5318	16.047699	0.000666	6.660558	1.128329	0.026618
  79	3.9000e-02	1.5511	16.164659	0.000585	5.853218	0.991562	0.023392
  80	3.9500e-02	1.5710	16.325983	0.000807	8.073404	1.367672	0.032265
  81	4.0000e-02	1.5910	16.491340	0.000828	8.275239	1.401863	0.033071
  82	4.0500e-02	1.6116	16.563936	0.000363	3.633032	0.615452	0.014519
  83	4.1000e-02	1.6322	16.709128	0.000727	7.266063	1.230904	0.029038
  84	4.1500e-02	1.6513	16.862385	0.000767	7.669734	1.299288	0.030652
  85	4.2000e-02	1.6718	16.983378	0.000606	6.055053	1.025754	0.024199
  86	4.2500e-02	1.6914	17.128570	0.000727	7.266063	1.230904	0.029038
  87	4.3000e-02	1.7104	17.257629	0.000646	6.458723	1.094137	0.025812
  88	4.3500e-02	1.7318	17.394754	0.000686	6.862393	1.162521	0.027425
  89	4.4000e-02	1.7511	17.527847	0.000666	6.660558	1.128329	0.026618
  90	4.4500e-02	1.7713	17.656906	0.000646	6.458723	1.094137	0.025812
  91	4.5000e-02	1.7920	17.789998	0.000666	6.660558	1.128329	0.026618
  92	4.5500e-02	1.8114	17.987620	0.000989	9.889920	1.675398	0.039524
  93	4.6000e-02	1.8311	18.108613	0.000606	6.055053	1.025754	0.024199
  94	4.6500e-02	1.8519	18.229606	0.000606	6.055053	1.025754	0.024199
  95	4.7000e-02	1.8713	18.362698	0.000666	6.660558	1.128329	0.026618
  96	4.7500e-02	1.8921	18.515956	0.000767	7.669734	1.299288	0.030652
  97	4.8000e-02	1.9116	18.649048	0.000666	6.660558	1.128329	0.026618
  98	4.8500e-02	1.9312	18.790206	0.000706	7.064228	1.196713	0.028232
  99	4.9000e-02	1.9518	18.923299	0.000666	6.660558	1.128329	0.026618
 100	4.9500e-02	1.9710	19.088656	0.000828	8.275239	1.401863	0.033071
 101	5.0000e-02	1.9919	19.245947	0.000787	7.871569	1.333480	0.031458
 102	5.0500e-02	2.0113	19.322575	0.000383	3.834867	0.649644	0.015326
 103	5.1000e-02	2.0319	19.487932	0.000828	8.275239	1.401863	0.033071
 104	5.1500e-02	2.0520	19.528263	0.000202	2.018351	0.341918	0.008066
 105	5.2000e-02	2.0710	19.774282	0.001231	12.311941	2.085699	0.049204
 106	5.2500e-02	2.0921	19.899309	0.000626	6.256888	1.059946	0.025005
 107	5.3000e-02	2.1120	20.036434	0.000686	6.862393	1.162521	0.027425
 108	5.3500e-02	2.1313	20.197758	0.000807	8.073404	1.367672	0.032265
 109	5.4000e-02	2.1516	20.346982	0.000747	7.467899	1.265096	0.029845
 110	5.4500e-02	2.1716	20.476042	0.000646	6.458723	1.094137	0.025812
 111	5.5000e-02	2.1912	20.641399	0.000828	8.275239	1.401863	0.033071
 112	5.5500e-02	2.2116	20.778524	0.000686	6.862393	1.162521	0.027425
 113	5.6000e-02	2.2315	20.919682	0.000706	7.064228	1.196713	0.028232
 114	5.6500e-02	2.2517	21.093106	0.000868	8.678909	1.470247	0.034685
 115	5.7000e-02	2.2713	21.210066	0.000585	5.853218	0.991562	0.023392
 116	5.7500e-02	2.2931	21.399621	0.000949	9.486250	1.607014	0.037911
 117	5.8000e-02	2.3111	21.492382	0.000464	4.642207	0.786411	0.018552
 118	5.8500e-02	2.3315	21.657739	0.000828	8.275239	1.401863	0.033071
 119	5.9000e-02	2.3517	21.778732	0.000606	6.055053	1.025754	0.024199
 120	5.9500e-02	2.3727	22.008619	0.001150	11.504600	1.948932	0.045977
 121	6.0000e-02	2.3915	22.000553	-0.000040	-0.403670	-0.068384	-0.001613
 122	6.0500e-02	2.4117	22.242539	0.001211	12.110106	2.051507	0.048397
 123	6.1000e-02	2.4313	22.371598	0.000646	6.458723	1.094137	0.025812
 124	6.1500e-02	2.4518	22.561154	0.000949	9.486250	1.607014	0.037911
 125	6.2000e-02	2.4709	22.629716	0.000343	3.431197	0.581260	0.013713
 126	6.2500e-02	2.4915	22.791040	0.000807	8.073404	1.367672	0.032265
 127	6.3000e-02	2.5110	22.980596	0.000949	9.486250	1.607014	0.037911
 128	6.3500e-02	2.5320	23.133854	0.000767	7.669734	1.299288	0.030652
 129	6.4000e-02	2.5519	23.291144	0.000787	7.871569	1.333480	0.031458
 130	6.4500e-02	2.5719	23.432303	0.000706	7.064228	1.196713	0.028232
 131	6.5000e-02	2.5922	23.569428	0.000686	6.862393	1.162521	0.027425
 132	6.5500e-02	2.6117	23.706554	0.000686	6.862393	1.162521	0.027425
 133	6.6000e-02	2.6312	23.855778	0.000747	7.467899	1.265096	0.029845
 134	6.6500e-02	2.6517	24.021135	0.000828	8.275239	1.401863	0.033071
 135	6.7000e-02	2.6711	24.138095	0.000585	5.853218	0.991562	0.023392
 136	6.7500e-02	2.6913	24.319585	0.000908	9.082579	1.538631	0.036298
 137	6.8000e-02	2.7112	24.472842	0.000767	7.669734	1.299288	0.030652
 138	6.8500e-02	2.7316	24.618034	0.000727	7.266063	1.230904	0.029038
 139	6.9000e-02	2.7518	24.726928	0.000545	5.449548	0.923178	0.021779
 140	6.9500e-02	2.7716	24.884218	0.000787	7.871569	1.333480	0.031458
 141	7.0000e-02	2.7924	25.037476	0.000767	7.669734	1.299288	0.030652
 142	7.0500e-02	2.8107	25.235098	0.000989	9.889920	1.675398	0.039524
 143	7.1000e-02	2.8333	25.372223	0.000686	6.862393	1.162521	0.027425
 144	7.1500e-02	2.8512	25.509349	0.000686	6.862393	1.162521	0.027425
 145	7.2000e-02	2.8716	25.662606	0.000767	7.669734	1.299288	0.030652
 146	7.2500e-02	2.8925	25.831997	0.000848	8.477074	1.436055	0.033878
 147	7.3000e-02	2.9114	25.977188	0.000727	7.266063	1.230904	0.029038
 148	7.3500e-02	2.9321	26.126413	0.000747	7.467899	1.265096	0.029845
 149	7.4000e-02	2.9517	26.235306	0.000545	5.449548	0.923178	0.021779
 150	7.4500e-02	2.9710	26.416796	0.000908	9.082579	1.538631	0.036298
 151	7.5000e-02	2.9929	26.634583	0.001090	10.899095	1.846357	0.043557
 152	7.5500e-02	3.0124	26.719278	0.000424	4.238537	0.718028	0.016939
 153	7.6000e-02	3.0322	26.840271	0.000606	6.055053	1.025754	0.024199
 154	7.6500e-02	3.0518	27.029827	0.000949	9.486250	1.607014	0.037911
 155	7.7000e-02	3.0720	27.219382	0.000949	9.486250	1.607014	0.037911
 156	7.7500e-02	3.0917	27.384740	0.000828	8.275239	1.401863	0.033071
 157	7.8000e-02	3.1120	27.525898	0.000706	7.064228	1.196713	0.028232
 158	7.8500e-02	3.1317	27.654957	0.000646	6.458723	1.094137	0.025812
 159	7.9000e-02	3.1525	27.816281	0.000807	8.073404	1.367672	0.032265
 160	7.9500e-02	3.1717	27.896943	0.000404	4.036702	0.683836	0.016132
 161	8.0000e-02	3.1912	28.066333	0.000848	8.477074	1.436055	0.033878
 162	8.0500e-02	3.2119	28.259922	0.000969	9.688085	1.641206	0.038718
 163	8.1000e-02	3.2315	28.397047	0.000686	6.862393	1.162521	0.027425
 164	8.1500e-02	3.2520	28.594669	0.000989	9.889920	1.675398	0.039524
 165	8.2000e-02	3.2718	28.703563	0.000545	5.449548	0.923178	0.021779
 166	8.2500e-02	3.2924	28.868920	0.000828	8.275239	1.401863	0.033071
 167	8.3000e-02	3.3127	29.026211	0.000787	7.871569	1.333480	0.031458
 168	8.3500e-02	3.3325	29.171402	0.000727	7.266063	1.230904	0.029038
 169	8.4000e-02	3.3517	29.312561	0.000706	7.064228	1.196713	0.028232
 170	8.4500e-02	3.3722	29.481951	0.000848	8.477074	1.436055	0.033878
 171	8.5000e-02	3.3923	29.627142	0.000727	7.266063	1.230904	0.029038
 172	8.5500e-02	3.4131	29.772334	0.000727	7.266063	1.230904	0.029038
 173	8.6000e-02	3.4309	29.917525	0.000727	7.266063	1.230904	0.029038
 174	8.6500e-02	3.4525	30.078849	0.000807	8.073404	1.367672	0.032265
 175	8.7000e-02	3.4720	30.268405	0.000949	9.486250	1.607014	0.037911
 176	8.7500e-02	3.4925	30.385365	0.000585	5.853218	0.991562	0.023392
 177	8.8000e-02	3.5129	30.518457	0.000666	6.660558	1.128329	0.026618
 178	8.8500e-02	3.5326	30.691880	0.000868	8.678909	1.470247	0.034685
 179	8.9000e-02	3.5519	30.804807	0.000565	5.651383	0.957370	0.022585
 180	8.9500e-02	3.5726	30.998396	0.000969	9.688085	1.641206	0.038718
 181	9.0000e-02	3.5921	31.200051	0.001009	10.091755	1.709590	0.040331
 182	9.0500e-02	3.6137	31.292812	0.000464	4.642207	0.786411	0.018552
 183	9.1000e-02	3.6322	31.502533	0.001050	10.495425	1.777973	0.041944
 184	9.1500e-02	3.6523	31.599328	0.000484	4.844042	0.820603	0.019359
 185	9.2000e-02	3.6719	31.809049	0.001050	10.495425	1.777973	0.041944
 186	9.2500e-02	3.6926	31.958273	0.000747	7.467899	1.265096	0.029845
 187	9.3000e-02	3.7128	31.857446	-0.000505	-5.045877	-0.854795	-0.020165
 188	9.3500e-02	3.7323	32.204292	0.001736	17.357818	2.940494	0.069369
 189	9.4000e-02	3.7524	32.426113	0.001110	11.100930	1.880548	0.044364
 190	9.4500e-02	3.7726	32.551139	0.000626	6.256888	1.059946	0.025005
 191	9.5000e-02	3.7935	32.720529	0.000848	8.477074	1.436055	0.033878
 192	9.5500e-02	3.8123	32.801191	0.000404	4.036702	0.683836	0.016132
 193	9.6000e-02	3.8330	32.994780	0.000969	9.688085	1.641206	0.038718
 194	9.6500e-02	3.8520	33.156104	0.000807	8.073404	1.367672	0.032265
 195	9.7000e-02	3.8721	33.301295	0.000727	7.266063	1.230904	0.029038
 196	9.7500e-02	3.8921	33.470685	0.000848	8.477074	1.436055	0.033878
 197	9.8000e-02	3.9120	33.595711	0.000626	6.256888	1.059946	0.025005
 198	9.8500e-02	3.9325	33.716704	0.000606	6.055053	1.025754	0.024199
 199	9.9000e-02	3.9517	33.853830	0.000686	6.862393	1.162521	0.027425
 200	9.9500e-02	3.9722	34.071617	0.001090	10.899095	1.846357	0.043557
 201	1.0000e-01	3.9923	34.192610	0.000606	6.055053	1.025754	0.024199
 202	1.0050e-01	4.0137	34.386199	0.000969	9.688085	1.641206	0.038718
 203	1.0100e-01	4.0327	34.507192	0.000606	6.055053	1.025754	0.024199
 204	1.0150e-01	4.0527	34.656416	0.000747	7.467899	1.265096	0.029845
 205	1.0200e-01	4.0735	34.821773	0.000828	8.275239	1.401863	0.033071
 206	1.0250e-01	4.0930	34.983097	0.000807	8.073404	1.367672	0.032265
 207	1.0300e-01	4.1132	35.096024	0.000565	5.651383	0.957370	0.022585
 208	1.0350e-01	4.1318	35.241216	0.000727	7.266063	1.230904	0.029038
 209	1.0400e-01	4.1522	35.398506	0.000787	7.871569	1.333480	0.031458
 210	1.0450e-01	4.1736	35.567897	0.000848	8.477074	1.436055	0.033878
 211	1.0500e-01	4.1933	35.801816	0.001171	11.706436	1.983124	0.046784
 212	1.0550e-01	4.2123	35.846180	0.000222	2.220186	0.376110	0.008873
 213	1.0600e-01	4.2322	36.023637	0.000888	8.880744	1.504439	0.035491
 214	1.0650e-01	4.2530	36.168828	0.000727	7.266063	1.230904	0.029038
 215	1.0700e-01	4.2731	36.322086	0.000767	7.669734	1.299288	0.030652
 216	1.0750e-01	4.2932	36.463244	0.000706	7.064228	1.196713	0.028232
 217	1.0800e-01	4.3121	36.640701	0.000888	8.880744	1.504439	0.035491
 218	1.0850e-01	4.3329	36.793959	0.000767	7.669734	1.299288	0.030652
 219	1.0900e-01	4.3525	36.890753	0.000484	4.844042	0.820603	0.019359
 220	1.0950e-01	4.3735	37.092408	0.001009	10.091755	1.709590	0.040331
 221	1.1000e-01	4.3930	37.225500	0.000666	6.660558	1.128329	0.026618
 222	1.1050e-01	4.4135	37.394890	0.000848	8.477074	1.436055	0.033878
 223	1.1100e-01	4.4327	37.532016	0.000686	6.862393	1.162521	0.027425
 224	1.1150e-01	4.4534	37.653009	0.000606	6.055053	1.025754	0.024199
 225	1.1200e-01	4.4734	37.850630	0.000989	9.889920	1.675398	0.039524
 226	1.1250e-01	4.4934	37.919193	0.000343	3.431197	0.581260	0.013713
 227	1.1300e-01	4.5142	38.112782	0.000969	9.688085	1.641206	0.038718
 228	1.1350e-01	4.5337	38.241841	0.000646	6.458723	1.094137	0.025812
 229	1.1400e-01	4.5532	38.407198	0.000828	8.275239	1.401863	0.033071
 230	1.1450e-01	4.5731	38.552390	0.000727	7.266063	1.230904	0.029038
 231	1.1500e-01	4.5935	38.721780	0.000848	8.477074	1.436055	0.033878
 232	1.1550e-01	4.6143	38.895203	0.000868	8.678909	1.470247	0.034685
 233	1.1600e-01	4.6344	39.024262	0.000646	6.458723	1.094137	0.025812
 234	1.1650e-01	4.6533	39.189619	0.000828	8.275239	1.401863	0.033071
 235	1.1700e-01	4.6735	39.290447	0.000505	5.045877	0.854795	0.020165
 236	1.1750e-01	4.6936	39.447737	0.000787	7.871569	1.333480	0.031458
 237	1.1800e-01	4.7137	39.641326	0.000969	9.688085	1.641206	0.038718
 238	1.1850e-01	4.7339	39.717955	0.000383	3.834867	0.649644	0.015326
 239	1.1900e-01	4.7534	39.915577	0.000989	9.889920	1.675398	0.039524
 240	1.1950e-01	4.7733	40.076901	0.000807	8.073404	1.367672	0.032265
 241	1.2000e-01	4.7937	40.230159	0.000767	7.669734	1.299288	0.030652
 242	1.2050e-01	4.8132	40.310821	0.000404	4.036702	0.683836	0.016132
 243	1.2100e-01	4.8340	40.464078	0.000767	7.669734	1.299288	0.030652
 244	1.2150e-01	4.8535	40.653634	0.000949	9.486250	1.607014	0.037911
 245	1.2200e-01	4.8737	40.790759	0.000686	6.862393	1.162521	0.027425
 246	1.2250e-01	4.8940	40.935951	0.000727	7.266063	1.230904	0.029038
 247	1.2300e-01	4.9146	41.065010	0.000646	6.458723	1.094137	0.025812
 248	1.2350e-01	4.9335	41.198102	0.000666	6.660558	1.128329	0.026618
 249	1.2400e-01	4.9536	41.359426	0.000807	8.073404	1.367672	0.032265
 250	1.2450e-01	4.9744	41.456221	0.000484	4.844042	0.820603	0.019359
 251	1.2500e-01	4.9939	41.605445	0.000747	7.467899	1.265096	0.029845
 252	1.2550e-01	5.0146	41.819199	0.001070	10.697260	1.812165	0.042751
 253	1.2600e-01	5.0342	41.964391	0.000727	7.266063	1.230904	0.029038
 254	1.2650e-01	5.0543	42.081351	0.000585	5.853218	0.991562	0.023392
 255	1.2700e-01	5.0739	42.274940	0.000969	9.688085	1.641206	0.038718
 256	1.2750e-01	5.0934	42.391899	0.000585	5.853218	0.991562	0.023392
 257	1.2800e-01	5.1138	42.480628	0.000444	4.440372	0.752219	0.017746
 258	1.2850e-01	5.1343	42.589521	0.000545	5.449548	0.923178	0.021779
 259	1.2900e-01	5.1532	42.779077	0.000949	9.486250	1.607014	0.037911
 260	1.2950e-01	5.1733	42.968633	0.000949	9.486250	1.607014	0.037911
 261	1.3000e-01	5.1935	43.089625	0.000606	6.055053	1.025754	0.024199
 262	1.3050e-01	5.2136	43.210618	0.000606	6.055053	1.025754	0.024199
 263	1.3100e-01	5.2332	43.400174	0.000949	9.486250	1.607014	0.037911
 264	1.3150e-01	5.2545	43.529233	0.000646	6.458723	1.094137	0.025812
 265	1.3200e-01	5.2734	43.634094	0.000525	5.247712	0.888987	0.020972
 266	1.3250e-01	5.2939	43.823649	0.000949	9.486250	1.607014	0.037911
