»»»»»»»»»»»»»»»»»»»»»»»»»»»»»»»»»»»» Hysteresis ««««««««««««««««««««««««««««««««««««
»»»  Executed Version:	5.48.1
»»»  Vision Version:	5.48.4 (R)
»»»  Vision Compiled:	9/18/24
»»»  Driver Version:	5.47.0
»»»  Windows Version:	Windows 8 or 8.1
»»»  Processor Information:	x86 (AMD or Intel) - 32 Processors
»»»  Tester Name:	PMF21124-494 (100V)
»»»  Tester S/N:	PMF21124-494
»»»  Internal Amp Type:	100V RevK 270k
»»»  Internal Amp S/N:	iAB2-596/K     
»»»  Execution Count:	1
»»»»»»»»»»»»»»»»»»»»»»»»»»»»»»»»»»»»»»»»»»««««««««««««««««««««««««««««««««««««««««««

Stored:	7/8/2025 - 16:12:25
Configured:	07/08/25 02:50:47 PM
Executed:	07/08/25 04:10:56 PM

»»»»»»»»»»»»»»»»»»»»»»»»»»»»»»»»»»» Sample Info ««««««««««««««««««««««««««««««««««««
Sample Name:	
Lot Name:	
Wafer Name:	
Die Row/Column:	0/0
Capacitor Number:	0
Sample Area (cm2):	1.00e-04
Sample Thickness (microns):	1.50e-01

Amplifier:	Internal

»»»»»»»»»»»»»»»»»»»»»»»»»»»»»»»»»»» Tester Info «««««««««««««««««««««««««««««««««««
Tester Name:	PMF21124-494 (100V)
Tester Serial Number:	PMF21124-494
Return Signal Amp. Level:	0.2 [Index: 1]

»»»»»»»»»»»»»»»»»»»»»»»»»»»»»»»» Hysteresis Info ««««««««««««««««««««««««««««««««««
Task Name:	Hyst-724
Volts:	10.00
Field:	666.67 (kV/cm)
DCBias:	0.00
DCField:	0.00 (kV/cm)
Hysteresis Period (ms):	1.00e-02
Preset:	Enabled
Preset Delay (ms):	1.00e+03
Profile:	Standard Bipolar

»»»»»»»»»»»»»»»»»»»»»»»»»»»»»»»»»»»»»» Data «««««««««««««««««««««««««««««««««««««««
Points:	101

Valid Data

Point	Time (ms)	Drive Voltage	Measured Polarization (uC/cm2)	Capacitance (uF)	Normalized Capacitance (uF/cm2)	Dielectric Constant	Instantaneous Current (mA)
   1	0.0000e+00	0.2996	-1.439959	0.000510	5.102252	0.864345	1.991549
   2	1.0000e-04	0.6744	0.551590	0.000510	5.102252	0.864345	1.991549
   3	2.0000e-04	0.9958	5.284705	0.001213	12.126011	2.054202	4.733115
   4	3.0000e-04	1.4156	10.654970	0.001376	13.758359	2.330729	5.370265
   5	4.0000e-04	1.8442	15.162352	0.001155	11.547694	1.956232	4.507382
   6	5.0000e-04	2.2594	18.602962	0.000881	8.814677	1.493247	3.440611
   7	6.0000e-04	2.6804	20.925830	0.000595	5.951073	1.008139	2.322867
   8	7.0000e-04	3.0481	23.711086	0.000714	7.135691	1.208819	2.785256
   9	8.0000e-04	3.4378	27.140774	0.000879	8.786694	1.488506	3.429688
  10	9.0000e-04	3.8388	31.025569	0.000995	9.952657	1.686026	3.884795
  11	1.0000e-03	4.2386	35.339985	0.001105	11.053325	1.872484	4.314416
  12	1.1000e-03	4.6518	38.533017	0.000818	8.180394	1.385796	3.193032
  13	1.2000e-03	5.0601	41.562211	0.000776	7.760647	1.314689	3.029194
  14	1.3000e-03	5.4471	44.478538	0.000747	7.471488	1.265704	2.916327
  15	1.4000e-03	5.8560	47.504091	0.000775	7.751319	1.313109	3.025553
  16	1.5000e-03	6.2527	51.319710	0.000978	9.775430	1.656003	3.815619
  17	1.6000e-03	6.6489	54.210551	0.000741	7.406194	1.254643	2.890841
  18	1.7000e-03	7.0566	56.930271	0.000697	6.967792	1.180376	2.719721
  19	1.8000e-03	7.4631	59.679119	0.000704	7.042414	1.193017	2.748848
  20	1.9000e-03	7.8564	62.300536	0.000672	6.715945	1.137712	2.621418
  21	2.0000e-03	8.2626	65.755710	0.000885	8.851988	1.499567	3.455174
  22	2.1000e-03	8.6545	68.089500	0.000598	5.979056	1.012880	2.333790
  23	2.2000e-03	9.0674	70.463339	0.000608	6.081661	1.030261	2.373839
  24	2.3000e-03	9.4580	72.902714	0.000625	6.249560	1.058704	2.439375
  25	2.4000e-03	9.8575	75.320244	0.000619	6.193593	1.049223	2.417530
  26	2.5000e-03	9.6799	78.345796	-0.000775	-7.751319	-1.313109	3.025553
  27	2.6000e-03	9.3344	76.823918	0.000390	3.898979	0.660505	-1.521879
  28	2.7000e-03	8.9993	71.799534	0.001287	12.872227	2.180614	-5.024384
  29	2.8000e-03	8.5507	67.659879	0.001061	10.605596	1.796637	-4.139655
  30	2.9000e-03	8.0997	65.952317	0.000437	4.374692	0.741093	-1.707562
  31	3.0000e-03	7.6913	65.850373	0.000026	0.261176	0.044244	-0.101944
  32	3.1000e-03	7.3077	63.585759	0.000580	5.801830	0.982857	-2.264613
  33	3.2000e-03	6.9443	60.043205	0.000908	9.075853	1.537491	-3.542555
  34	3.3000e-03	6.5408	56.675411	0.000863	8.628123	1.461644	-3.367793
  35	3.4000e-03	6.1142	54.043071	0.000674	6.743928	1.142452	-2.632340
  36	3.5000e-03	5.7242	52.510270	0.000393	3.926962	0.665245	-1.532801
  37	3.6000e-03	5.3323	49.775986	0.000701	7.005103	1.186697	-2.734284
  38	3.7000e-03	4.9380	46.652130	0.000800	8.003167	1.355773	-3.123856
  39	3.8000e-03	4.5419	43.335309	0.000850	8.497535	1.439521	-3.316821
  40	3.9000e-03	4.1418	40.120431	0.000824	8.236360	1.395277	-3.214877
  41	4.0000e-03	3.7302	37.630085	0.000638	6.380147	1.080826	-2.490347
  42	4.1000e-03	3.3472	34.364235	0.000837	8.366948	1.417399	-3.265849
  43	4.2000e-03	2.9355	30.945470	0.000876	8.758711	1.483766	-3.418765
  44	4.3000e-03	2.5433	27.501219	0.000882	8.824005	1.494827	-3.444251
  45	4.4000e-03	2.1536	23.940460	0.000912	9.122491	1.545392	-3.560759
  46	4.5000e-03	1.7551	20.809322	0.000802	8.021823	1.358934	-3.131138
  47	4.6000e-03	1.3474	17.073802	0.000957	9.570221	1.621239	-3.735520
  48	4.7000e-03	0.9630	13.170803	0.001000	9.999295	1.693926	-3.902999
  49	4.8000e-03	0.5515	9.347902	0.000979	9.794086	1.659163	-3.822901
  50	4.9000e-03	0.1565	5.605100	0.000959	9.588876	1.624400	-3.742802
  51	5.0000e-03	-0.2464	1.909630	0.000947	9.467616	1.603858	-3.695471
  52	5.1000e-03	-0.6371	-2.069828	0.001020	10.195177	1.727110	-3.979457
  53	5.2000e-03	-1.0402	-6.060208	0.001022	10.223160	1.731850	-3.990380
  54	5.3000e-03	-1.4475	-9.868545	0.000976	9.756775	1.652842	-3.808337
  55	5.4000e-03	-1.8400	-13.727854	0.000989	9.887363	1.674965	-3.859309
  56	5.5000e-03	-2.2425	-17.565318	0.000983	9.831397	1.665484	-3.837464
  57	5.6000e-03	-2.6511	-21.162485	0.000922	9.215768	1.561193	-3.597167
  58	5.7000e-03	-3.0430	-24.865238	0.000949	9.486272	1.607018	-3.702752
  59	5.8000e-03	-3.4519	-28.415074	0.000909	9.094508	1.540651	-3.549836
  60	5.9000e-03	-3.8578	-31.801072	0.000867	8.674762	1.469544	-3.385998
  61	6.0000e-03	-4.2478	-35.463774	0.000938	9.383667	1.589636	-3.662703
  62	6.1000e-03	-4.6537	-38.529377	0.000785	7.853924	1.330491	-3.065602
  63	6.2000e-03	-5.0578	-41.755176	0.000826	8.264343	1.400018	-3.225800
  64	6.3000e-03	-5.4508	-44.864469	0.000797	7.965856	1.349453	-3.109292
  65	6.4000e-03	-5.8616	-47.813564	0.000756	7.555438	1.279926	-2.949095
  66	6.5000e-03	-6.2620	-50.955624	0.000805	8.049806	1.363674	-3.142060
  67	6.6000e-03	-6.6575	-53.635295	0.000687	6.865188	1.162994	-2.679671
  68	6.7000e-03	-7.0609	-56.355016	0.000697	6.967792	1.180376	-2.719721
  69	6.8000e-03	-7.4644	-59.060173	0.000693	6.930482	1.174055	-2.705157
  70	6.9000e-03	-7.8507	-61.747126	0.000688	6.883843	1.166155	-2.686953
  71	7.0000e-03	-8.2584	-64.692580	0.000755	7.546110	1.278346	-2.945454
  72	7.1000e-03	-8.6530	-67.142877	0.000628	6.277543	1.063445	-2.450297
  73	7.2000e-03	-9.0604	-69.807985	0.000683	6.827877	1.156674	-2.665108
  74	7.3000e-03	-9.4437	-72.451248	0.000677	6.771911	1.147193	-2.643263
  75	7.4000e-03	-9.8429	-75.134560	0.000687	6.874515	1.164574	-2.683312
  76	7.5000e-03	-9.7001	-78.345796	-0.000823	-8.227032	-1.393697	-3.211236
  77	7.6000e-03	-9.3296	-77.209849	0.000291	2.910243	0.493008	1.135948
  78	7.7000e-03	-8.9988	-72.964609	0.001088	10.876099	1.842461	4.245240
  79	7.8000e-03	-8.5593	-69.240011	0.000954	9.542238	1.616499	3.724597
  80	7.9000e-03	-8.1001	-67.703569	0.000394	3.936290	0.666826	1.536442
  81	8.0000e-03	-7.6969	-67.605266	0.000025	0.251848	0.042664	0.098303
  82	8.1000e-03	-7.3313	-65.154969	0.000628	6.277543	1.063445	2.450297
  83	8.2000e-03	-6.9602	-62.089367	0.000785	7.853924	1.330491	3.065602
  84	8.3000e-03	-6.5415	-59.125709	0.000759	7.592748	1.286246	2.963658
  85	8.4000e-03	-6.1295	-56.711820	0.000618	6.184266	1.047643	2.413889
  86	8.5000e-03	-5.7371	-55.280963	0.000367	3.665786	0.621001	1.430857
  87	8.6000e-03	-5.3422	-52.382840	0.000742	7.424850	1.257804	2.898123
  88	8.7000e-03	-4.9418	-49.502922	0.000738	7.378211	1.249903	2.879918
  89	8.8000e-03	-4.5481	-46.328094	0.000813	8.133755	1.377895	3.174828
  90	8.9000e-03	-4.1502	-43.317104	0.000771	7.714009	1.306788	3.010989
  91	9.0000e-03	-3.7351	-41.267302	0.000525	5.251496	0.889627	2.049803
  92	9.1000e-03	-3.3500	-37.706543	0.000912	9.122491	1.545392	3.560759
  93	9.2000e-03	-2.9459	-34.538997	0.000812	8.115100	1.374735	3.167546
  94	9.3000e-03	-2.5553	-31.189407	0.000858	8.581485	1.453743	3.349589
  95	9.4000e-03	-2.1592	-27.646853	0.000908	9.075853	1.537491	3.542555
  96	9.5000e-03	-1.7545	-25.050921	0.000665	6.650651	1.126651	2.595932
  97	9.6000e-03	-1.3505	-21.013210	0.001034	10.344420	1.752392	4.037711
  98	9.7000e-03	-0.9641	-17.288613	0.000954	9.542238	1.616499	3.724597
  99	9.8000e-03	-0.5544	-13.556734	0.000956	9.560893	1.619659	3.731879
 100	9.9000e-03	-0.1595	-9.846700	0.000950	9.504927	1.610178	3.710034
 101	1.0000e-02	-0.0684	-6.802943	0.000950	9.504927	1.610178	3.043757

Smooth data before PMax, +/-Pr and +/-Vc Calc.

PMax (uC/cm2):	7.76e+01
Pr (uC/cm2):	5.66e+00
-Pr (uC/cm2):	-6.13e+00
PLoss (uC/cm2):	-6.38e+00
-Vc:	-5.81e-01
C (Max-Eff) (nF):	7.87e-01
K (Eff):	1.33e+03
Vert. (+/-Pr) Shift (uC/cm2):	-2.37e-01
Offset (uC/cm2):	1.50e+00

A (Loop Area - uC/cm2·Volts):	-1.52e+00



Hysteresis Version: 5.48.1 - Radiant Technologies, Inc., 1999 - 9/12/24

