»»»»»»»»»»»»»»»»»»»»»»»»»»»»»»»»»»»» Hysteresis ««««««««««««««««««««««««««««««««««««
»»»  Executed Version:	5.48.1
»»»  Vision Version:	5.48.4 (R)
»»»  Vision Compiled:	9/18/24
»»»  Driver Version:	5.47.0
»»»  Windows Version:	Windows 8 or 8.1
»»»  Processor Information:	x86 (AMD or Intel) - 32 Processors
»»»  Tester Name:	PMF21124-494 (100V)
»»»  Tester S/N:	PMF21124-494
»»»  Internal Amp Type:	100V RevK 270k
»»»  Internal Amp S/N:	iAB2-596/K     
»»»  Execution Count:	1
»»»»»»»»»»»»»»»»»»»»»»»»»»»»»»»»»»»»»»»»»»««««««««««««««««««««««««««««««««««««««««««

Stored:	7/9/2025 - 15:40:35
Configured:	07/09/25 02:06:30 PM
Executed:	07/09/25 03:39:19 PM

»»»»»»»»»»»»»»»»»»»»»»»»»»»»»»»»»»» Sample Info ««««««««««««««««««««««««««««««««««««
Sample Name:	
Lot Name:	
Wafer Name:	
Die Row/Column:	0/0
Capacitor Number:	0
Sample Area (cm2):	1.00e-04
Sample Thickness (microns):	1.50e-01

Amplifier:	Internal

»»»»»»»»»»»»»»»»»»»»»»»»»»»»»»»»»»» Tester Info «««««««««««««««««««««««««««««««««««
Tester Name:	PMF21124-494 (100V)
Tester Serial Number:	PMF21124-494
Return Signal Amp. Level:	0.2 [Index: 1]

»»»»»»»»»»»»»»»»»»»»»»»»»»»»»»»» Hysteresis Info ««««««««««««««««««««««««««««««««««
Task Name:	Hyst-900
Volts:	10.00
Field:	666.67 (kV/cm)
DCBias:	0.00
DCField:	0.00 (kV/cm)
Hysteresis Period (ms):	1.00e-02
Preset:	Enabled
Preset Delay (ms):	1.00e+03
Profile:	Standard Bipolar

»»»»»»»»»»»»»»»»»»»»»»»»»»»»»»»»»»»»»» Data «««««««««««««««««««««««««««««««««««««««
Points:	101

Valid Data

Point	Time (ms)	Drive Voltage	Measured Polarization (uC/cm2)	Capacitance (uF)	Normalized Capacitance (uF/cm2)	Dielectric Constant	Instantaneous Current (mA)
   1	0.0000e+00	0.2978	0.345881	0.000516	5.162662	0.874579	2.017035
   2	1.0000e-04	0.6744	2.362917	0.000516	5.162662	0.874579	2.017035
   3	2.0000e-04	1.0092	6.863017	0.001152	11.518142	1.951226	4.500100
   4	3.0000e-04	1.4355	11.570646	0.001205	12.049318	2.041210	4.707629
   5	4.0000e-04	1.8700	14.934798	0.000861	8.610650	1.458684	3.364153
   6	5.0000e-04	2.2861	17.275870	0.000599	5.992043	1.015080	2.341071
   7	6.0000e-04	2.6865	19.096299	0.000466	4.659442	0.789331	1.820429
   8	7.0000e-04	3.0487	21.794174	0.000691	6.905294	1.169788	2.697876
   9	8.0000e-04	3.4390	25.307602	0.000899	8.992724	1.523409	3.513428
  10	9.0000e-04	3.8516	28.770058	0.000886	8.862259	1.501307	3.462456
  11	1.0000e-03	4.2589	32.290767	0.000901	9.011362	1.526566	3.520709
  12	1.1000e-03	4.6707	34.693733	0.000615	6.150464	1.041917	2.402966
  13	1.2000e-03	5.0693	37.147671	0.000628	6.280928	1.064018	2.453938
  14	1.3000e-03	5.4520	39.867392	0.000696	6.961207	1.179260	2.719721
  15	1.4000e-03	5.8633	42.689056	0.000722	7.222136	1.223463	2.821665
  16	1.5000e-03	6.2622	46.071413	0.000866	8.657244	1.466577	3.382357
  17	1.6000e-03	6.6611	48.474379	0.000615	6.150464	1.041917	2.402966
  18	1.7000e-03	7.0712	50.768120	0.000587	5.870897	0.994557	2.293740
  19	1.8000e-03	7.4686	53.156522	0.000611	6.113188	1.035602	2.388403
  20	1.9000e-03	7.8586	55.606820	0.000627	6.271609	1.062439	2.450297
  21	2.0000e-03	8.2712	58.686985	0.000788	7.883777	1.335548	3.080166
  22	2.1000e-03	8.6649	60.718584	0.000520	5.199938	0.880893	2.031599
  23	2.2000e-03	9.0750	62.772028	0.000526	5.255851	0.890365	2.053444
  24	2.3000e-03	9.4653	64.938338	0.000554	5.544736	0.939304	2.166310
  25	2.4000e-03	9.8624	67.133775	0.000562	5.619288	0.951933	2.195437
  26	2.5000e-03	9.6860	69.784319	-0.000678	-6.784148	-1.149266	2.650544
  27	2.6000e-03	9.3369	67.942045	0.000472	4.715356	0.798803	-1.842274
  28	2.7000e-03	8.9877	63.223494	0.001208	12.077275	2.045946	-4.718552
  29	2.8000e-03	8.5269	59.841137	0.000866	8.657244	1.466577	-3.382357
  30	2.9000e-03	8.0789	59.040148	0.000205	2.050155	0.347306	-0.800989
  31	3.0000e-03	7.6962	58.989176	0.000013	0.130464	0.022101	-0.050972
  32	3.1000e-03	7.3212	56.418731	0.000658	6.579133	1.114535	-2.570446
  33	3.2000e-03	6.9345	52.901662	0.000900	9.002043	1.524987	-3.517069
  34	3.3000e-03	6.5201	50.069075	0.000725	7.250092	1.228199	-2.832587
  35	3.4000e-03	6.1008	48.285055	0.000457	4.566254	0.773544	-1.784020
  36	3.5000e-03	5.7181	47.018036	0.000324	3.242972	0.549374	-1.267018
  37	3.6000e-03	5.3299	44.345647	0.000684	6.840061	1.158738	-2.672390
  38	3.7000e-03	4.9356	41.345580	0.000768	7.678761	1.300817	-3.000067
  39	3.8000e-03	4.5309	38.298182	0.000780	7.799907	1.321340	-3.047398
  40	3.9000e-03	4.1266	35.669483	0.000673	6.728235	1.139794	-2.628699
  41	4.0000e-03	3.7222	33.619680	0.000525	5.246532	0.888787	-2.049803
  42	4.1000e-03	3.3395	30.765248	0.000731	7.306006	1.237671	-2.854432
  43	4.2000e-03	2.9276	27.761540	0.000769	7.688080	1.302396	-3.003708
  44	4.3000e-03	2.5327	24.579430	0.000814	8.144705	1.379750	-3.182110
  45	4.4000e-03	2.1416	21.484701	0.000792	7.921052	1.341863	-3.094729
  46	4.5000e-03	1.7392	18.841439	0.000677	6.765510	1.146108	-2.643263
  47	4.6000e-03	1.3322	15.662970	0.000814	8.135386	1.378172	-3.178469
  48	4.7000e-03	0.9464	12.469938	0.000817	8.172662	1.384486	-3.193032
  49	4.8000e-03	0.5402	9.120349	0.000857	8.573374	1.452369	-3.349589
  50	4.9000e-03	0.1420	5.890908	0.000827	8.265851	1.400273	-3.229441
  51	5.0000e-03	-0.2684	2.708798	0.000814	8.144705	1.379750	-3.182110
  52	5.1000e-03	-0.6519	-0.622587	0.000853	8.526780	1.444476	-3.331385
  53	5.2000e-03	-1.0566	-3.892077	0.000837	8.368359	1.417638	-3.269490
  54	5.3000e-03	-1.4613	-7.066905	0.000813	8.126068	1.376593	-3.174828
  55	5.4000e-03	-1.8528	-10.350958	0.000841	8.405634	1.423953	-3.284054
  56	5.5000e-03	-2.2578	-13.784287	0.000879	8.787708	1.488678	-3.433329
  57	5.6000e-03	-2.6633	-16.853530	0.000786	7.855820	1.330812	-3.069243
  58	5.7000e-03	-3.0534	-20.046562	0.000817	8.172662	1.384486	-3.193032
  59	5.8000e-03	-3.4592	-23.137651	0.000791	7.911733	1.340284	-3.091088
  60	5.9000e-03	-3.8639	-26.094027	0.000757	7.566934	1.281873	-2.956376
  61	6.0000e-03	-4.2539	-29.461820	0.000862	8.619968	1.460262	-3.367793
  62	6.1000e-03	-4.6607	-32.203386	0.000702	7.017120	1.188732	-2.741566
  63	6.2000e-03	-5.0675	-35.025051	0.000722	7.222136	1.223463	-2.821665
  64	6.3000e-03	-5.4606	-37.864920	0.000727	7.268730	1.231356	-2.839869
  65	6.4000e-03	-5.8683	-40.519105	0.000679	6.793467	1.150844	-2.654185
  66	6.5000e-03	-6.2681	-43.566503	0.000780	7.799907	1.321340	-3.047398
  67	6.6000e-03	-6.6630	-46.038646	0.000633	6.327523	1.071911	-2.472142
  68	6.7000e-03	-7.0664	-48.456175	0.000619	6.187740	1.048231	-2.417530
  69	6.8000e-03	-7.4650	-51.004775	0.000652	6.523219	1.105063	-2.548600
  70	6.9000e-03	-7.8544	-53.578862	0.000659	6.588452	1.116114	-2.574086
  71	7.0000e-03	-8.2627	-56.640823	0.000784	7.837182	1.327655	-3.061961
  72	7.1000e-03	-8.6573	-59.003740	0.000605	6.047956	1.024552	-2.362917
  73	7.2000e-03	-9.0604	-61.512291	0.000642	6.420712	1.087698	-2.508551
  74	7.3000e-03	-9.4477	-64.057250	0.000651	6.513900	1.103485	-2.544960
  75	7.4000e-03	-9.8484	-66.631337	0.000659	6.588452	1.116114	-2.574086
  76	7.5000e-03	-9.7068	-69.784319	-0.000807	-8.070154	-1.367121	-3.152983
  77	7.6000e-03	-9.3357	-68.626527	0.000296	2.963405	0.502014	1.157793
  78	7.7000e-03	-8.9957	-64.275702	0.001114	11.136067	1.886501	4.350825
  79	7.8000e-03	-8.5447	-60.962521	0.000848	8.480185	1.436582	3.313181
  80	7.9000e-03	-8.0854	-59.935799	0.000263	2.627926	0.445183	1.026722
  81	8.0000e-03	-7.6987	-60.026821	-0.000023	-0.232972	-0.039467	-0.091021
  82	8.1000e-03	-7.3383	-57.551038	0.000634	6.336842	1.073490	2.475783
  83	8.2000e-03	-6.9578	-54.288829	0.000835	8.349721	1.414481	3.262208
  84	8.3000e-03	-6.5311	-51.623721	0.000682	6.821424	1.155580	2.665108
  85	8.4000e-03	-6.1167	-49.639454	0.000508	5.078792	0.860371	1.984267
  86	8.5000e-03	-5.7328	-48.543556	0.000280	2.804984	0.475177	1.095898
  87	8.6000e-03	-5.3385	-45.801990	0.000702	7.017120	1.188732	2.741566
  88	8.7000e-03	-4.9412	-42.845613	0.000757	7.566934	1.281873	2.956376
  89	8.8000e-03	-4.5396	-39.958413	0.000739	7.389876	1.251879	2.887200
  90	8.9000e-03	-4.1386	-37.286024	0.000684	6.840061	1.158738	2.672390
  91	9.0000e-03	-3.7260	-35.694969	0.000407	4.072353	0.689875	1.591055
  92	9.1000e-03	-3.3445	-32.665775	0.000775	7.753312	1.313447	3.029194
  93	9.2000e-03	-2.9392	-29.578328	0.000790	7.902414	1.338705	3.087447
  94	9.3000e-03	-2.5444	-26.512726	0.000785	7.846501	1.329233	3.065602
  95	9.4000e-03	-2.1439	-23.443483	0.000786	7.855820	1.330812	3.069243
  96	9.5000e-03	-1.7405	-21.302658	0.000548	5.479504	0.928253	2.140824
  97	9.6000e-03	-1.3407	-17.894816	0.000872	8.722476	1.477627	3.407843
  98	9.7000e-03	-0.9541	-14.661734	0.000828	8.275170	1.401852	3.233082
  99	9.8000e-03	-0.5430	-11.425011	0.000828	8.284489	1.403430	3.236722
 100	9.9000e-03	-0.1424	-8.140958	0.000841	8.405634	1.423953	3.284054
 101	1.0000e-02	-0.0541	-5.716147	0.000841	8.405634	1.423953	2.424811

Smooth data before PMax, +/-Pr and +/-Vc Calc.

PMax (uC/cm2):	6.75e+01
Pr (uC/cm2):	4.47e+00
-Pr (uC/cm2):	-6.65e+00
PLoss (uC/cm2):	-6.92e+00
-Vc:	-5.44e-01
C (Max-Eff) (nF):	6.84e-01
K (Eff):	1.16e+03
Vert. (+/-Pr) Shift (uC/cm2):	-1.09e+00
Offset (uC/cm2):	-3.09e-01

A (Loop Area - uC/cm2·Volts):	-2.14e+00



Hysteresis Version: 5.48.1 - Radiant Technologies, Inc., 1999 - 9/12/24

