»»»»»»»»»»»»»»»»»»»»»»»»»»»»»»»»»»»» Hysteresis ««««««««««««««««««««««««««««««««««««
»»»  Executed Version:	5.48.1
»»»  Vision Version:	5.48.4 (R)
»»»  Vision Compiled:	9/18/24
»»»  Driver Version:	5.47.0
»»»  Windows Version:	Windows 8 or 8.1
»»»  Processor Information:	x86 (AMD or Intel) - 32 Processors
»»»  Tester Name:	PMF21124-494 (100V)
»»»  Tester S/N:	PMF21124-494
»»»  Internal Amp Type:	100V RevK 270k
»»»  Internal Amp S/N:	iAB2-596/K     
»»»  Execution Count:	1
»»»»»»»»»»»»»»»»»»»»»»»»»»»»»»»»»»»»»»»»»»««««««««««««««««««««««««««««««««««««««««««

Stored:	6/24/2025 - 13:44:36
Configured:	06/24/25 01:39:33 PM
Executed:	06/24/25 01:44:03 PM

»»»»»»»»»»»»»»»»»»»»»»»»»»»»»»»»»»» Sample Info ««««««««««««««««««««««««««««««««««««
Sample Name:	
Lot Name:	
Wafer Name:	
Die Row/Column:	0/0
Capacitor Number:	0
Sample Area (cm2):	1.00e-04
Sample Thickness (microns):	1.50e-01

Amplifier:	Internal

»»»»»»»»»»»»»»»»»»»»»»»»»»»»»»»»»»» Tester Info «««««««««««««««««««««««««««««««««««
Tester Name:	PMF21124-494 (100V)
Tester Serial Number:	PMF21124-494
Return Signal Amp. Level:	0.19 [Index: 3]

»»»»»»»»»»»»»»»»»»»»»»»»»»»»»»»» Hysteresis Info ««««««««««««««««««««««««««««««««««
Task Name:	Hyst-4
Volts:	10.00
Field:	666.67 (kV/cm)
DCBias:	0.00
DCField:	0.00 (kV/cm)
Hysteresis Period (ms):	2.00e+02
Preset:	Enabled
Preset Delay (ms):	1.00e+03
Profile:	Standard Bipolar

»»»»»»»»»»»»»»»»»»»»»»»»»»»»»»»»»»»»»» Data «««««««««««««««««««««««««««««««««««««««
Points:	2009

Valid Data

Point	Time (ms)	Drive Voltage	Measured Polarization (uC/cm2)	Capacitance (uF)	Normalized Capacitance (uF/cm2)	Dielectric Constant	Instantaneous Current (mA)
   1	0.0000e+00	0.0011	21.344337	0.000567	5.674566	0.961297	0.000114
   2	9.9500e-02	0.0217	21.457376	0.000567	5.674566	0.961297	0.000114
   3	1.9900e-01	0.0394	21.570416	0.000567	5.674566	0.961297	0.000114
   4	2.9850e-01	0.0602	21.683456	0.000567	5.674566	0.961297	0.000114
   5	3.9800e-01	0.0806	21.804570	0.000608	6.079892	1.029962	0.000122
   6	4.9750e-01	0.1006	21.893387	0.000446	4.458587	0.755305	0.000089
   7	5.9700e-01	0.1207	22.058910	0.000831	8.309185	1.407614	0.000166
   8	6.9650e-01	0.1400	22.163875	0.000527	5.269239	0.892633	0.000105
   9	7.9600e-01	0.1604	22.272878	0.000547	5.471902	0.926965	0.000110
  10	8.9550e-01	0.1814	22.406103	0.000669	6.687881	1.132958	0.000134
  11	9.9500e-01	0.2011	22.486846	0.000405	4.053261	0.686641	0.000081
  12	1.0945e+00	0.2200	22.624109	0.000689	6.890544	1.167290	0.000138
  13	1.1940e+00	0.2409	22.745223	0.000608	6.079892	1.029962	0.000122
  14	1.2935e+00	0.2601	22.862300	0.000588	5.877229	0.995629	0.000118
  15	1.3930e+00	0.2805	23.003599	0.000709	7.093207	1.201622	0.000142
  16	1.4925e+00	0.3001	23.108565	0.000527	5.269239	0.892633	0.000105
  17	1.5920e+00	0.3190	23.197382	0.000446	4.458587	0.755305	0.000089
  18	1.6915e+00	0.3396	23.326570	0.000649	6.485218	1.098626	0.000130
  19	1.7910e+00	0.3598	23.399239	0.000365	3.647935	0.617977	0.000073
  20	1.8905e+00	0.3805	23.544576	0.000730	7.295870	1.235954	0.000146
  21	1.9900e+00	0.4004	23.653578	0.000547	5.471902	0.926965	0.000110
  22	2.0895e+00	0.4196	23.778729	0.000628	6.282555	1.064294	0.000126
  23	2.1890e+00	0.4392	23.875621	0.000486	4.863913	0.823969	0.000097
  24	2.2885e+00	0.4594	23.996735	0.000608	6.079892	1.029962	0.000122
  25	2.3880e+00	0.4798	24.133997	0.000689	6.890544	1.167290	0.000138
  26	2.4875e+00	0.4990	24.238963	0.000527	5.269239	0.892633	0.000105
  27	2.5870e+00	0.5199	24.368151	0.000649	6.485218	1.098626	0.000130
  28	2.6865e+00	0.5399	24.473117	0.000527	5.269239	0.892633	0.000105
  29	2.7860e+00	0.5593	24.582120	0.000547	5.471902	0.926965	0.000110
  30	2.8855e+00	0.5793	24.654788	0.000365	3.647935	0.617977	0.000073
  31	2.9850e+00	0.5994	24.828385	0.000871	8.714511	1.476278	0.000174
  32	3.0845e+00	0.6190	24.921239	0.000466	4.661250	0.789637	0.000093
  33	3.1840e+00	0.6387	25.022167	0.000507	5.066576	0.858301	0.000101
  34	3.2835e+00	0.6584	25.159430	0.000689	6.890544	1.167290	0.000138
  35	3.3830e+00	0.6796	25.292655	0.000669	6.687881	1.132958	0.000134
  36	3.4825e+00	0.6982	25.385510	0.000466	4.661250	0.789637	0.000093
  37	3.5820e+00	0.7191	25.534884	0.000750	7.498533	1.270286	0.000150
  38	3.6815e+00	0.7378	25.643886	0.000547	5.471902	0.926965	0.000110
  39	3.7810e+00	0.7574	25.785186	0.000709	7.093207	1.201622	0.000142
  40	3.8805e+00	0.7793	25.914374	0.000649	6.485218	1.098626	0.000130
  41	3.9800e+00	0.7973	26.003191	0.000446	4.458587	0.755305	0.000089
  42	4.0795e+00	0.8190	26.164677	0.000811	8.106522	1.373282	0.000162
  43	4.1790e+00	0.8383	26.273679	0.000547	5.471902	0.926965	0.000110
  44	4.2785e+00	0.8578	26.386719	0.000567	5.674566	0.961297	0.000114
  45	4.3780e+00	0.8784	26.536093	0.000750	7.498533	1.270286	0.000150
  46	4.4775e+00	0.8994	26.645096	0.000547	5.471902	0.926965	0.000110
  47	4.5770e+00	0.9183	26.822730	0.000892	8.917174	1.510610	0.000179
  48	4.6765e+00	0.9373	26.927695	0.000527	5.269239	0.892633	0.000105
  49	4.7760e+00	0.9582	27.028624	0.000507	5.066576	0.858301	0.000101
  50	4.8755e+00	0.9792	27.169924	0.000709	7.093207	1.201622	0.000142
  51	4.9750e+00	0.9966	27.274889	0.000527	5.269239	0.892633	0.000105
  52	5.0745e+00	1.0169	27.396003	0.000608	6.079892	1.029962	0.000122
  53	5.1740e+00	1.0369	27.545377	0.000750	7.498533	1.270286	0.000150
  54	5.2735e+00	1.0578	27.650343	0.000527	5.269239	0.892633	0.000105
  55	5.3730e+00	1.0771	27.739160	0.000446	4.458587	0.755305	0.000089
  56	5.4725e+00	1.0972	27.860274	0.000608	6.079892	1.029962	0.000122
  57	5.5720e+00	1.1175	28.033871	0.000871	8.714511	1.476278	0.000174
  58	5.6715e+00	1.1383	28.106539	0.000365	3.647935	0.617977	0.000073
  59	5.7710e+00	1.1569	28.243802	0.000689	6.890544	1.167290	0.000138
  60	5.8705e+00	1.1771	28.368953	0.000628	6.282555	1.064294	0.000126
  61	5.9700e+00	1.1967	28.490067	0.000608	6.079892	1.029962	0.000122
  62	6.0695e+00	1.2160	28.615218	0.000628	6.282555	1.064294	0.000126
  63	6.1690e+00	1.2373	28.748444	0.000669	6.687881	1.132958	0.000134
  64	6.2685e+00	1.2572	28.829186	0.000405	4.053261	0.686641	0.000081
  65	6.3680e+00	1.2704	28.974523	0.000730	7.295870	1.235954	0.000146
  66	6.4675e+00	1.2954	29.087563	0.000567	5.674566	0.961297	0.000114
  67	6.5670e+00	1.3161	29.208677	0.000608	6.079892	1.029962	0.000122
  68	6.6665e+00	1.3352	29.349977	0.000709	7.093207	1.201622	0.000142
  69	6.7660e+00	1.3555	29.471091	0.000608	6.079892	1.029962	0.000122
  70	6.8655e+00	1.3753	29.612391	0.000709	7.093207	1.201622	0.000142
  71	6.9650e+00	1.3950	29.672948	0.000304	3.039946	0.514981	0.000061
  72	7.0645e+00	1.4145	29.854619	0.000912	9.119837	1.544942	0.000183
  73	7.1640e+00	1.4355	29.955547	0.000507	5.066576	0.858301	0.000101
  74	7.2635e+00	1.4552	30.117033	0.000811	8.106522	1.373282	0.000162
  75	7.3630e+00	1.4751	30.205850	0.000446	4.458587	0.755305	0.000089
  76	7.4625e+00	1.4953	30.343112	0.000689	6.890544	1.167290	0.000138
  77	7.5620e+00	1.5146	30.464226	0.000608	6.079892	1.029962	0.000122
  78	7.6615e+00	1.5350	30.565155	0.000507	5.066576	0.858301	0.000101
  79	7.7610e+00	1.5558	30.730677	0.000831	8.309185	1.407614	0.000166
  80	7.8605e+00	1.5755	30.815457	0.000426	4.255924	0.720973	0.000085
  81	7.9600e+00	1.5954	30.928497	0.000567	5.674566	0.961297	0.000114
  82	8.0595e+00	1.6148	31.045574	0.000588	5.877229	0.995629	0.000118
  83	8.1590e+00	1.6355	31.170725	0.000628	6.282555	1.064294	0.000126
  84	8.2585e+00	1.6546	31.307988	0.000689	6.890544	1.167290	0.000138
  85	8.3580e+00	1.6747	31.445250	0.000689	6.890544	1.167290	0.000138
  86	8.4575e+00	1.6944	31.550216	0.000527	5.269239	0.892633	0.000105
  87	8.5570e+00	1.7152	31.703627	0.000770	7.701196	1.304618	0.000154
  88	8.6565e+00	1.7344	31.812630	0.000547	5.471902	0.926965	0.000110
  89	8.7560e+00	1.7546	31.945855	0.000669	6.687881	1.132958	0.000134
  90	8.8555e+00	1.7742	32.058895	0.000567	5.674566	0.961297	0.000114
  91	8.9550e+00	1.7941	32.163860	0.000527	5.269239	0.892633	0.000105
  92	9.0545e+00	1.8142	32.297086	0.000669	6.687881	1.132958	0.000134
  93	9.1540e+00	1.8343	32.414163	0.000588	5.877229	0.995629	0.000118
  94	9.2535e+00	1.8543	32.543351	0.000649	6.485218	1.098626	0.000130
  95	9.3530e+00	1.8737	32.660428	0.000588	5.877229	0.995629	0.000118
  96	9.4525e+00	1.8941	32.781542	0.000608	6.079892	1.029962	0.000122
  97	9.5520e+00	1.9134	32.918805	0.000689	6.890544	1.167290	0.000138
  98	9.6515e+00	1.9343	33.039919	0.000608	6.079892	1.029962	0.000122
  99	9.7510e+00	1.9542	33.128736	0.000446	4.458587	0.755305	0.000089
 100	9.8505e+00	1.9739	33.270036	0.000709	7.093207	1.201622	0.000142
 101	9.9500e+00	1.9936	33.379038	0.000547	5.471902	0.926965	0.000110
 102	1.0050e+01	2.0129	33.524375	0.000730	7.295870	1.235954	0.000146
 103	1.0149e+01	2.0332	33.681823	0.000790	7.903859	1.338950	0.000158
 104	1.0248e+01	2.0535	33.778715	0.000486	4.863913	0.823969	0.000097
 105	1.0348e+01	2.0731	33.887717	0.000547	5.471902	0.926965	0.000110
 106	1.0447e+01	2.0934	34.016906	0.000649	6.485218	1.098626	0.000130
 107	1.0547e+01	2.1149	34.142057	0.000628	6.282555	1.064294	0.000126
 108	1.0646e+01	2.1334	34.271245	0.000649	6.485218	1.098626	0.000130
 109	1.0746e+01	2.1529	34.420619	0.000750	7.498533	1.270286	0.000150
 110	1.0845e+01	2.1741	34.517511	0.000486	4.863913	0.823969	0.000097
 111	1.0945e+01	2.1935	34.654773	0.000689	6.890544	1.167290	0.000138
 112	1.1044e+01	2.2128	34.767813	0.000567	5.674566	0.961297	0.000114
 113	1.1144e+01	2.2338	34.892964	0.000628	6.282555	1.064294	0.000126
 114	1.1243e+01	2.2530	35.050412	0.000790	7.903859	1.338950	0.000158
 115	1.1343e+01	2.2723	35.127118	0.000385	3.850598	0.652309	0.000077
 116	1.1443e+01	2.2927	35.280529	0.000770	7.701196	1.304618	0.000154
 117	1.1542e+01	2.3125	35.365309	0.000426	4.255924	0.720973	0.000085
 118	1.1642e+01	2.3321	35.555054	0.000953	9.525164	1.613606	0.000191
 119	1.1741e+01	2.3526	35.660020	0.000527	5.269239	0.892633	0.000105
 120	1.1841e+01	2.3727	35.769023	0.000547	5.471902	0.926965	0.000110
 121	1.1940e+01	2.3928	35.837654	0.000345	3.445272	0.583645	0.000069
 122	1.2040e+01	2.4125	35.982991	0.000730	7.295870	1.235954	0.000146
 123	1.2139e+01	2.4319	36.136402	0.000770	7.701196	1.304618	0.000154
 124	1.2239e+01	2.4523	36.241368	0.000527	5.269239	0.892633	0.000105
 125	1.2338e+01	2.4715	36.386704	0.000730	7.295870	1.235954	0.000146
 126	1.2438e+01	2.4920	36.495707	0.000547	5.471902	0.926965	0.000110
 127	1.2537e+01	2.5115	36.588561	0.000466	4.661250	0.789637	0.000093
 128	1.2636e+01	2.5307	36.725824	0.000689	6.890544	1.167290	0.000138
 129	1.2736e+01	2.5515	36.826752	0.000507	5.066576	0.858301	0.000101
 130	1.2835e+01	2.5716	36.992275	0.000831	8.309185	1.407614	0.000166
 131	1.2935e+01	2.5916	37.089166	0.000486	4.863913	0.823969	0.000097
 132	1.3034e+01	2.6118	37.222392	0.000669	6.687881	1.132958	0.000134
 133	1.3134e+01	2.6305	37.315246	0.000466	4.661250	0.789637	0.000093
 134	1.3233e+01	2.6513	37.408100	0.000466	4.661250	0.789637	0.000093
 135	1.3333e+01	2.6710	37.553437	0.000730	7.295870	1.235954	0.000146
 136	1.3432e+01	2.6910	37.674551	0.000608	6.079892	1.029962	0.000122
 137	1.3532e+01	2.7105	37.779516	0.000527	5.269239	0.892633	0.000105
 138	1.3632e+01	2.7306	37.920816	0.000709	7.093207	1.201622	0.000142
 139	1.3731e+01	2.7512	38.033856	0.000567	5.674566	0.961297	0.000114
 140	1.3831e+01	2.7711	38.167081	0.000669	6.687881	1.132958	0.000134
 141	1.3930e+01	2.7905	38.276084	0.000547	5.471902	0.926965	0.000110
 142	1.4030e+01	2.8109	38.381049	0.000527	5.269239	0.892633	0.000105
 143	1.4129e+01	2.8301	38.534461	0.000770	7.701196	1.304618	0.000154
 144	1.4229e+01	2.8503	38.639426	0.000527	5.269239	0.892633	0.000105
 145	1.4328e+01	2.8695	38.740355	0.000507	5.066576	0.858301	0.000101
 146	1.4428e+01	2.8905	38.849357	0.000547	5.471902	0.926965	0.000110
 147	1.4527e+01	2.9098	39.006806	0.000790	7.903859	1.338950	0.000158
 148	1.4627e+01	2.9305	39.144068	0.000689	6.890544	1.167290	0.000138
 149	1.4726e+01	2.9498	39.261145	0.000588	5.877229	0.995629	0.000118
 150	1.4825e+01	2.9704	39.353999	0.000466	4.661250	0.789637	0.000093
 151	1.4925e+01	2.9905	39.491262	0.000689	6.890544	1.167290	0.000138
 152	1.5024e+01	3.0094	39.584116	0.000466	4.661250	0.789637	0.000093
 153	1.5124e+01	3.0303	39.713304	0.000649	6.485218	1.098626	0.000130
 154	1.5223e+01	3.0506	39.858641	0.000730	7.295870	1.235954	0.000146
 155	1.5323e+01	3.0697	39.971681	0.000567	5.674566	0.961297	0.000114
 156	1.5422e+01	3.0904	40.052424	0.000405	4.053261	0.686641	0.000081
 157	1.5522e+01	3.1097	40.177575	0.000628	6.282555	1.064294	0.000126
 158	1.5621e+01	3.1284	40.310800	0.000669	6.687881	1.132958	0.000134
 159	1.5721e+01	3.1495	40.399617	0.000446	4.458587	0.755305	0.000089
 160	1.5820e+01	3.1695	40.504583	0.000527	5.269239	0.892633	0.000105
 161	1.5920e+01	3.1890	40.682217	0.000892	8.917174	1.510610	0.000179
 162	1.6020e+01	3.2092	40.815442	0.000669	6.687881	1.132958	0.000134
 163	1.6119e+01	3.2292	40.880036	0.000324	3.242609	0.549313	0.000065
 164	1.6218e+01	3.2497	41.025373	0.000730	7.295870	1.235954	0.000146
 165	1.6318e+01	3.2687	41.142450	0.000588	5.877229	0.995629	0.000118
 166	1.6418e+01	3.2890	41.259527	0.000588	5.877229	0.995629	0.000118
 167	1.6517e+01	3.3095	41.368530	0.000547	5.471902	0.926965	0.000110
 168	1.6616e+01	3.3291	41.517904	0.000750	7.498533	1.270286	0.000150
 169	1.6716e+01	3.3489	41.647092	0.000649	6.485218	1.098626	0.000130
 170	1.6816e+01	3.3694	41.756095	0.000547	5.471902	0.926965	0.000110
 171	1.6915e+01	3.3892	41.881246	0.000628	6.282555	1.064294	0.000126
 172	1.7015e+01	3.4081	41.953915	0.000365	3.647935	0.617977	0.000073
 173	1.7114e+01	3.4289	42.107326	0.000770	7.701196	1.304618	0.000154
 174	1.7213e+01	3.4489	42.224403	0.000588	5.877229	0.995629	0.000118
 175	1.7313e+01	3.4693	42.353591	0.000649	6.485218	1.098626	0.000130
 176	1.7413e+01	3.4893	42.502965	0.000750	7.498533	1.270286	0.000150
 177	1.7512e+01	3.5082	42.567559	0.000324	3.242609	0.549313	0.000065
 178	1.7611e+01	3.5275	42.692710	0.000628	6.282555	1.064294	0.000126
 179	1.7711e+01	3.5487	42.797676	0.000527	5.269239	0.892633	0.000105
 180	1.7811e+01	3.5677	42.951087	0.000770	7.701196	1.304618	0.000154
 181	1.7910e+01	3.5879	43.043941	0.000466	4.661250	0.789637	0.000093
 182	1.8009e+01	3.6076	43.177167	0.000669	6.687881	1.132958	0.000134
 183	1.8109e+01	3.6279	43.282132	0.000527	5.269239	0.892633	0.000105
 184	1.8209e+01	3.6480	43.435543	0.000770	7.701196	1.304618	0.000154
 185	1.8308e+01	3.6687	43.512249	0.000385	3.850598	0.652309	0.000077
 186	1.8407e+01	3.6883	43.653549	0.000709	7.093207	1.201622	0.000142
 187	1.8507e+01	3.7072	43.766589	0.000567	5.674566	0.961297	0.000114
 188	1.8607e+01	3.7280	43.871554	0.000527	5.269239	0.892633	0.000105
 189	1.8706e+01	3.7475	43.960371	0.000446	4.458587	0.755305	0.000089
 190	1.8805e+01	3.7682	44.085522	0.000628	6.282555	1.064294	0.000126
 191	1.8905e+01	3.7875	44.202599	0.000588	5.877229	0.995629	0.000118
 192	1.9005e+01	3.8073	44.323713	0.000608	6.079892	1.029962	0.000122
 193	1.9104e+01	3.8268	44.465013	0.000709	7.093207	1.201622	0.000142
 194	1.9203e+01	3.8473	44.525570	0.000304	3.039946	0.514981	0.000061
 195	1.9303e+01	3.8671	44.626498	0.000507	5.066576	0.858301	0.000101
 196	1.9402e+01	3.8868	44.796058	0.000851	8.511848	1.441946	0.000170
 197	1.9502e+01	3.9062	44.868727	0.000365	3.647935	0.617977	0.000073
 198	1.9602e+01	3.9263	44.989841	0.000608	6.079892	1.029962	0.000122
 199	1.9701e+01	3.9465	45.114992	0.000628	6.282555	1.064294	0.000126
 200	1.9800e+01	3.9666	45.244180	0.000649	6.485218	1.098626	0.000130
 201	1.9900e+01	3.9867	45.361257	0.000588	5.877229	0.995629	0.000118
 202	2.0000e+01	4.0069	45.429888	0.000345	3.445272	0.583645	0.000069
 203	2.0099e+01	4.0258	45.599448	0.000851	8.511848	1.441946	0.000170
 204	2.0198e+01	4.0472	45.752859	0.000770	7.701196	1.304618	0.000154
 205	2.0298e+01	4.0661	45.797268	0.000223	2.229294	0.377653	0.000045
 206	2.0398e+01	4.0856	45.974902	0.000892	8.917174	1.510610	0.000179
 207	2.0497e+01	4.1058	46.063719	0.000446	4.458587	0.755305	0.000089
 208	2.0596e+01	4.1265	46.184833	0.000608	6.079892	1.029962	0.000122
 209	2.0696e+01	4.1470	46.330170	0.000730	7.295870	1.235954	0.000146
 210	2.0796e+01	4.1656	46.423024	0.000466	4.661250	0.789637	0.000093
 211	2.0895e+01	4.1863	46.564324	0.000709	7.093207	1.201622	0.000142
 212	2.0994e+01	4.2059	46.701586	0.000689	6.890544	1.167290	0.000138
 213	2.1094e+01	4.2272	46.782329	0.000405	4.053261	0.686641	0.000081
 214	2.1194e+01	4.2455	46.895369	0.000567	5.674566	0.961297	0.000114
 215	2.1293e+01	4.2657	47.036668	0.000709	7.093207	1.201622	0.000142
 216	2.1392e+01	4.2858	47.141634	0.000527	5.269239	0.892633	0.000105
 217	2.1492e+01	4.3056	47.242562	0.000507	5.066576	0.858301	0.000101
 218	2.1591e+01	4.3255	47.367714	0.000628	6.282555	1.064294	0.000126
 219	2.1691e+01	4.3444	47.504976	0.000689	6.890544	1.167290	0.000138
 220	2.1791e+01	4.3652	47.601867	0.000486	4.863913	0.823969	0.000097
 221	2.1890e+01	4.3844	47.710870	0.000547	5.471902	0.926965	0.000110
 222	2.1989e+01	4.4053	47.860244	0.000750	7.498533	1.270286	0.000150
 223	2.2089e+01	4.4253	47.949061	0.000446	4.458587	0.755305	0.000089
 224	2.2189e+01	4.4451	48.094398	0.000730	7.295870	1.235954	0.000146
 225	2.2288e+01	4.4634	48.171104	0.000385	3.850598	0.652309	0.000077
 226	2.2387e+01	4.4842	48.328552	0.000790	7.903859	1.338950	0.000158
 227	2.2487e+01	4.5055	48.393146	0.000324	3.242609	0.549313	0.000065
 228	2.2587e+01	4.5245	48.530409	0.000689	6.890544	1.167290	0.000138
 229	2.2686e+01	4.5444	48.635374	0.000527	5.269239	0.892633	0.000105
 230	2.2785e+01	4.5654	48.744377	0.000547	5.471902	0.926965	0.000110
 231	2.2885e+01	4.5840	48.877602	0.000669	6.687881	1.132958	0.000134
 232	2.2985e+01	4.6044	49.010828	0.000669	6.687881	1.132958	0.000134
 233	2.3084e+01	4.6249	49.103682	0.000466	4.661250	0.789637	0.000093
 234	2.3183e+01	4.6444	49.228833	0.000628	6.282555	1.064294	0.000126
 235	2.3283e+01	4.6647	49.301502	0.000365	3.647935	0.617977	0.000073
 236	2.3383e+01	4.6836	49.446839	0.000730	7.295870	1.235954	0.000146
 237	2.3482e+01	4.7039	49.584101	0.000689	6.890544	1.167290	0.000138
 238	2.3581e+01	4.7245	49.693104	0.000547	5.471902	0.926965	0.000110
 239	2.3681e+01	4.7440	49.794032	0.000507	5.066576	0.858301	0.000101
 240	2.3780e+01	4.7643	49.882849	0.000446	4.458587	0.755305	0.000089
 241	2.3880e+01	4.7832	50.012038	0.000649	6.485218	1.098626	0.000130
 242	2.3980e+01	4.8032	50.125077	0.000567	5.674566	0.961297	0.000114
 243	2.4079e+01	4.8235	50.221969	0.000486	4.863913	0.823969	0.000097
 244	2.4178e+01	4.8431	50.375380	0.000770	7.701196	1.304618	0.000154
 245	2.4278e+01	4.8638	50.492457	0.000588	5.877229	0.995629	0.000118
 246	2.4378e+01	4.8830	50.589348	0.000486	4.863913	0.823969	0.000097
 247	2.4477e+01	4.9041	50.694313	0.000527	5.269239	0.892633	0.000105
 248	2.4576e+01	4.9239	50.815428	0.000608	6.079892	1.029962	0.000122
 249	2.4676e+01	4.9438	50.900207	0.000426	4.255924	0.720973	0.000085
 250	2.4776e+01	4.9639	51.037470	0.000689	6.890544	1.167290	0.000138
 251	2.4875e+01	4.9822	51.126287	0.000446	4.458587	0.755305	0.000089
 252	2.4974e+01	5.0034	51.271624	0.000730	7.295870	1.235954	0.000146
 253	2.5074e+01	5.0228	51.368515	0.000486	4.863913	0.823969	0.000097
 254	2.5174e+01	5.0433	51.505778	0.000689	6.890544	1.167290	0.000138
 255	2.5273e+01	5.0628	51.574409	0.000345	3.445272	0.583645	0.000069
 256	2.5372e+01	5.0817	51.711672	0.000689	6.890544	1.167290	0.000138
 257	2.5472e+01	5.1023	51.808563	0.000486	4.863913	0.823969	0.000097
 258	2.5572e+01	5.1171	51.885269	0.000385	3.850598	0.652309	0.000077
 259	2.5671e+01	5.1427	52.042717	0.000790	7.903859	1.338950	0.000158
 260	2.5770e+01	5.1617	52.135571	0.000466	4.661250	0.789637	0.000093
 261	2.5870e+01	5.1824	52.240536	0.000527	5.269239	0.892633	0.000105
