»»»»»»»»»»»»»»»»»»»»»»»»»»»»»»»»»»»» Hysteresis ««««««««««««««««««««««««««««««««««««
»»»  Executed Version:	5.48.1
»»»  Vision Version:	5.48.4 (R)
»»»  Vision Compiled:	9/18/24
»»»  Driver Version:	5.47.0
»»»  Windows Version:	Windows 8 or 8.1
»»»  Processor Information:	x86 (AMD or Intel) - 32 Processors
»»»  Tester Name:	PMF21124-494 (100V)
»»»  Tester S/N:	PMF21124-494
»»»  Internal Amp Type:	100V RevK 270k
»»»  Internal Amp S/N:	iAB2-596/K     
»»»  Execution Count:	1
»»»»»»»»»»»»»»»»»»»»»»»»»»»»»»»»»»»»»»»»»»««««««««««««««««««««««««««««««««««««««««««

Stored:	7/10/2025 - 14:58:38
Configured:	07/10/25 01:31:25 PM
Executed:	07/10/25 02:58:03 PM

»»»»»»»»»»»»»»»»»»»»»»»»»»»»»»»»»»» Sample Info ««««««««««««««««««««««««««««««««««««
Sample Name:	
Lot Name:	
Wafer Name:	
Die Row/Column:	0/0
Capacitor Number:	0
Sample Area (cm2):	1.00e-04
Sample Thickness (microns):	1.50e-01

Amplifier:	Internal

»»»»»»»»»»»»»»»»»»»»»»»»»»»»»»»»»»» Tester Info «««««««««««««««««««««««««««««««««««
Tester Name:	PMF21124-494 (100V)
Tester Serial Number:	PMF21124-494
Return Signal Amp. Level:	1.79 [Index: 2]

»»»»»»»»»»»»»»»»»»»»»»»»»»»»»»»» Hysteresis Info ««««««««««««««««««««««««««««««««««
Task Name:	Hyst-3361
Volts:	10.00
Field:	666.67 (kV/cm)
DCBias:	0.00
DCField:	0.00 (kV/cm)
Hysteresis Period (ms):	1.00e+00
Preset:	Enabled
Preset Delay (ms):	1.00e+03
Profile:	Standard Bipolar

»»»»»»»»»»»»»»»»»»»»»»»»»»»»»»»»»»»»»» Data «««««««««««««««««««««««««««««««««««««««
Points:	2001

Valid Data

Point	Time (ms)	Drive Voltage	Measured Polarization (uC/cm2)	Capacitance (uF)	Normalized Capacitance (uF/cm2)	Dielectric Constant	Instantaneous Current (mA)
   1	0.0000e+00	-0.0040	-1.969214	0.000126	1.261377	0.213683	0.005046
   2	5.0000e-04	0.0162	-1.943984	0.000126	1.261377	0.213683	0.005046
   3	1.0000e-03	0.0386	-1.876847	0.000336	3.356545	0.568614	0.013427
   4	1.5000e-03	0.0546	-1.795171	0.000408	4.083440	0.691753	0.016335
   5	2.0000e-03	0.0747	-1.723757	0.000357	3.570337	0.604832	0.014283
   6	2.5000e-03	0.0947	-1.643364	0.000402	4.019302	0.680888	0.016079
   7	3.0000e-03	0.1162	-1.568957	0.000372	3.719992	0.630184	0.014881
   8	3.5000e-03	0.1354	-1.497116	0.000359	3.591717	0.608453	0.014368
   9	4.0000e-03	0.1572	-1.420999	0.000381	3.805509	0.644671	0.015223
  10	4.5000e-03	0.1744	-1.345309	0.000378	3.784130	0.641049	0.015138
  11	5.0000e-03	0.1958	-1.261495	0.000419	4.190336	0.709862	0.016763
  12	5.5000e-03	0.2175	-1.192647	0.000344	3.442062	0.583101	0.013770
  13	6.0000e-03	0.2361	-1.115674	0.000385	3.848268	0.651914	0.015395
  14	6.5000e-03	0.2554	-1.033998	0.000408	4.083440	0.691753	0.016335
  15	7.0000e-03	0.2749	-0.962157	0.000359	3.591717	0.608453	0.014368
  16	7.5000e-03	0.2948	-0.892026	0.000351	3.506200	0.593966	0.014026
  17	8.0000e-03	0.3188	-0.803936	0.000440	4.404129	0.746080	0.017618
  18	8.5000e-03	0.3375	-0.727818	0.000381	3.805509	0.644671	0.015223
  19	9.0000e-03	0.3573	-0.649135	0.000393	3.933785	0.666401	0.015737
  20	9.5000e-03	0.3754	-0.577294	0.000359	3.591717	0.608453	0.014368
  21	1.0000e-02	0.3960	-0.498611	0.000393	3.933785	0.666401	0.015737
  22	1.0500e-02	0.4150	-0.418218	0.000402	4.019302	0.680888	0.016079
  23	1.1000e-02	0.4361	-0.345094	0.000366	3.655854	0.619319	0.014625
  24	1.1500e-02	0.4568	-0.267266	0.000389	3.891026	0.659158	0.015566
  25	1.2000e-02	0.4774	-0.191148	0.000381	3.805509	0.644671	0.015223
  26	1.2500e-02	0.4965	-0.108189	0.000415	4.147578	0.702619	0.016592
  27	1.3000e-02	0.5146	-0.028223	0.000400	3.997923	0.677266	0.015993
  28	1.3500e-02	0.5352	0.052170	0.000402	4.019302	0.680888	0.016079
  29	1.4000e-02	0.5560	0.127860	0.000378	3.784130	0.641049	0.015138
  30	1.4500e-02	0.5771	0.201412	0.000368	3.677234	0.622940	0.014710
  31	1.5000e-02	0.5936	0.284371	0.000415	4.147578	0.702619	0.016592
  32	1.5500e-02	0.6200	0.359633	0.000376	3.762751	0.637427	0.015052
  33	1.6000e-02	0.6380	0.441309	0.000408	4.083440	0.691753	0.016335
  34	1.6500e-02	0.6544	0.518282	0.000385	3.848268	0.651914	0.015395
  35	1.7000e-02	0.6775	0.593972	0.000378	3.784130	0.641049	0.015138
  36	1.7500e-02	0.6947	0.678641	0.000423	4.233095	0.717106	0.016934
  37	1.8000e-02	0.7175	0.756897	0.000391	3.912406	0.662779	0.015651
  38	1.8500e-02	0.7358	0.836435	0.000398	3.976543	0.673645	0.015908
  39	1.9000e-02	0.7537	0.919394	0.000415	4.147578	0.702619	0.016592
  40	1.9500e-02	0.7748	0.992091	0.000363	3.634475	0.615697	0.014539
  41	2.0000e-02	0.7970	1.080181	0.000440	4.404129	0.746080	0.017618
  42	2.0500e-02	0.8166	1.160575	0.000402	4.019302	0.680888	0.016079
  43	2.1000e-02	0.8365	1.234554	0.000370	3.698613	0.626562	0.014796
  44	2.1500e-02	0.8570	1.310671	0.000381	3.805509	0.644671	0.015223
  45	2.2000e-02	0.8771	1.399190	0.000443	4.425508	0.749701	0.017704
  46	2.2500e-02	0.8960	1.478301	0.000396	3.955164	0.670023	0.015822
  47	2.3000e-02	0.9160	1.558694	0.000402	4.019302	0.680888	0.016079
  48	2.3500e-02	0.9381	1.639515	0.000404	4.040681	0.684510	0.016164
  49	2.4000e-02	0.9549	1.725468	0.000430	4.297232	0.727971	0.017191
  50	2.4500e-02	0.9750	1.806289	0.000404	4.040681	0.684510	0.016164
  51	2.5000e-02	0.9957	1.863591	0.000286	2.864822	0.485314	0.011460
  52	2.5500e-02	1.0132	1.972635	0.000545	5.451713	0.923545	0.021809
  53	2.6000e-02	1.0388	2.048753	0.000381	3.805509	0.644671	0.015223
  54	2.6500e-02	1.0545	2.133422	0.000423	4.233095	0.717106	0.016934
  55	2.7000e-02	1.0755	2.214244	0.000404	4.040681	0.684510	0.016164
  56	2.7500e-02	1.0974	2.299341	0.000425	4.254474	0.720727	0.017019
  57	2.8000e-02	1.1168	2.381873	0.000413	4.126198	0.698997	0.016506
  58	2.8500e-02	1.1366	2.466115	0.000421	4.211715	0.713484	0.016848
  59	2.9000e-02	1.1560	2.545226	0.000396	3.955164	0.670023	0.015822
  60	2.9500e-02	1.1764	2.627757	0.000413	4.126198	0.698997	0.016506
  61	3.0000e-02	1.1960	2.711144	0.000417	4.168957	0.706240	0.016677
  62	3.0500e-02	1.2164	2.794531	0.000417	4.168957	0.706240	0.016677
  63	3.1000e-02	1.2338	2.876208	0.000408	4.083440	0.691753	0.016335
  64	3.1500e-02	1.2538	2.955318	0.000396	3.955164	0.670023	0.015822
  65	3.2000e-02	1.2769	3.038278	0.000415	4.147578	0.702619	0.016592
  66	3.2500e-02	1.2946	3.125086	0.000434	4.339991	0.735214	0.017362
  67	3.3000e-02	1.3173	3.205479	0.000402	4.019302	0.680888	0.016079
  68	3.3500e-02	1.3400	3.285873	0.000402	4.019302	0.680888	0.016079
  69	3.4000e-02	1.3557	3.376957	0.000455	4.553784	0.771432	0.018217
  70	3.4500e-02	1.3756	3.454785	0.000389	3.891026	0.659158	0.015566
  71	3.5000e-02	1.4007	3.541593	0.000434	4.339991	0.735214	0.017362
  72	3.5500e-02	1.4175	3.626690	0.000425	4.254474	0.720727	0.017019
  73	3.6000e-02	1.4348	3.708366	0.000408	4.083440	0.691753	0.016335
  74	3.6500e-02	1.4571	3.793036	0.000423	4.233095	0.717106	0.016934
  75	3.7000e-02	1.4764	3.881982	0.000445	4.446887	0.753323	0.017789
  76	3.7500e-02	1.4963	3.960665	0.000393	3.933785	0.666401	0.015737
  77	3.8000e-02	1.5153	4.041059	0.000402	4.019302	0.680888	0.016079
  78	3.8500e-02	1.5376	4.143261	0.000511	5.109644	0.865597	0.020440
  79	3.9000e-02	1.5536	4.224082	0.000404	4.040681	0.684510	0.016164
  80	3.9500e-02	1.5750	4.302338	0.000391	3.912406	0.662779	0.015651
  81	4.0000e-02	1.5958	4.382304	0.000400	3.997923	0.677266	0.015993
  82	4.0500e-02	1.6147	4.471250	0.000445	4.446887	0.753323	0.017789
  83	4.1000e-02	1.6345	4.555064	0.000419	4.190336	0.709862	0.016763
  84	4.1500e-02	1.6548	4.646576	0.000458	4.575163	0.775054	0.018302
  85	4.2000e-02	1.6769	4.731674	0.000425	4.254474	0.720727	0.017019
  86	4.2500e-02	1.6989	4.814633	0.000415	4.147578	0.702619	0.016592
  87	4.3000e-02	1.7131	4.897165	0.000413	4.126198	0.698997	0.016506
  88	4.3500e-02	1.7353	4.980124	0.000415	4.147578	0.702619	0.016592
  89	4.4000e-02	1.7551	5.067787	0.000438	4.382749	0.742458	0.017533
  90	4.4500e-02	1.7732	5.155023	0.000436	4.361370	0.738836	0.017447
  91	4.5000e-02	1.7950	5.238837	0.000419	4.190336	0.709862	0.016763
  92	4.5500e-02	1.8173	5.324362	0.000428	4.275853	0.724349	0.017105
  93	4.6000e-02	1.8340	5.410315	0.000430	4.297232	0.727971	0.017191
  94	4.6500e-02	1.8539	5.492419	0.000410	4.104819	0.695375	0.016421
  95	4.7000e-02	1.8750	5.578372	0.000430	4.297232	0.727971	0.017191
  96	4.7500e-02	1.8938	5.673305	0.000475	4.746197	0.804028	0.018987
  97	4.8000e-02	1.9144	5.755836	0.000413	4.126198	0.698997	0.016506
  98	4.8500e-02	1.9345	5.837513	0.000408	4.083440	0.691753	0.016335
  99	4.9000e-02	1.9565	5.921755	0.000421	4.211715	0.713484	0.016848
 100	4.9500e-02	1.9760	6.006425	0.000423	4.233095	0.717106	0.016934
 101	5.0000e-02	1.9939	6.095371	0.000445	4.446887	0.753323	0.017789
 102	5.0500e-02	2.0150	6.187310	0.000460	4.596542	0.778675	0.018388
 103	5.1000e-02	2.0370	6.266421	0.000396	3.955164	0.670023	0.015822
 104	5.1500e-02	2.0554	6.351091	0.000423	4.233095	0.717106	0.016934
 105	5.2000e-02	2.0752	6.436188	0.000425	4.254474	0.720727	0.017019
 106	5.2500e-02	2.0947	6.517009	0.000404	4.040681	0.684510	0.016164
 107	5.3000e-02	2.1152	6.605528	0.000443	4.425508	0.749701	0.017704
 108	5.3500e-02	2.1357	6.692763	0.000436	4.361370	0.738836	0.017447
 109	5.4000e-02	2.1548	6.774440	0.000408	4.083440	0.691753	0.016335
 110	5.4500e-02	2.1771	6.862958	0.000443	4.425508	0.749701	0.017704
 111	5.5000e-02	2.1962	6.951049	0.000440	4.404129	0.746080	0.017618
 112	5.5500e-02	2.2195	7.046837	0.000479	4.788955	0.811271	0.019158
 113	5.6000e-02	2.2343	7.123382	0.000383	3.826889	0.648292	0.015309
 114	5.6500e-02	2.2597	7.210617	0.000436	4.361370	0.738836	0.017447
 115	5.7000e-02	2.2751	7.294432	0.000419	4.190336	0.709862	0.016763
 116	5.7500e-02	2.2937	7.381667	0.000436	4.361370	0.738836	0.017447
 117	5.8000e-02	2.3148	7.473179	0.000458	4.575163	0.775054	0.018302
 118	5.8500e-02	2.3361	7.543310	0.000351	3.506200	0.593966	0.014026
 119	5.9000e-02	2.3569	7.628835	0.000428	4.275853	0.724349	0.017105
 120	5.9500e-02	2.3752	7.713077	0.000421	4.211715	0.713484	0.016848
 121	6.0000e-02	2.3958	7.804589	0.000458	4.575163	0.775054	0.018302
 122	6.0500e-02	2.4176	7.880706	0.000381	3.805509	0.644671	0.015223
 123	6.1000e-02	2.4345	7.971790	0.000455	4.553784	0.771432	0.018217
 124	6.1500e-02	2.4515	8.056460	0.000423	4.233095	0.717106	0.016934
 125	6.2000e-02	2.4770	8.136854	0.000402	4.019302	0.680888	0.016079
 126	6.2500e-02	2.4962	8.218958	0.000410	4.104819	0.695375	0.016421
 127	6.3000e-02	2.5181	8.300634	0.000408	4.083440	0.691753	0.016335
 128	6.3500e-02	2.5354	8.387442	0.000434	4.339991	0.735214	0.017362
 129	6.4000e-02	2.5560	8.474678	0.000436	4.361370	0.738836	0.017447
 130	6.4500e-02	2.5766	8.552933	0.000391	3.912406	0.662779	0.015651
 131	6.5000e-02	2.5999	8.636748	0.000419	4.190336	0.709862	0.016763
 132	6.5500e-02	2.6180	8.721417	0.000423	4.233095	0.717106	0.016934
 133	6.6000e-02	2.6355	8.803522	0.000410	4.104819	0.695375	0.016421
 134	6.6500e-02	2.6579	8.886908	0.000417	4.168957	0.706240	0.016677
 135	6.7000e-02	2.6777	8.969013	0.000410	4.104819	0.695375	0.016421
 136	6.7500e-02	2.6952	9.057531	0.000443	4.425508	0.749701	0.017704
 137	6.8000e-02	2.7179	9.133648	0.000381	3.805509	0.644671	0.015223
 138	6.8500e-02	2.7328	9.226015	0.000462	4.617921	0.782297	0.018473
 139	6.9000e-02	2.7551	9.304271	0.000391	3.912406	0.662779	0.015651
 140	6.9500e-02	2.7728	9.390651	0.000432	4.318612	0.731593	0.017276
 141	7.0000e-02	2.7924	9.476604	0.000430	4.297232	0.727971	0.017191
 142	7.0500e-02	2.8162	9.549728	0.000366	3.655854	0.619319	0.014625
 143	7.1000e-02	2.8363	9.637818	0.000440	4.404129	0.746080	0.017618
 144	7.1500e-02	2.8572	9.721633	0.000419	4.190336	0.709862	0.016763
 145	7.2000e-02	2.8737	9.805875	0.000421	4.211715	0.713484	0.016848
 146	7.2500e-02	2.8934	9.884558	0.000393	3.933785	0.666401	0.015737
 147	7.3000e-02	2.9201	9.963669	0.000396	3.955164	0.670023	0.015822
 148	7.3500e-02	2.9375	10.041924	0.000391	3.912406	0.662779	0.015651
 149	7.4000e-02	2.9586	10.125739	0.000419	4.190336	0.709862	0.016763
 150	7.4500e-02	2.9749	10.214257	0.000443	4.425508	0.749701	0.017704
 151	7.5000e-02	2.9950	10.293368	0.000396	3.955164	0.670023	0.015822
 152	7.5500e-02	3.0157	10.366920	0.000368	3.677234	0.622940	0.014710
 153	7.6000e-02	3.0386	10.454155	0.000436	4.361370	0.738836	0.017447
 154	7.6500e-02	3.0548	10.534976	0.000404	4.040681	0.684510	0.016164
 155	7.7000e-02	3.0751	10.615797	0.000404	4.040681	0.684510	0.016164
 156	7.7500e-02	3.0966	10.698329	0.000413	4.126198	0.698997	0.016506
 157	7.8000e-02	3.1143	10.782144	0.000419	4.190336	0.709862	0.016763
 158	7.8500e-02	3.1378	10.857406	0.000376	3.762751	0.637427	0.015052
 159	7.9000e-02	3.1570	10.939937	0.000413	4.126198	0.698997	0.016506
 160	7.9500e-02	3.1757	11.019476	0.000398	3.976543	0.673645	0.015908
 161	8.0000e-02	3.1976	11.100297	0.000404	4.040681	0.684510	0.016164
 162	8.0500e-02	3.2147	11.167434	0.000336	3.356545	0.568614	0.013427
 163	8.1000e-02	3.2349	11.261512	0.000470	4.703438	0.796784	0.018816
 164	8.1500e-02	3.2533	11.336774	0.000376	3.762751	0.637427	0.015052
 165	8.2000e-02	3.2770	11.417595	0.000404	4.040681	0.684510	0.016164
 166	8.2500e-02	3.2959	11.497988	0.000402	4.019302	0.680888	0.016079
 167	8.3000e-02	3.3133	11.578382	0.000402	4.019302	0.680888	0.016079
 168	8.3500e-02	3.3356	11.668611	0.000451	4.511025	0.764188	0.018046
 169	8.4000e-02	3.3560	11.736176	0.000338	3.377924	0.572236	0.013513
 170	8.4500e-02	3.3752	11.819990	0.000419	4.190336	0.709862	0.016763
 171	8.5000e-02	3.3952	11.898673	0.000393	3.933785	0.666401	0.015737
 172	8.5500e-02	3.4161	11.978639	0.000400	3.997923	0.677266	0.015993
 173	8.6000e-02	3.4382	12.053474	0.000374	3.741371	0.633805	0.014967
 174	8.6500e-02	3.4554	12.133012	0.000398	3.976543	0.673645	0.015908
 175	8.7000e-02	3.4779	12.214688	0.000408	4.083440	0.691753	0.016335
 176	8.7500e-02	3.4958	12.290806	0.000381	3.805509	0.644671	0.015223
 177	8.8000e-02	3.5145	12.369916	0.000396	3.955164	0.670023	0.015822
 178	8.8500e-02	3.5361	12.446034	0.000381	3.805509	0.644671	0.015223
 179	8.9000e-02	3.5574	12.522151	0.000381	3.805509	0.644671	0.015223
 180	8.9500e-02	3.5736	12.602117	0.000400	3.997923	0.677266	0.015993
 181	9.0000e-02	3.5964	12.677379	0.000376	3.762751	0.637427	0.015052
 182	9.0500e-02	3.6161	12.753496	0.000381	3.805509	0.644671	0.015223
 183	9.1000e-02	3.6371	12.832179	0.000393	3.933785	0.666401	0.015737
 184	9.1500e-02	3.6551	12.905303	0.000366	3.655854	0.619319	0.014625
 185	9.2000e-02	3.6790	12.987407	0.000410	4.104819	0.695375	0.016421
 186	9.2500e-02	3.6946	13.065235	0.000389	3.891026	0.659158	0.015566
 187	9.3000e-02	3.7186	13.137076	0.000359	3.591717	0.608453	0.014368
 188	9.3500e-02	3.7360	13.213621	0.000383	3.826889	0.648292	0.015309
 189	9.4000e-02	3.7557	13.294870	0.000406	4.062060	0.688132	0.016250
 190	9.4500e-02	3.7784	13.364573	0.000348	3.484820	0.590345	0.013941
 191	9.5000e-02	3.7976	13.444966	0.000402	4.019302	0.680888	0.016079
 192	9.5500e-02	3.8145	13.525787	0.000404	4.040681	0.684510	0.016164
 193	9.6000e-02	3.8342	13.595063	0.000346	3.463441	0.586723	0.013855
 194	9.6500e-02	3.8554	13.673318	0.000391	3.912406	0.662779	0.015651
 195	9.7000e-02	3.8754	13.744304	0.000355	3.548958	0.601210	0.014197
 196	9.7500e-02	3.8965	13.825553	0.000406	4.062060	0.688132	0.016250
 197	9.8000e-02	3.9170	13.894828	0.000346	3.463441	0.586723	0.013855
 198	9.8500e-02	3.9349	13.981636	0.000434	4.339991	0.735214	0.017362
 199	9.9000e-02	3.9557	14.052194	0.000353	3.527579	0.597588	0.014112
 200	9.9500e-02	3.9758	14.121042	0.000344	3.442062	0.583101	0.013770
 201	1.0000e-01	3.9956	14.198014	0.000385	3.848268	0.651914	0.015395
 202	1.0050e-01	4.0176	14.275842	0.000389	3.891026	0.659158	0.015566
 203	1.0100e-01	4.0363	14.347256	0.000357	3.570337	0.604832	0.014283
 204	1.0150e-01	4.0562	14.416959	0.000348	3.484820	0.590345	0.013941
 205	1.0200e-01	4.0773	14.495642	0.000393	3.933785	0.666401	0.015737
 206	1.0250e-01	4.0976	14.569193	0.000368	3.677234	0.622940	0.014710
 207	1.0300e-01	4.1171	14.647876	0.000393	3.933785	0.666401	0.015737
 208	1.0350e-01	4.1376	14.719290	0.000357	3.570337	0.604832	0.014283
 209	1.0400e-01	4.1565	14.791558	0.000361	3.613096	0.612075	0.014454
 210	1.0450e-01	4.1763	14.868103	0.000383	3.826889	0.648292	0.015309
 211	1.0500e-01	4.1962	14.940799	0.000363	3.634475	0.615697	0.014539
 212	1.0550e-01	4.2163	15.012641	0.000359	3.591717	0.608453	0.014368
 213	1.0600e-01	4.2397	15.084054	0.000357	3.570337	0.604832	0.014283
 214	1.0650e-01	4.2581	15.158033	0.000370	3.698613	0.626562	0.014796
 215	1.0700e-01	4.2751	15.230302	0.000361	3.613096	0.612075	0.014454
 216	1.0750e-01	4.2981	15.310268	0.000400	3.997923	0.677266	0.015993
 217	1.0800e-01	4.3140	15.380398	0.000351	3.506200	0.593966	0.014026
 218	1.0850e-01	4.3378	15.461219	0.000404	4.040681	0.684510	0.016164
 219	1.0900e-01	4.3533	15.518521	0.000286	2.864822	0.485314	0.011460
 220	1.0950e-01	4.3781	15.604046	0.000428	4.275853	0.724349	0.017105
 221	1.1000e-01	4.3951	15.673749	0.000348	3.484820	0.590345	0.013941
 222	1.1050e-01	4.4147	15.740459	0.000334	3.335165	0.564992	0.013342
 223	1.1100e-01	4.4379	15.812727	0.000361	3.613096	0.612075	0.014454
 224	1.1150e-01	4.4543	15.889700	0.000385	3.848268	0.651914	0.015395
 225	1.1200e-01	4.4742	15.967528	0.000389	3.891026	0.659158	0.015566
 226	1.1250e-01	4.4962	16.035520	0.000340	3.399303	0.575858	0.013598
 227	1.1300e-01	4.5179	16.105651	0.000351	3.506200	0.593966	0.014026
 228	1.1350e-01	4.5361	16.171505	0.000329	3.292407	0.557749	0.013171
 229	1.1400e-01	4.5566	16.249333	0.000389	3.891026	0.659158	0.015566
 230	1.1450e-01	4.5782	16.319463	0.000351	3.506200	0.593966	0.014026
 231	1.1500e-01	4.5961	16.389166	0.000348	3.484820	0.590345	0.013941
 232	1.1550e-01	4.6179	16.458014	0.000344	3.442062	0.583101	0.013770
 233	1.1600e-01	4.6356	16.531993	0.000370	3.698613	0.626562	0.014796
 234	1.1650e-01	4.6564	16.603834	0.000359	3.591717	0.608453	0.014368
 235	1.1700e-01	4.6753	16.670971	0.000336	3.356545	0.568614	0.013427
 236	1.1750e-01	4.6948	16.740674	0.000348	3.484820	0.590345	0.013941
 237	1.1800e-01	4.7145	16.809950	0.000346	3.463441	0.586723	0.013855
 238	1.1850e-01	4.7351	16.880508	0.000353	3.527579	0.597588	0.014112
 239	1.1900e-01	4.7572	16.944224	0.000319	3.185511	0.539640	0.012743
 240	1.1950e-01	4.7772	17.017775	0.000368	3.677234	0.622940	0.014710
 241	1.2000e-01	4.7984	17.087906	0.000351	3.506200	0.593966	0.014026
 242	1.2050e-01	4.8212	17.152905	0.000325	3.249648	0.550505	0.013000
 243	1.2100e-01	4.8352	17.226029	0.000366	3.655854	0.619319	0.014625
 244	1.2150e-01	4.8526	17.298725	0.000363	3.634475	0.615697	0.014539
 245	1.2200e-01	4.8743	17.367145	0.000342	3.420682	0.579479	0.013684
 246	1.2250e-01	4.8993	17.435565	0.000342	3.420682	0.579479	0.013684
 247	1.2300e-01	4.9179	17.505268	0.000348	3.484820	0.590345	0.013941
 248	1.2350e-01	4.9362	17.578820	0.000368	3.677234	0.622940	0.014710
 249	1.2400e-01	4.9567	17.636549	0.000289	2.886201	0.488936	0.011546
 250	1.2450e-01	4.9786	17.704969	0.000342	3.420682	0.579479	0.013684
 251	1.2500e-01	4.9994	17.776383	0.000357	3.570337	0.604832	0.014283
 252	1.2550e-01	5.0191	17.843947	0.000338	3.377924	0.572236	0.013513
 253	1.2600e-01	5.0348	17.914506	0.000353	3.527579	0.597588	0.014112
 254	1.2650e-01	5.0562	17.983353	0.000344	3.442062	0.583101	0.013770
 255	1.2700e-01	5.0758	18.052629	0.000346	3.463441	0.586723	0.013855
 256	1.2750e-01	5.0970	18.120621	0.000340	3.399303	0.575858	0.013598
 257	1.2800e-01	5.1160	18.181771	0.000306	3.057235	0.517910	0.012230
 258	1.2850e-01	5.1375	18.250619	0.000344	3.442062	0.583101	0.013770
 259	1.2900e-01	5.1544	18.320322	0.000348	3.484820	0.590345	0.013941
 260	1.2950e-01	5.1782	18.387459	0.000336	3.356545	0.568614	0.013427
 261	1.3000e-01	5.1941	18.458017	0.000353	3.527579	0.597588	0.014112
 262	1.3050e-01	5.2179	18.524299	0.000331	3.313786	0.561371	0.013256
 263	1.3100e-01	5.2356	18.588443	0.000321	3.206890	0.543262	0.012829
