»»»»»»»»»»»»»»»»»»»»»»»»»»»»»»»»»»»» Hysteresis ««««««««««««««««««««««««««««««««««««
»»»  Executed Version:	5.48.1
»»»  Vision Version:	5.48.4 (R)
»»»  Vision Compiled:	9/18/24
»»»  Driver Version:	5.47.0
»»»  Windows Version:	Windows 8 or 8.1
»»»  Processor Information:	x86 (AMD or Intel) - 32 Processors
»»»  Tester Name:	PMF21124-494 (100V)
»»»  Tester S/N:	PMF21124-494
»»»  Internal Amp Type:	100V RevK 270k
»»»  Internal Amp S/N:	iAB2-596/K     
»»»  Execution Count:	1
»»»»»»»»»»»»»»»»»»»»»»»»»»»»»»»»»»»»»»»»»»««««««««««««««««««««««««««««««««««««««««««

Stored:	7/10/2025 - 14:43:45
Configured:	07/10/25 01:31:25 PM
Executed:	07/10/25 02:42:30 PM

»»»»»»»»»»»»»»»»»»»»»»»»»»»»»»»»»»» Sample Info ««««««««««««««««««««««««««««««««««««
Sample Name:	
Lot Name:	
Wafer Name:	
Die Row/Column:	0/0
Capacitor Number:	0
Sample Area (cm2):	1.00e-04
Sample Thickness (microns):	1.50e-01

Amplifier:	Internal

»»»»»»»»»»»»»»»»»»»»»»»»»»»»»»»»»»» Tester Info «««««««««««««««««««««««««««««««««««
Tester Name:	PMF21124-494 (100V)
Tester Serial Number:	PMF21124-494
Return Signal Amp. Level:	0.2 [Index: 1]

»»»»»»»»»»»»»»»»»»»»»»»»»»»»»»»» Hysteresis Info ««««««««««««««««««««««««««««««««««
Task Name:	Hyst-3361
Volts:	10.00
Field:	666.67 (kV/cm)
DCBias:	0.00
DCField:	0.00 (kV/cm)
Hysteresis Period (ms):	1.00e-02
Preset:	Enabled
Preset Delay (ms):	1.00e+03
Profile:	Standard Bipolar

»»»»»»»»»»»»»»»»»»»»»»»»»»»»»»»»»»»»»» Data «««««««««««««««««««««««««««««««««««««««
Points:	101

Valid Data

Point	Time (ms)	Drive Voltage	Measured Polarization (uC/cm2)	Capacitance (uF)	Normalized Capacitance (uF/cm2)	Dielectric Constant	Instantaneous Current (mA)
   1	0.0000e+00	0.2992	0.165659	0.000416	4.158614	0.704488	1.627463
   2	1.0000e-04	0.6937	1.793122	0.000416	4.158614	0.704488	1.627463
   3	2.0000e-04	1.0489	5.051690	0.000833	8.326532	1.410553	3.258568
   4	3.0000e-04	1.4756	8.000785	0.000754	7.535744	1.276590	2.949095
   5	4.0000e-04	1.8820	10.356420	0.000602	6.019292	1.019696	2.355635
   6	5.0000e-04	2.2797	12.639237	0.000583	5.833224	0.988175	2.282818
   7	6.0000e-04	2.6828	14.707245	0.000528	5.284324	0.895189	2.068007
   8	7.0000e-04	3.0658	17.106570	0.000613	6.130933	1.038608	2.399325
   9	8.0000e-04	3.4726	19.538663	0.000621	6.214663	1.052792	2.432093
  10	9.0000e-04	3.8773	21.857889	0.000593	5.926258	1.003935	2.319226
  11	1.0000e-03	4.2734	24.646786	0.000713	7.126395	1.207244	2.788897
  12	1.1000e-03	4.6777	26.682026	0.000520	5.200594	0.881004	2.035239
  13	1.2000e-03	5.0790	28.826491	0.000548	5.479696	0.928286	2.144465
  14	1.3000e-03	5.4703	30.894498	0.000528	5.284324	0.895189	2.068007
  15	1.4000e-03	5.8847	32.926097	0.000519	5.191291	0.879428	2.031599
  16	1.5000e-03	6.2793	35.587564	0.000680	6.800777	1.152083	2.661467
  17	1.6000e-03	6.6757	37.324253	0.000444	4.437716	0.751769	1.736689
  18	1.7000e-03	7.0816	39.086428	0.000450	4.502840	0.762802	1.762175
  19	1.8000e-03	7.4869	40.885012	0.000460	4.595874	0.778562	1.798584
  20	1.9000e-03	7.8787	42.628982	0.000446	4.456323	0.754922	1.743971
  21	2.0000e-03	8.2861	45.090202	0.000629	6.289090	1.065401	2.461220
  22	2.1000e-03	8.6801	46.459165	0.000350	3.498074	0.592590	1.368962
  23	2.2000e-03	9.0875	48.024733	0.000400	4.000457	0.677696	1.565569
  24	2.3000e-03	9.4775	49.583021	0.000398	3.981850	0.674544	1.558287
  25	2.4000e-03	9.8776	51.057568	0.000377	3.767872	0.638295	1.474547
  26	2.5000e-03	9.6951	53.271209	-0.000566	-5.656460	-0.958230	2.213641
  27	2.6000e-03	9.3082	51.458062	0.000463	4.633087	0.784866	-1.813147
  28	2.7000e-03	8.9328	48.549017	0.000743	7.433407	1.259253	-2.909045
  29	2.8000e-03	8.5037	46.859659	0.000432	4.316772	0.731281	-1.689358
  30	2.9000e-03	8.0984	45.872987	0.000252	2.521218	0.427106	-0.986672
  31	3.0000e-03	7.7023	45.108406	0.000195	1.953711	0.330968	-0.764580
  32	3.1000e-03	7.2919	42.851075	0.000577	5.768101	0.977143	-2.257332
  33	3.2000e-03	6.8991	40.844962	0.000513	5.126167	0.868396	-2.006113
  34	3.3000e-03	6.5057	39.257548	0.000406	4.056277	0.687152	-1.587414
  35	3.4000e-03	6.1014	37.553627	0.000435	4.353986	0.737585	-1.703921
  36	3.5000e-03	5.7156	36.363066	0.000304	3.042208	0.515364	-1.190560
  37	3.6000e-03	5.3134	34.123939	0.000572	5.721584	0.969263	-2.239127
  38	3.7000e-03	4.9106	32.106904	0.000515	5.154077	0.873124	-2.017035
  39	3.8000e-03	4.5126	30.035256	0.000529	5.293628	0.896765	-2.071648
  40	3.9000e-03	4.1150	27.981812	0.000525	5.247111	0.888885	-2.053444
  41	4.0000e-03	3.7082	26.438088	0.000394	3.944637	0.668240	-1.543724
  42	4.1000e-03	3.3218	23.951382	0.000635	6.354214	1.076433	-2.486706
  43	4.2000e-03	2.9080	21.672205	0.000582	5.823921	0.986599	-2.279177
  44	4.3000e-03	2.5174	19.363902	0.000590	5.898348	0.999207	-2.308304
  45	4.4000e-03	2.1287	16.960936	0.000614	6.140236	1.040184	-2.402966
  46	4.5000e-03	1.7245	15.031281	0.000493	4.930796	0.835299	-1.929655
  47	4.6000e-03	1.3176	12.369814	0.000680	6.800777	1.152083	-2.661467
  48	4.7000e-03	0.9298	9.828495	0.000649	6.493765	1.100074	-2.541319
  49	4.8000e-03	0.5222	7.290818	0.000648	6.484461	1.098498	-2.537678
  50	4.9000e-03	0.1270	4.727654	0.000655	6.549585	1.109530	-2.563164
  51	5.0000e-03	-0.2815	2.353815	0.000607	6.065809	1.027576	-2.373839
  52	5.1000e-03	-0.6684	-0.365906	0.000695	6.949631	1.177299	-2.719721
  53	5.2000e-03	-1.0743	-2.918147	0.000652	6.521675	1.104802	-2.552241
  54	5.3000e-03	-1.4793	-5.452184	0.000648	6.475158	1.096921	-2.534037
  55	5.4000e-03	-1.8717	-8.029912	0.000659	6.586799	1.115834	-2.577727
  56	5.5000e-03	-2.2709	-10.574871	0.000650	6.503068	1.101650	-2.544960
  57	5.6000e-03	-2.6798	-13.057936	0.000634	6.344911	1.074857	-2.483065
  58	5.7000e-03	-3.0711	-15.468184	0.000616	6.158843	1.043336	-2.410248
  59	5.8000e-03	-3.4769	-17.845664	0.000608	6.075112	1.029152	-2.377480
  60	5.9000e-03	-3.8825	-20.153968	0.000590	5.898348	0.999207	-2.308304
  61	6.0000e-03	-4.2716	-22.720772	0.000656	6.558889	1.111106	-2.566805
  62	6.1000e-03	-4.6781	-24.799702	0.000531	5.312235	0.899917	-2.078930
  63	6.2000e-03	-5.0864	-26.984217	0.000558	5.582033	0.945622	-2.184515
  64	6.3000e-03	-5.4749	-29.103196	0.000541	5.414572	0.917253	-2.118979
  65	6.4000e-03	-5.8848	-31.120231	0.000515	5.154077	0.873124	-2.017035
  66	6.5000e-03	-6.2846	-33.366640	0.000574	5.740190	0.972415	-2.246409
  67	6.6000e-03	-6.6792	-35.281732	0.000489	4.893582	0.828995	-1.915091
  68	6.7000e-03	-7.0774	-37.171337	0.000483	4.828458	0.817963	-1.889605
  69	6.8000e-03	-7.4809	-39.122836	0.000499	4.986616	0.844756	-1.951500
  70	6.9000e-03	-7.8690	-41.056132	0.000494	4.940099	0.836875	-1.933295
  71	7.0000e-03	-8.2767	-43.510070	0.000627	6.270484	1.062249	-2.453938
  72	7.1000e-03	-8.6689	-45.221273	0.000437	4.372592	0.740737	-1.711203
  73	7.2000e-03	-9.0788	-47.129082	0.000487	4.874975	0.825843	-1.907809
  74	7.3000e-03	-9.4651	-49.025969	0.000485	4.847065	0.821115	-1.896887
  75	7.4000e-03	-9.8588	-50.879166	0.000474	4.735425	0.802203	-1.853197
  76	7.5000e-03	-9.7202	-53.271209	-0.000611	-6.112326	-1.035456	-2.392044
  77	7.6000e-03	-9.3125	-52.084290	0.000303	3.032905	0.513788	1.186920
  78	7.7000e-03	-8.9457	-49.393696	0.000688	6.875204	1.164691	2.690594
  79	7.8000e-03	-8.5203	-47.758951	0.000418	4.177221	0.707640	1.634745
  80	7.9000e-03	-8.1019	-46.750433	0.000258	2.577038	0.436562	1.008518
  81	8.0000e-03	-7.7097	-46.058670	0.000177	1.767644	0.299447	0.691763
  82	8.1000e-03	-7.3188	-43.888719	0.000554	5.544819	0.939318	2.169951
  83	8.2000e-03	-6.9193	-42.097417	0.000458	4.577267	0.775410	1.791302
  84	8.3000e-03	-6.5177	-40.535489	0.000399	3.991153	0.676120	1.561928
  85	8.4000e-03	-6.1167	-38.831568	0.000435	4.353986	0.737585	1.703921
  86	8.5000e-03	-5.7206	-37.757515	0.000274	2.744499	0.464931	1.074053
  87	8.6000e-03	-5.3202	-35.485620	0.000581	5.805314	0.983447	2.271895
  88	8.7000e-03	-4.9183	-33.599655	0.000482	4.819155	0.816387	1.885964
  89	8.8000e-03	-4.5200	-31.582620	0.000515	5.154077	0.873124	2.017035
  90	8.9000e-03	-4.1239	-29.623839	0.000501	5.005223	0.847908	1.958781
  91	9.0000e-03	-3.7107	-28.327693	0.000331	3.312006	0.561069	1.296145
  92	9.1000e-03	-3.3298	-25.822783	0.000640	6.400731	1.084313	2.504910
  93	9.2000e-03	-2.9185	-23.660114	0.000553	5.526213	0.936166	2.162669
  94	9.3000e-03	-2.5220	-21.431909	0.000569	5.693673	0.964534	2.228205
  95	9.4000e-03	-2.1311	-19.145450	0.000584	5.842528	0.989751	2.286459
  96	9.5000e-03	-1.7228	-17.638135	0.000385	3.851603	0.652479	1.507315
  97	9.6000e-03	-1.3218	-14.900210	0.000700	6.996148	1.185180	2.737925
  98	9.7000e-03	-0.9308	-12.417145	0.000634	6.344911	1.074857	2.483065
  99	9.8000e-03	-0.5220	-9.974130	0.000624	6.242573	1.057521	2.443016
 100	9.9000e-03	-0.1268	-7.516551	0.000628	6.279787	1.063825	2.457579
 101	1.0000e-02	-0.0388	-5.787143	0.000628	6.279787	1.063825	1.729407

Smooth data before PMax, +/-Pr and +/-Vc Calc.

PMax (uC/cm2):	5.16e+01
Pr (uC/cm2):	3.91e+00
-Pr (uC/cm2):	-6.31e+00
PLoss (uC/cm2):	-6.68e+00
-Vc:	-6.07e-01
C (Max-Eff) (nF):	5.22e-01
K (Eff):	8.84e+02
Vert. (+/-Pr) Shift (uC/cm2):	-1.20e+00
Offset (uC/cm2):	-9.28e-02

A (Loop Area - uC/cm2·Volts):	-1.95e+00



Hysteresis Version: 5.48.1 - Radiant Technologies, Inc., 1999 - 9/12/24

