»»»»»»»»»»»»»»»»»»»»»»»»»»»»»»»»»»»» Hysteresis ««««««««««««««««««««««««««««««««««««
»»»  Executed Version:	5.48.1
»»»  Vision Version:	5.48.4 (R)
»»»  Vision Compiled:	9/18/24
»»»  Driver Version:	5.47.0
»»»  Windows Version:	Windows 8 or 8.1
»»»  Processor Information:	x86 (AMD or Intel) - 32 Processors
»»»  Tester Name:	PMF21124-494 (100V)
»»»  Tester S/N:	PMF21124-494
»»»  Internal Amp Type:	100V RevK 270k
»»»  Internal Amp S/N:	iAB2-596/K     
»»»  Execution Count:	1
»»»»»»»»»»»»»»»»»»»»»»»»»»»»»»»»»»»»»»»»»»««««««««««««««««««««««««««««««««««««««««««

Stored:	7/10/2025 - 14:46:14
Configured:	07/10/25 01:31:25 PM
Executed:	07/10/25 02:45:39 PM

»»»»»»»»»»»»»»»»»»»»»»»»»»»»»»»»»»» Sample Info ««««««««««««««««««««««««««««««««««««
Sample Name:	
Lot Name:	
Wafer Name:	
Die Row/Column:	0/0
Capacitor Number:	0
Sample Area (cm2):	1.00e-04
Sample Thickness (microns):	1.50e-01

Amplifier:	Internal

»»»»»»»»»»»»»»»»»»»»»»»»»»»»»»»»»»» Tester Info «««««««««««««««««««««««««««««««««««
Tester Name:	PMF21124-494 (100V)
Tester Serial Number:	PMF21124-494
Return Signal Amp. Level:	1.79 [Index: 2]

»»»»»»»»»»»»»»»»»»»»»»»»»»»»»»»» Hysteresis Info ««««««««««««««««««««««««««««««««««
Task Name:	Hyst-3361
Volts:	10.00
Field:	666.67 (kV/cm)
DCBias:	0.00
DCField:	0.00 (kV/cm)
Hysteresis Period (ms):	1.00e+00
Preset:	Enabled
Preset Delay (ms):	1.00e+03
Profile:	Standard Bipolar

»»»»»»»»»»»»»»»»»»»»»»»»»»»»»»»»»»»»»» Data «««««««««««««««««««««««««««««««««««««««
Points:	2001

Valid Data

Point	Time (ms)	Drive Voltage	Measured Polarization (uC/cm2)	Capacitance (uF)	Normalized Capacitance (uF/cm2)	Dielectric Constant	Instantaneous Current (mA)
   1	0.0000e+00	-0.0066	-2.656194	0.000248	2.480444	0.420199	0.009921
   2	5.0000e-04	0.0145	-2.606590	0.000248	2.480444	0.420199	0.009921
   3	1.0000e-03	0.0359	-2.512085	0.000473	4.725674	0.800551	0.018901
   4	1.5000e-03	0.0561	-2.397053	0.000575	5.752065	0.974426	0.023006
   5	2.0000e-03	0.0740	-2.283733	0.000567	5.666532	0.959937	0.022664
   6	2.5000e-03	0.0955	-2.166991	0.000584	5.837597	0.988916	0.023348
   7	3.0000e-03	0.1169	-2.054098	0.000565	5.645149	0.956314	0.022579
   8	3.5000e-03	0.1363	-1.949330	0.000524	5.238869	0.887488	0.020954
   9	4.0000e-03	0.1569	-1.833443	0.000579	5.794831	0.981671	0.023177
  10	4.5000e-03	0.1744	-1.720123	0.000567	5.666532	0.959937	0.022664
  11	5.0000e-03	0.1953	-1.604236	0.000579	5.794831	0.981671	0.023177
  12	5.5000e-03	0.2139	-1.482791	0.000607	6.072812	1.028762	0.024289
  13	6.0000e-03	0.2341	-1.368615	0.000571	5.709298	0.967181	0.022835
  14	6.5000e-03	0.2547	-1.251873	0.000584	5.837597	0.988916	0.023348
  15	7.0000e-03	0.2763	-1.139408	0.000562	5.623766	0.952692	0.022493
  16	7.5000e-03	0.2951	-1.023521	0.000579	5.794831	0.981671	0.023177
  17	8.0000e-03	0.3158	-0.907635	0.000579	5.794831	0.981671	0.023177
  18	8.5000e-03	0.3327	-0.797307	0.000552	5.516850	0.934580	0.022065
  19	9.0000e-03	0.3555	-0.680138	0.000586	5.858980	0.992538	0.023434
  20	9.5000e-03	0.3776	-0.576225	0.000520	5.196103	0.880244	0.020783
  21	1.0000e-02	0.3963	-0.448365	0.000639	6.393559	1.083098	0.025572
  22	1.0500e-02	0.4167	-0.333762	0.000573	5.730681	0.970804	0.022921
  23	1.1000e-02	0.4357	-0.218303	0.000577	5.773448	0.978049	0.023092
  24	1.1500e-02	0.4527	-0.104554	0.000569	5.687915	0.963559	0.022750
  25	1.2000e-02	0.4744	0.023306	0.000639	6.393559	1.083098	0.025572
  26	1.2500e-02	0.4921	0.144324	0.000605	6.051429	1.025140	0.024204
  27	1.3000e-02	0.5143	0.251657	0.000537	5.367168	0.909223	0.021467
  28	1.3500e-02	0.5362	0.367544	0.000579	5.794831	0.981671	0.023177
  29	1.4000e-02	0.5528	0.490272	0.000614	6.136961	1.039629	0.024546
  30	1.4500e-02	0.5748	0.600172	0.000550	5.495467	0.930957	0.021980
  31	1.5000e-02	0.5956	0.716059	0.000579	5.794831	0.981671	0.023177
  32	1.5500e-02	0.6136	0.832373	0.000582	5.816214	0.985293	0.023263
  33	1.6000e-02	0.6343	0.961943	0.000648	6.479091	1.097588	0.025914
  34	1.6500e-02	0.6547	1.075264	0.000567	5.666532	0.959937	0.022664
  35	1.7000e-02	0.6757	1.189440	0.000571	5.709298	0.967181	0.022835
  36	1.7500e-02	0.6921	1.305326	0.000579	5.794831	0.981671	0.023177
  37	1.8000e-02	0.7152	1.424206	0.000594	5.944513	1.007028	0.023776
  38	1.8500e-02	0.7316	1.541803	0.000588	5.880363	0.996161	0.023519
  39	1.9000e-02	0.7526	1.658972	0.000586	5.858980	0.992538	0.023434
  40	1.9500e-02	0.7763	1.776997	0.000590	5.901747	0.999783	0.023605
  41	2.0000e-02	0.7943	1.904002	0.000635	6.350793	1.075853	0.025401
  42	2.0500e-02	0.8184	2.011763	0.000539	5.388551	0.912845	0.021552
  43	2.1000e-02	0.8369	2.134919	0.000616	6.158344	1.043252	0.024631
  44	2.1500e-02	0.8548	2.264917	0.000650	6.500475	1.101210	0.026000
  45	2.2000e-02	0.8750	2.369685	0.000524	5.238869	0.887488	0.020954
  46	2.2500e-02	0.8966	2.487282	0.000588	5.880363	0.996161	0.023519
  47	2.3000e-02	0.9151	2.618991	0.000659	6.586007	1.115700	0.026342
  48	2.3500e-02	0.9367	2.730174	0.000556	5.559616	0.941825	0.022237
  49	2.4000e-02	0.9545	2.851619	0.000607	6.072812	1.028762	0.024289
  50	2.4500e-02	0.9744	2.974348	0.000614	6.136961	1.039629	0.024546
  51	2.5000e-02	0.9956	3.088524	0.000571	5.709298	0.967181	0.022835
  52	2.5500e-02	1.0155	3.214245	0.000629	6.286643	1.064986	0.025144
  53	2.6000e-02	1.0402	3.337829	0.000618	6.179727	1.046874	0.024717
  54	2.6500e-02	1.0568	3.452433	0.000573	5.730681	0.970804	0.022921
  55	2.7000e-02	1.0785	3.573023	0.000603	6.030045	1.021517	0.024118
  56	2.7500e-02	1.0941	3.697462	0.000622	6.222494	1.054119	0.024888
  57	2.8000e-02	1.1172	3.816769	0.000597	5.965896	1.010650	0.023861
  58	2.8500e-02	1.1352	3.943346	0.000633	6.329409	1.072231	0.025315
  59	2.9000e-02	1.1569	4.062226	0.000594	5.944513	1.007028	0.023776
  60	2.9500e-02	1.1772	4.180251	0.000590	5.901747	0.999783	0.023605
  61	3.0000e-02	1.1936	4.313242	0.000665	6.650156	1.126567	0.026598
  62	3.0500e-02	1.2186	4.422714	0.000547	5.474084	0.927335	0.021894
  63	3.1000e-02	1.2373	4.540739	0.000590	5.901747	0.999783	0.023605
  64	3.1500e-02	1.2560	4.660474	0.000599	5.987279	1.014273	0.023947
  65	3.2000e-02	1.2762	4.792610	0.000661	6.607390	1.119322	0.026427
  66	3.2500e-02	1.2958	4.901227	0.000543	5.431318	0.920090	0.021723
  67	3.3000e-02	1.3177	5.025666	0.000622	6.222494	1.054119	0.024888
  68	3.3500e-02	1.3359	5.148394	0.000614	6.136961	1.039629	0.024546
  69	3.4000e-02	1.3525	5.273261	0.000624	6.243877	1.057741	0.024973
  70	3.4500e-02	1.3754	5.392141	0.000594	5.944513	1.007028	0.023776
  71	3.5000e-02	1.3963	5.518290	0.000631	6.308026	1.068609	0.025230
  72	3.5500e-02	1.4198	5.643157	0.000624	6.243877	1.057741	0.024973
  73	3.6000e-02	1.4348	5.765030	0.000609	6.094195	1.032385	0.024375
  74	3.6500e-02	1.4564	5.884765	0.000599	5.987279	1.014273	0.023947
  75	3.7000e-02	1.4766	6.002362	0.000588	5.880363	0.996161	0.023519
  76	3.7500e-02	1.4941	6.138347	0.000680	6.799838	1.151924	0.027197
  77	3.8000e-02	1.5154	6.258510	0.000601	6.008662	1.017895	0.024033
  78	3.8500e-02	1.5363	6.378245	0.000599	5.987279	1.014273	0.023947
  79	3.9000e-02	1.5562	6.501401	0.000616	6.158344	1.043252	0.024631
  80	3.9500e-02	1.5762	6.623274	0.000609	6.094195	1.032385	0.024375
  81	4.0000e-02	1.5964	6.740016	0.000584	5.837597	0.988916	0.023348
  82	4.0500e-02	1.6147	6.867448	0.000637	6.372176	1.079476	0.025486
  83	4.1000e-02	1.6348	6.988466	0.000605	6.051429	1.025140	0.024204
  84	4.1500e-02	1.6544	7.112477	0.000620	6.201111	1.050497	0.024802
  85	4.2000e-02	1.6733	7.240765	0.000641	6.414942	1.086721	0.025658
  86	4.2500e-02	1.6962	7.359645	0.000594	5.944513	1.007028	0.023776
  87	4.3000e-02	1.7159	7.483656	0.000620	6.201111	1.050497	0.024802
  88	4.3500e-02	1.7349	7.614937	0.000656	6.564624	1.112077	0.026256
  89	4.4000e-02	1.7542	7.735527	0.000603	6.030045	1.021517	0.024118
  90	4.4500e-02	1.7725	7.851841	0.000582	5.816214	0.985293	0.023263
  91	4.5000e-02	1.7954	7.984405	0.000663	6.628773	1.122945	0.026513
  92	4.5500e-02	1.8138	8.099009	0.000573	5.730681	0.970804	0.022921
  93	4.6000e-02	1.8369	8.222165	0.000616	6.158344	1.043252	0.024631
  94	4.6500e-02	1.8551	8.354729	0.000663	6.628773	1.122945	0.026513
  95	4.7000e-02	1.8756	8.471898	0.000586	5.858980	0.992538	0.023434
  96	4.7500e-02	1.8954	8.596337	0.000622	6.222494	1.054119	0.024888
  97	4.8000e-02	1.9172	8.718638	0.000612	6.115578	1.036007	0.024460
  98	4.8500e-02	1.9353	8.848636	0.000650	6.500475	1.101210	0.026000
  99	4.9000e-02	1.9547	8.969226	0.000603	6.030045	1.021517	0.024118
 100	4.9500e-02	1.9746	9.094521	0.000627	6.265260	1.061364	0.025059
 101	5.0000e-02	1.9945	9.218959	0.000622	6.222494	1.054119	0.024888
 102	5.0500e-02	2.0148	9.343398	0.000622	6.222494	1.054119	0.024888
 103	5.1000e-02	2.0359	9.464844	0.000607	6.072812	1.028762	0.024289
 104	5.1500e-02	2.0557	9.593987	0.000646	6.457708	1.093965	0.025829
 105	5.2000e-02	2.0743	9.701748	0.000539	5.388551	0.912845	0.021552
 106	5.2500e-02	2.0930	9.839871	0.000691	6.906754	1.170036	0.027625
 107	5.3000e-02	2.1176	9.960034	0.000601	6.008662	1.017895	0.024033
 108	5.3500e-02	2.1362	10.076776	0.000584	5.837597	0.988916	0.023348
 109	5.4000e-02	2.1582	10.208484	0.000659	6.586007	1.115700	0.026342
 110	5.4500e-02	2.1759	10.335917	0.000637	6.372176	1.079476	0.025486
 111	5.5000e-02	2.1944	10.459928	0.000620	6.201111	1.050497	0.024802
 112	5.5500e-02	2.2162	10.580518	0.000603	6.030045	1.021517	0.024118
 113	5.6000e-02	2.2347	10.708806	0.000641	6.414942	1.086721	0.025658
 114	5.6500e-02	2.2562	10.821271	0.000562	5.623766	0.952692	0.022493
 115	5.7000e-02	2.2748	10.949131	0.000639	6.393559	1.083098	0.025572
 116	5.7500e-02	2.2961	11.076564	0.000637	6.372176	1.079476	0.025486
 117	5.8000e-02	2.3169	11.195444	0.000594	5.944513	1.007028	0.023776
 118	5.8500e-02	2.3334	11.321165	0.000629	6.286643	1.064986	0.025144
 119	5.9000e-02	2.3558	11.449881	0.000644	6.436325	1.090343	0.025743
 120	5.9500e-02	2.3755	11.562346	0.000562	5.623766	0.952692	0.022493
 121	6.0000e-02	2.3956	11.690206	0.000639	6.393559	1.083098	0.025572
 122	6.0500e-02	2.4178	11.812079	0.000609	6.094195	1.032385	0.024375
 123	6.1000e-02	2.4359	11.930531	0.000592	5.923130	1.003405	0.023690
 124	6.1500e-02	2.4567	12.062240	0.000659	6.586007	1.115700	0.026342
 125	6.2000e-02	2.4787	12.179409	0.000586	5.858980	0.992538	0.023434
 126	6.2500e-02	2.4959	12.304276	0.000624	6.243877	1.057741	0.024973
 127	6.3000e-02	2.5156	12.419735	0.000577	5.773448	0.978049	0.023092
 128	6.3500e-02	2.5368	12.559141	0.000697	6.970904	1.180903	0.027881
 129	6.4000e-02	2.5562	12.671606	0.000562	5.623766	0.952692	0.022493
 130	6.4500e-02	2.5754	12.796473	0.000624	6.243877	1.057741	0.024973
 131	6.5000e-02	2.5958	12.914497	0.000590	5.901747	0.999783	0.023605
 132	6.5500e-02	2.6173	13.040219	0.000629	6.286643	1.064986	0.025144
 133	6.6000e-02	2.6345	13.166368	0.000631	6.308026	1.068609	0.025230
 134	6.6500e-02	2.6575	13.289952	0.000618	6.179727	1.046874	0.024717
 135	6.7000e-02	2.6734	13.401990	0.000560	5.602383	0.949069	0.022408
 136	6.7500e-02	2.6950	13.525574	0.000618	6.179727	1.046874	0.024717
 137	6.8000e-02	2.7151	13.660276	0.000674	6.735689	1.141057	0.026940
 138	6.8500e-02	2.7357	13.777017	0.000584	5.837597	0.988916	0.023348
 139	6.9000e-02	2.7554	13.896752	0.000599	5.987279	1.014273	0.023947
 140	6.9500e-02	2.7747	14.011784	0.000575	5.752065	0.974426	0.023006
 141	7.0000e-02	2.7924	14.141354	0.000648	6.479091	1.097588	0.025914
 142	7.0500e-02	2.8151	14.260661	0.000597	5.965896	1.010650	0.023861
 143	7.1000e-02	2.8346	14.389804	0.000646	6.457708	1.093965	0.025829
 144	7.1500e-02	2.8553	14.511678	0.000609	6.094195	1.032385	0.024375
 145	7.2000e-02	2.8726	14.625853	0.000571	5.709298	0.967181	0.022835
 146	7.2500e-02	2.8955	14.746871	0.000605	6.051429	1.025140	0.024204
 147	7.3000e-02	2.9150	14.872166	0.000627	6.265260	1.061364	0.025059
 148	7.3500e-02	2.9355	14.988052	0.000579	5.794831	0.981671	0.023177
 149	7.4000e-02	2.9540	15.110353	0.000612	6.115578	1.036007	0.024460
 150	7.4500e-02	2.9749	15.228377	0.000590	5.901747	0.999783	0.023605
 151	7.5000e-02	2.9959	15.351106	0.000614	6.136961	1.039629	0.024546
 152	7.5500e-02	3.0145	15.475973	0.000624	6.243877	1.057741	0.024973
 153	7.6000e-02	3.0392	15.592714	0.000584	5.837597	0.988916	0.023348
 154	7.6500e-02	3.0530	15.716298	0.000618	6.179727	1.046874	0.024717
 155	7.7000e-02	3.0769	15.829191	0.000565	5.645149	0.956314	0.022579
 156	7.7500e-02	3.0920	15.954058	0.000624	6.243877	1.057741	0.024973
 157	7.8000e-02	3.1168	16.075931	0.000609	6.094195	1.032385	0.024375
 158	7.8500e-02	3.1349	16.195238	0.000597	5.965896	1.010650	0.023861
 159	7.9000e-02	3.1559	16.317539	0.000612	6.115578	1.036007	0.024460
 160	7.9500e-02	3.1750	16.432570	0.000575	5.752065	0.974426	0.023006
 161	8.0000e-02	3.1952	16.549312	0.000584	5.837597	0.988916	0.023348
 162	8.0500e-02	3.2152	16.663916	0.000573	5.730681	0.970804	0.022921
 163	8.1000e-02	3.2346	16.785789	0.000609	6.094195	1.032385	0.024375
 164	8.1500e-02	3.2564	16.906807	0.000605	6.051429	1.025140	0.024204
 165	8.2000e-02	3.2771	17.008581	0.000509	5.089187	0.862132	0.020355
 166	8.2500e-02	3.2980	17.147560	0.000695	6.949520	1.177281	0.027796
 167	8.3000e-02	3.3173	17.261736	0.000571	5.709298	0.967181	0.022835
 168	8.3500e-02	3.3347	17.392589	0.000654	6.543241	1.108455	0.026171
 169	8.4000e-02	3.3578	17.496074	0.000517	5.174720	0.876621	0.020697
 170	8.4500e-02	3.3774	17.618803	0.000614	6.136961	1.039629	0.024546
 171	8.5000e-02	3.3981	17.732551	0.000569	5.687915	0.963559	0.022750
 172	8.5500e-02	3.4163	17.860411	0.000639	6.393559	1.083098	0.025572
 173	8.6000e-02	3.4354	17.970311	0.000550	5.495467	0.930957	0.021980
 174	8.6500e-02	3.4552	18.093467	0.000616	6.158344	1.043252	0.024631
 175	8.7000e-02	3.4750	18.205932	0.000562	5.623766	0.952692	0.022493
 176	8.7500e-02	3.4988	18.321391	0.000577	5.773448	0.978049	0.023092
 177	8.8000e-02	3.5141	18.452244	0.000654	6.543241	1.108455	0.026171
 178	8.8500e-02	3.5364	18.559151	0.000535	5.345785	0.905600	0.021381
 179	8.9000e-02	3.5538	18.676320	0.000586	5.858980	0.992538	0.023434
 180	8.9500e-02	3.5774	18.794772	0.000592	5.923130	1.003405	0.023690
 181	9.0000e-02	3.5962	18.905527	0.000554	5.538233	0.938202	0.022151
 182	9.0500e-02	3.6169	19.035953	0.000652	6.521858	1.104833	0.026085
 183	9.1000e-02	3.6349	19.144570	0.000543	5.431318	0.920090	0.021723
 184	9.1500e-02	3.6569	19.266443	0.000609	6.094195	1.032385	0.024375
 185	9.2000e-02	3.6746	19.381047	0.000573	5.730681	0.970804	0.022921
 186	9.2500e-02	3.6954	19.494367	0.000567	5.666532	0.959937	0.022664
 187	9.3000e-02	3.7164	19.611109	0.000584	5.837597	0.988916	0.023348
 188	9.3500e-02	3.7375	19.719726	0.000543	5.431318	0.920090	0.021723
 189	9.4000e-02	3.7549	19.832619	0.000565	5.645149	0.956314	0.022579
 190	9.4500e-02	3.7759	19.959624	0.000635	6.350793	1.075853	0.025401
 191	9.5000e-02	3.7993	20.069096	0.000547	5.474084	0.927335	0.021894
 192	9.5500e-02	3.8165	20.181989	0.000565	5.645149	0.956314	0.022579
 193	9.6000e-02	3.8374	20.305145	0.000616	6.158344	1.043252	0.024631
 194	9.6500e-02	3.8550	20.415900	0.000554	5.538233	0.938202	0.022151
 195	9.7000e-02	3.8733	20.521095	0.000526	5.260252	0.891111	0.021039
 196	9.7500e-02	3.8971	20.642969	0.000609	6.094195	1.032385	0.024375
 197	9.8000e-02	3.9152	20.754579	0.000558	5.581000	0.945447	0.022322
 198	9.8500e-02	3.9351	20.868755	0.000571	5.709298	0.967181	0.022835
 199	9.9000e-02	3.9565	20.991911	0.000616	6.158344	1.043252	0.024631
 200	9.9500e-02	3.9758	21.108653	0.000584	5.837597	0.988916	0.023348
 201	1.0000e-01	3.9969	21.218125	0.000547	5.474084	0.927335	0.021894
 202	1.0050e-01	4.0167	21.332728	0.000573	5.730681	0.970804	0.022921
 203	1.0100e-01	4.0350	21.448615	0.000579	5.794831	0.981671	0.023177
 204	1.0150e-01	4.0552	21.562791	0.000571	5.709298	0.967181	0.022835
 205	1.0200e-01	4.0753	21.664565	0.000509	5.089187	0.862132	0.020355
 206	1.0250e-01	4.0948	21.777886	0.000567	5.666532	0.959937	0.022664
 207	1.0300e-01	4.1165	21.895911	0.000590	5.901747	0.999783	0.023605
 208	1.0350e-01	4.1353	22.015218	0.000597	5.965896	1.010650	0.023861
 209	1.0400e-01	4.1580	22.117421	0.000511	5.110570	0.865754	0.020440
 210	1.0450e-01	4.1766	22.237156	0.000599	5.987279	1.014273	0.023947
 211	1.0500e-01	4.1992	22.346628	0.000547	5.474084	0.927335	0.021894
 212	1.0550e-01	4.2166	22.446264	0.000498	4.982272	0.844020	0.019927
 213	1.0600e-01	4.2367	22.566000	0.000599	5.987279	1.014273	0.023947
 214	1.0650e-01	4.2557	22.684879	0.000594	5.944513	1.007028	0.023776
 215	1.0700e-01	4.2746	22.799911	0.000575	5.752065	0.974426	0.023006
 216	1.0750e-01	4.2973	22.901685	0.000509	5.089187	0.862132	0.020355
 217	1.0800e-01	4.3164	23.013723	0.000560	5.602383	0.949069	0.022408
 218	1.0850e-01	4.3356	23.136879	0.000616	6.158344	1.043252	0.024631
 219	1.0900e-01	4.3567	23.247634	0.000554	5.538233	0.938202	0.022151
 220	1.0950e-01	4.3726	23.357534	0.000550	5.495467	0.930957	0.021980
 221	1.1000e-01	4.3956	23.467434	0.000550	5.495467	0.930957	0.021980
 222	1.1050e-01	4.4180	23.571774	0.000522	5.217486	0.883866	0.020868
 223	1.1100e-01	4.4359	23.688088	0.000582	5.816214	0.985293	0.023263
 224	1.1150e-01	4.4563	23.800126	0.000560	5.602383	0.949069	0.022408
 225	1.1200e-01	4.4771	23.904467	0.000522	5.217486	0.883866	0.020868
 226	1.1250e-01	4.4965	24.012656	0.000541	5.409934	0.916468	0.021638
 227	1.1300e-01	4.5151	24.131536	0.000594	5.944513	1.007028	0.023776
 228	1.1350e-01	4.5380	24.236304	0.000524	5.238869	0.887488	0.020954
 229	1.1400e-01	4.5563	24.346631	0.000552	5.516850	0.934580	0.022065
 230	1.1450e-01	4.5764	24.453965	0.000537	5.367168	0.909223	0.021467
 231	1.1500e-01	4.5984	24.571562	0.000588	5.880363	0.996161	0.023519
 232	1.1550e-01	4.6173	24.670344	0.000494	4.939505	0.836775	0.019756
 233	1.1600e-01	4.6368	24.790934	0.000603	6.030045	1.021517	0.024118
 234	1.1650e-01	4.6570	24.896985	0.000530	5.303019	0.898356	0.021210
 235	1.1700e-01	4.6779	25.002608	0.000528	5.281636	0.894733	0.021125
 236	1.1750e-01	4.6951	25.112936	0.000552	5.516850	0.934580	0.022065
 237	1.1800e-01	4.7162	25.219842	0.000535	5.345785	0.905600	0.021381
 238	1.1850e-01	4.7363	25.338294	0.000592	5.923130	1.003405	0.023690
 239	1.1900e-01	4.7562	25.432372	0.000470	4.704291	0.796928	0.018816
 240	1.1950e-01	4.7755	25.538850	0.000532	5.324402	0.901978	0.021296
 241	1.2000e-01	4.7961	25.653026	0.000571	5.709298	0.967181	0.022835
 242	1.2050e-01	4.8172	25.765919	0.000565	5.645149	0.956314	0.022579
 243	1.2100e-01	4.8376	25.866411	0.000503	5.025038	0.851264	0.020098
 244	1.2150e-01	4.8587	25.972462	0.000530	5.303019	0.898356	0.021210
 245	1.2200e-01	4.8787	26.076375	0.000520	5.196103	0.880244	0.020783
 246	1.2250e-01	4.8950	26.199104	0.000614	6.136961	1.039629	0.024546
 247	1.2300e-01	4.9173	26.294464	0.000477	4.768440	0.807796	0.019072
 248	1.2350e-01	4.9353	26.402654	0.000541	5.409934	0.916468	0.021638
 249	1.2400e-01	4.9612	26.513408	0.000554	5.538233	0.938202	0.022151
 250	1.2450e-01	4.9768	26.619887	0.000532	5.324402	0.901978	0.021296
 251	1.2500e-01	4.9963	26.731925	0.000560	5.602383	0.949069	0.022408
 252	1.2550e-01	5.0165	26.828996	0.000485	4.853973	0.822285	0.019414
 253	1.2600e-01	5.0363	26.933336	0.000522	5.217486	0.883866	0.020868
 254	1.2650e-01	5.0583	27.044947	0.000558	5.581000	0.945447	0.022322
 255	1.2700e-01	5.0757	27.144156	0.000496	4.960888	0.840397	0.019842
 256	1.2750e-01	5.0967	27.248069	0.000520	5.196103	0.880244	0.020783
 257	1.2800e-01	5.1147	27.363955	0.000579	5.794831	0.981671	0.023177
 258	1.2850e-01	5.1367	27.467013	0.000515	5.153337	0.872999	0.020612
 259	1.2900e-01	5.1602	27.573064	0.000530	5.303019	0.898356	0.021210
 260	1.2950e-01	5.1740	27.673556	0.000503	5.025038	0.851264	0.020098
 261	1.3000e-01	5.1959	27.773620	0.000500	5.003655	0.847642	0.020013
 262	1.3050e-01	5.2176	27.884803	0.000556	5.559616	0.941825	0.022237
