»»»»»»»»»»»»»»»»»»»»»»»»»»»»»»»»»»»» Hysteresis ««««««««««««««««««««««««««««««««««««
»»»  Executed Version:	5.48.1
»»»  Vision Version:	5.48.4 (R)
»»»  Vision Compiled:	9/18/24
»»»  Driver Version:	5.47.0
»»»  Windows Version:	Windows 8 or 8.1
»»»  Processor Information:	x86 (AMD or Intel) - 32 Processors
»»»  Tester Name:	PMF21124-494 (100V)
»»»  Tester S/N:	PMF21124-494
»»»  Internal Amp Type:	100V RevK 270k
»»»  Internal Amp S/N:	iAB2-596/K     
»»»  Execution Count:	1
»»»»»»»»»»»»»»»»»»»»»»»»»»»»»»»»»»»»»»»»»»««««««««««««««««««««««««««««««««««««««««««

Stored:	6/19/2025 - 15:5:1
Configured:	06/19/25 10:04:32 AM
Executed:	06/19/25 03:04:37 PM

»»»»»»»»»»»»»»»»»»»»»»»»»»»»»»»»»»» Sample Info ««««««««««««««««««««««««««««««««««««
Sample Name:	
Lot Name:	
Wafer Name:	
Die Row/Column:	0/0
Capacitor Number:	0
Sample Area (cm2):	1.00e-04
Sample Thickness (microns):	3.00e-01

Amplifier:	Internal

»»»»»»»»»»»»»»»»»»»»»»»»»»»»»»»»»»» Tester Info «««««««««««««««««««««««««««««««««««
Tester Name:	PMF21124-494 (100V)
Tester Serial Number:	PMF21124-494
Return Signal Amp. Level:	0.19 [Index: 3]

»»»»»»»»»»»»»»»»»»»»»»»»»»»»»»»» Hysteresis Info ««««««««««««««««««««««««««««««««««
Task Name:	Hyst-1168
Volts:	20.00
Field:	666.67 (kV/cm)
DCBias:	0.00
DCField:	0.00 (kV/cm)
Hysteresis Period (ms):	1.00e+00
Preset:	Enabled
Preset Delay (ms):	1.00e+03
Profile:	Standard Bipolar

»»»»»»»»»»»»»»»»»»»»»»»»»»»»»»»»»»»»»» Data «««««««««««««««««««««««««««««««««««««««
Points:	2001

Valid Data

Point	Time (ms)	Drive Voltage	Measured Polarization (uC/cm2)	Capacitance (uF)	Normalized Capacitance (uF/cm2)	Dielectric Constant	Instantaneous Current (mA)
   1	0.0000e+00	0.0257	-2.637646	0.000172	1.717203	0.581804	0.013713
   2	5.0000e-04	0.0369	-2.569084	0.000172	1.717203	0.581804	0.013713
   3	1.0000e-03	0.0594	-2.686044	-0.000293	-2.929346	-0.992489	-0.023392
   4	1.5000e-03	0.0963	-2.504554	0.000455	4.545537	1.540070	0.036298
   5	2.0000e-03	0.1348	-2.157708	0.000869	8.687027	2.943244	0.069369
   6	2.5000e-03	0.1717	-2.133509	0.000061	0.606072	0.205343	0.004840
   7	3.0000e-03	0.2198	-2.048814	0.000212	2.121251	0.718699	0.016939
   8	3.5000e-03	0.2535	-2.278701	-0.000576	-5.757681	-1.950755	-0.045977
   9	4.0000e-03	0.2936	-1.919755	0.000899	8.990063	3.045916	0.071789
  10	4.5000e-03	0.3257	-1.750365	0.000424	4.242502	1.437398	0.033878
  11	5.0000e-03	0.3690	-1.742299	0.000020	0.202024	0.068448	0.001613
  12	5.5000e-03	0.4171	-1.617273	0.000313	3.131370	1.060937	0.025005
  13	6.0000e-03	0.4556	-1.504346	0.000283	2.828334	0.958266	0.022585
  14	6.5000e-03	0.4957	-1.334956	0.000424	4.242502	1.437398	0.033878
  15	7.0000e-03	0.5342	-1.250261	0.000212	2.121251	0.718699	0.016939
  16	7.5000e-03	0.5775	-1.427717	-0.000444	-4.444526	-1.505846	-0.035491
  17	8.0000e-03	0.6128	-0.915513	0.001283	12.828517	4.346419	0.102441
  18	8.5000e-03	0.6481	-0.871149	0.000111	1.111131	0.376462	0.008873
  19	9.0000e-03	0.6962	-0.746123	0.000313	3.131370	1.060937	0.025005
  20	9.5000e-03	0.7379	-0.673527	0.000182	1.818215	0.616028	0.014519
  21	1.0000e-02	0.7716	-0.830818	-0.000394	-3.939466	-1.334727	-0.031458
  22	1.0500e-02	0.8133	-0.371045	0.001152	11.515362	3.901510	0.091955
  23	1.1000e-02	0.8535	-0.282317	0.000222	2.222263	0.752923	0.017746
  24	1.1500e-02	0.8920	0.032265	0.000788	7.878932	2.669454	0.062916
  25	1.2000e-02	0.9321	-0.153258	-0.000465	-4.646549	-1.574294	-0.037105
  26	1.2500e-02	0.9706	-0.092761	0.000152	1.515179	0.513357	0.012099
  27	1.3000e-02	1.0139	-0.250052	-0.000394	-3.939466	-1.334727	-0.031458
  28	1.3500e-02	1.0556	0.092761	0.000859	8.586015	2.909021	0.068563
  29	1.4000e-02	1.0877	0.266185	0.000434	4.343514	1.471622	0.034685
  30	1.4500e-02	1.1310	0.298449	0.000081	0.808096	0.273790	0.006453
  31	1.5000e-02	1.1759	0.479939	0.000455	4.545537	1.540070	0.036298
  32	1.5500e-02	1.2080	0.838885	0.000899	8.990063	3.045916	0.071789
  33	1.6000e-02	1.2561	0.742090	-0.000242	-2.424287	-0.821371	-0.019359
  34	1.6500e-02	1.2818	0.863083	0.000303	3.030358	1.026713	0.024199
  35	1.7000e-02	1.3363	0.750156	-0.000283	-2.828334	-0.958266	-0.022585
  36	1.7500e-02	1.3764	1.105069	0.000889	8.889051	3.011692	0.070983
  37	1.8000e-02	1.4117	1.205896	0.000253	2.525299	0.855594	0.020165
  38	1.8500e-02	1.4518	1.133301	-0.000182	-1.818215	-0.616028	-0.014519
  39	1.9000e-02	1.4871	1.222029	0.000222	2.222263	0.752923	0.017746
  40	1.9500e-02	1.5385	1.488213	0.000667	6.666788	2.258769	0.053237
  41	2.0000e-02	1.5818	1.343022	-0.000364	-3.636430	-1.232056	-0.029038
  42	2.0500e-02	1.6090	1.641471	0.000747	7.474884	2.532559	0.059690
  43	2.1000e-02	1.6556	1.726166	0.000212	2.121251	0.718699	0.016939
  44	2.1500e-02	1.6844	1.988318	0.000657	6.565776	2.224545	0.052430
  45	2.2000e-02	1.7390	1.968152	-0.000051	-0.505060	-0.171119	-0.004033
  46	2.2500e-02	1.7679	1.931854	-0.000091	-0.909107	-0.308014	-0.007260
  47	2.3000e-02	1.8096	2.375495	0.001111	11.111314	3.764615	0.088728
  48	2.3500e-02	1.8529	2.569084	0.000485	4.848573	1.642741	0.038718
  49	2.4000e-02	1.8978	2.440025	-0.000323	-3.232382	-1.095161	-0.025812
  50	2.4500e-02	1.9347	2.415826	-0.000061	-0.606072	-0.205343	-0.004840
  51	2.5000e-02	1.9780	2.726375	0.000778	7.777920	2.635231	0.062110
  52	2.5500e-02	2.0229	2.621514	-0.000263	-2.626311	-0.889818	-0.020972
  53	2.6000e-02	2.0502	3.057089	0.001091	10.909290	3.696167	0.087115
  54	2.6500e-02	2.0919	3.165982	0.000273	2.727322	0.924042	0.021779
  55	2.7000e-02	2.1288	3.270843	0.000263	2.626311	0.889818	0.020972
  56	2.7500e-02	2.1802	3.432167	0.000404	4.040478	1.368951	0.032265
  57	2.8000e-02	2.2235	3.274876	-0.000394	-3.939466	-1.334727	-0.031458
  58	2.8500e-02	2.2572	3.407968	0.000333	3.333394	1.129385	0.026618
  59	2.9000e-02	2.2957	3.633822	0.000566	5.656669	1.916531	0.045171
  60	2.9500e-02	2.3358	3.666087	0.000081	0.808096	0.273790	0.006453
  61	3.0000e-02	2.3695	3.758848	0.000232	2.323275	0.787147	0.018552
  62	3.0500e-02	2.4128	3.928238	0.000424	4.242502	1.437398	0.033878
  63	3.1000e-02	2.4609	3.936304	0.000020	0.202024	0.068448	0.001613
  64	3.1500e-02	2.4946	3.904039	-0.000081	-0.808096	-0.273790	-0.006453
  65	3.2000e-02	2.5363	4.246853	0.000859	8.586015	2.909021	0.068563
  66	3.2500e-02	2.5684	4.279118	0.000081	0.808096	0.273790	0.006453
  67	3.3000e-02	2.6069	4.553368	0.000687	6.868812	2.327217	0.054850
  68	3.3500e-02	2.6486	4.706626	0.000384	3.838454	1.300503	0.030652
  69	3.4000e-02	2.6919	4.706626	0.000000	0.000000	0.000000	0.000000
  70	3.4500e-02	2.7352	4.920380	0.000535	5.353633	1.813860	0.042751
  71	3.5000e-02	2.7737	4.779222	-0.000354	-3.535418	-1.197832	-0.028232
  72	3.5500e-02	2.8074	4.513037	-0.000667	-6.666788	-2.258769	-0.053237
  73	3.6000e-02	2.8603	5.089770	0.001444	14.444708	4.894000	0.115347
  74	3.6500e-02	2.8972	5.109936	0.000051	0.505060	0.171119	0.004033
  75	3.7000e-02	2.9374	5.404352	0.000737	7.373872	2.498335	0.058883
  76	3.7500e-02	2.9694	5.714901	0.000778	7.777920	2.635231	0.062110
  77	3.8000e-02	3.0224	5.601974	-0.000283	-2.828334	-0.958266	-0.022585
  78	3.8500e-02	3.0561	5.791530	0.000475	4.747561	1.608517	0.037911
  79	3.9000e-02	3.0994	5.964953	0.000434	4.343514	1.471622	0.034685
  80	3.9500e-02	3.1347	5.779430	-0.000465	-4.646549	-1.574294	-0.037105
  81	4.0000e-02	3.1668	5.839927	0.000152	1.515179	0.513357	0.012099
  82	4.0500e-02	3.2149	6.331965	0.001232	12.323457	4.175300	0.098408
  83	4.1000e-02	3.2550	6.114177	-0.000545	-5.454645	-1.848084	-0.043557
  84	4.1500e-02	3.3079	6.247270	0.000333	3.333394	1.129385	0.026618
  85	4.2000e-02	3.3400	6.412627	0.000414	4.141490	1.403175	0.033071
  86	4.2500e-02	3.3769	6.541686	0.000323	3.232382	1.095161	0.025812
  87	4.3000e-02	3.4090	6.565885	0.000061	0.606072	0.205343	0.004840
  88	4.3500e-02	3.4587	6.634447	0.000172	1.717203	0.581804	0.013713
  89	4.4000e-02	3.4892	6.973227	0.000849	8.485003	2.874797	0.067756
  90	4.4500e-02	3.5373	7.049856	0.000192	1.919227	0.650252	0.015326
  91	4.5000e-02	3.5742	7.279743	0.000576	5.757681	1.950755	0.045977
  92	4.5500e-02	3.6208	7.122452	-0.000394	-3.939466	-1.334727	-0.031458
  93	4.6000e-02	3.6577	7.130518	0.000020	0.202024	0.068448	0.001613
  94	4.6500e-02	3.6913	7.622556	0.001232	12.323457	4.175300	0.098408
  95	4.7000e-02	3.7330	7.441067	-0.000455	-4.545537	-1.540070	-0.036298
  96	4.7500e-02	3.7667	7.622556	0.000455	4.545537	1.540070	0.036298
  97	4.8000e-02	3.8133	7.691119	0.000172	1.717203	0.581804	0.013713
  98	4.8500e-02	3.8502	7.787913	0.000242	2.424287	0.821371	0.019359
  99	4.9000e-02	3.8983	8.162992	0.000939	9.394111	3.182811	0.075016
 100	4.9500e-02	3.9480	8.029899	-0.000333	-3.333394	-1.129385	-0.026618
 101	5.0000e-02	3.9753	8.223488	0.000485	4.848573	1.642741	0.038718
 102	5.0500e-02	4.0122	8.340448	0.000293	2.929346	0.992489	0.023392
 103	5.1000e-02	4.0507	8.659063	0.000798	7.979944	2.703678	0.063723
 104	5.1500e-02	4.0972	8.703427	0.000111	1.111131	0.376462	0.008873
 105	5.2000e-02	4.1373	8.521937	-0.000455	-4.545537	-1.540070	-0.036298
 106	5.2500e-02	4.1806	8.598566	0.000192	1.919227	0.650252	0.015326
 107	5.3000e-02	4.2191	8.973644	0.000939	9.394111	3.182811	0.075016
 108	5.3500e-02	4.2544	8.872817	-0.000253	-2.525299	-0.855594	-0.020165
 109	5.4000e-02	4.2913	9.211597	0.000849	8.485003	2.874797	0.067756
 110	5.4500e-02	4.3250	9.328557	0.000293	2.929346	0.992489	0.023392
 111	5.5000e-02	4.3747	9.441484	0.000283	2.828334	0.958266	0.022585
 112	5.5500e-02	4.4165	9.356789	-0.000212	-2.121251	-0.718699	-0.016939
 113	5.6000e-02	4.4582	9.445517	0.000222	2.222263	0.752923	0.017746
 114	5.6500e-02	4.4935	9.566510	0.000303	3.030358	1.026713	0.024199
 115	5.7000e-02	4.5368	9.764132	0.000495	4.949585	1.676965	0.039524
 116	5.7500e-02	4.5801	9.868992	0.000263	2.626311	0.889818	0.020972
 117	5.8000e-02	4.6186	10.038382	0.000424	4.242502	1.437398	0.033878
 118	5.8500e-02	4.6587	10.014184	-0.000061	-0.606072	-0.205343	-0.004840
 119	5.9000e-02	4.6940	10.300534	0.000717	7.171848	2.429888	0.057270
 120	5.9500e-02	4.7373	10.332799	0.000081	0.808096	0.273790	0.006453
 121	6.0000e-02	4.7742	10.627215	0.000737	7.373872	2.498335	0.058883
 122	6.0500e-02	4.8255	10.510255	-0.000293	-2.929346	-0.992489	-0.023392
 123	6.1000e-02	4.8640	10.486056	-0.000061	-0.606072	-0.205343	-0.004840
 124	6.1500e-02	4.8929	10.885333	0.001000	10.000182	3.388154	0.079855
 125	6.2000e-02	4.9330	10.990194	0.000263	2.626311	0.889818	0.020972
 126	6.2500e-02	4.9763	11.260411	0.000677	6.767800	2.292993	0.054044
 127	6.3000e-02	5.0116	11.405603	0.000364	3.636430	1.232056	0.029038
 128	6.3500e-02	5.0565	11.349139	-0.000141	-1.414167	-0.479133	-0.011293
 129	6.4000e-02	5.0934	11.308808	-0.000101	-1.010119	-0.342238	-0.008066
 130	6.4500e-02	5.1335	11.502397	0.000485	4.848573	1.642741	0.038718
 131	6.5000e-02	5.1833	11.659688	0.000394	3.939466	1.334727	0.031458
 132	6.5500e-02	5.2170	11.768582	0.000273	2.727322	0.924042	0.021779
 133	6.6000e-02	5.2539	11.865376	0.000242	2.424287	0.821371	0.019359
 134	6.6500e-02	5.3004	11.901674	0.000091	0.909107	0.308014	0.007260
 135	6.7000e-02	5.3373	11.921839	0.000051	0.505060	0.171119	0.004033
 136	6.7500e-02	5.3838	12.208189	0.000717	7.171848	2.429888	0.057270
 137	6.8000e-02	5.4079	12.208189	0.000000	0.000000	0.000000	0.000000
 138	6.8500e-02	5.4608	12.381613	0.000434	4.343514	1.471622	0.034685
 139	6.9000e-02	5.4849	12.438076	0.000141	1.414167	0.479133	0.011293
 140	6.9500e-02	5.5298	12.676029	0.000596	5.959705	2.019203	0.047591
 141	7.0000e-02	5.5731	12.938180	0.000657	6.565776	2.224545	0.052430
 142	7.0500e-02	5.6004	13.059173	0.000303	3.030358	1.026713	0.024199
 143	7.1000e-02	5.6501	13.091438	0.000081	0.808096	0.273790	0.006453
 144	7.1500e-02	5.6902	13.268894	0.000444	4.444526	1.505846	0.035491
 145	7.2000e-02	5.7367	13.301159	0.000081	0.808096	0.273790	0.006453
 146	7.2500e-02	5.7720	13.321325	0.000051	0.505060	0.171119	0.004033
 147	7.3000e-02	5.8153	13.373755	0.000131	1.313155	0.444909	0.010486
 148	7.3500e-02	5.8587	13.680270	0.000768	7.676908	2.601007	0.061303
 149	7.4000e-02	5.8907	13.656072	-0.000061	-0.606072	-0.205343	-0.004840
 150	7.4500e-02	5.9276	13.950488	0.000737	7.373872	2.498335	0.058883
 151	7.5000e-02	5.9710	14.156176	0.000515	5.151609	1.745412	0.041138
 152	7.5500e-02	6.0191	14.148110	-0.000020	-0.202024	-0.068448	-0.001613
 153	7.6000e-02	6.0512	14.075514	-0.000182	-1.818215	-0.616028	-0.014519
 154	7.6500e-02	6.0913	14.285235	0.000525	5.252621	1.779636	0.041944
 155	7.7000e-02	6.1394	14.446559	0.000404	4.040478	1.368951	0.032265
 156	7.7500e-02	6.1779	14.595784	0.000374	3.737442	1.266280	0.029845
 157	7.8000e-02	6.2164	14.700644	0.000263	2.626311	0.889818	0.020972
 158	7.8500e-02	6.2565	14.696611	-0.000010	-0.101012	-0.034224	-0.000807
 159	7.9000e-02	6.2982	14.974895	0.000697	6.969824	2.361440	0.055657
 160	7.9500e-02	6.3255	14.982961	0.000020	0.202024	0.068448	0.001613
 161	8.0000e-02	6.3752	15.011193	0.000071	0.707084	0.239566	0.005646
 162	8.0500e-02	6.4137	15.265278	0.000636	6.363752	2.156098	0.050817
 163	8.1000e-02	6.4554	15.781515	0.001293	12.929529	4.380643	0.103247
 164	8.1500e-02	6.5036	15.616158	-0.000414	-4.141490	-1.403175	-0.033071
 165	8.2000e-02	6.5324	15.523397	-0.000232	-2.323275	-0.787147	-0.018552
 166	8.2500e-02	6.5822	15.725051	0.000505	5.050597	1.711189	0.040331
 167	8.3000e-02	6.6159	15.906541	0.000455	4.545537	1.540070	0.036298
 168	8.3500e-02	6.6544	15.918640	0.000030	0.303036	0.102671	0.002420
 169	8.4000e-02	6.6880	15.777482	-0.000354	-3.535418	-1.197832	-0.028232
 170	8.4500e-02	6.7330	16.277586	0.001253	12.525481	4.243748	0.100021
 171	8.5000e-02	6.7875	16.152560	-0.000313	-3.131370	-1.060937	-0.025005
 172	8.5500e-02	6.8116	16.188858	0.000091	0.909107	0.308014	0.007260
 173	8.6000e-02	6.8517	16.567969	0.000950	9.495123	3.217035	0.075822
 174	8.6500e-02	6.8982	16.701061	0.000333	3.333394	1.129385	0.026618
 175	8.7000e-02	6.9399	16.563936	-0.000343	-3.434406	-1.163608	-0.027425
 176	8.7500e-02	6.9720	17.007577	0.001111	11.111314	3.764615	0.088728
 177	8.8000e-02	7.0201	16.999511	-0.000020	-0.202024	-0.068448	-0.001613
 178	8.8500e-02	7.0538	16.789789	-0.000525	-5.252621	-1.779636	-0.041944
 179	8.9000e-02	7.0939	16.979345	0.000475	4.747561	1.608517	0.037911
 180	8.9500e-02	7.1308	17.306026	0.000818	8.181967	2.772126	0.065336
 181	9.0000e-02	7.1741	17.306026	0.000000	0.000000	0.000000	0.000000
 182	9.0500e-02	7.2223	17.608508	0.000758	7.575896	2.566783	0.060496
 183	9.1000e-02	7.2575	17.616575	0.000020	0.202024	0.068448	0.001613
 184	9.1500e-02	7.2912	17.826296	0.000525	5.252621	1.779636	0.041944
 185	9.2000e-02	7.3313	17.632707	-0.000485	-4.848573	-1.642741	-0.038718
 186	9.2500e-02	7.3666	18.027951	0.000990	9.899170	3.353930	0.079049
 187	9.3000e-02	7.4180	17.951322	-0.000192	-1.919227	-0.650252	-0.015326
 188	9.3500e-02	7.4581	18.503856	0.001384	13.838636	4.688657	0.110507
 189	9.4000e-02	7.4886	18.318334	-0.000465	-4.646549	-1.574294	-0.037105
 190	9.4500e-02	7.5335	18.536121	0.000545	5.454645	1.848084	0.043557
 191	9.5000e-02	7.5768	18.596618	0.000152	1.515179	0.513357	0.012099
 192	9.5500e-02	7.6089	18.806339	0.000525	5.252621	1.779636	0.041944
 193	9.6000e-02	7.6554	18.971696	0.000414	4.141490	1.403175	0.033071
 194	9.6500e-02	7.6939	18.818438	-0.000384	-3.838454	-1.300503	-0.030652
 195	9.7000e-02	7.7356	18.891034	0.000182	1.818215	0.616028	0.014519
 196	9.7500e-02	7.7805	19.120920	0.000576	5.757681	1.950755	0.045977
 197	9.8000e-02	7.8174	19.173351	0.000131	1.313155	0.444909	0.010486
 198	9.8500e-02	7.8591	19.233847	0.000152	1.515179	0.513357	0.012099
 199	9.9000e-02	7.8896	19.612959	0.000950	9.495123	3.217035	0.075822
 200	9.9500e-02	7.9361	19.629091	0.000040	0.404048	0.136895	0.003226
 201	1.0000e-01	7.9682	19.742018	0.000283	2.828334	0.958266	0.022585
 202	1.0050e-01	8.0067	19.863011	0.000303	3.030358	1.026713	0.024199
 203	1.0100e-01	8.0516	20.092897	0.000576	5.757681	1.950755	0.045977
 204	1.0150e-01	8.0918	20.040467	-0.000131	-1.313155	-0.444909	-0.010486
 205	1.0200e-01	8.1303	20.242122	0.000505	5.050597	1.711189	0.040331
 206	1.0250e-01	8.1816	20.342949	0.000253	2.525299	0.855594	0.020165
 207	1.0300e-01	8.2153	20.427644	0.000212	2.121251	0.718699	0.016939
 208	1.0350e-01	8.2570	20.439744	0.000030	0.303036	0.102671	0.002420
 209	1.0400e-01	8.2955	20.839020	0.001000	10.000182	3.388154	0.079855
 210	1.0450e-01	8.3308	20.701895	-0.000343	-3.434406	-1.163608	-0.027425
 211	1.0500e-01	8.3693	20.984212	0.000707	7.070836	2.395664	0.056463
 212	1.0550e-01	8.4174	21.101172	0.000293	2.929346	0.992489	0.023392
 213	1.0600e-01	8.4591	21.032609	-0.000172	-1.717203	-0.581804	-0.013713
 214	1.0650e-01	8.5056	21.246363	0.000535	5.353633	1.813860	0.042751
 215	1.0700e-01	8.5281	21.294761	0.000121	1.212143	0.410685	0.009679
 216	1.0750e-01	8.5714	21.577078	0.000707	7.070836	2.395664	0.056463
 217	1.0800e-01	8.6163	21.492382	-0.000212	-2.121251	-0.718699	-0.016939
 218	1.0850e-01	8.6613	21.798898	0.000768	7.676908	2.601007	0.061303
 219	1.0900e-01	8.6998	21.815030	0.000040	0.404048	0.136895	0.003226
 220	1.0950e-01	8.7367	21.823097	0.000020	0.202024	0.068448	0.001613
 221	1.1000e-01	8.7800	22.036851	0.000535	5.353633	1.813860	0.042751
 222	1.1050e-01	8.8088	22.250605	0.000535	5.353633	1.813860	0.042751
 223	1.1100e-01	8.8538	22.198175	-0.000131	-1.313155	-0.444909	-0.010486
 224	1.1150e-01	8.8955	22.617617	0.001051	10.505242	3.559272	0.083888
 225	1.1200e-01	8.9292	22.476459	-0.000354	-3.535418	-1.197832	-0.028232
 226	1.1250e-01	8.9757	22.702312	0.000566	5.656669	1.916531	0.045171
 227	1.1300e-01	9.0318	22.690213	-0.000030	-0.303036	-0.102671	-0.002420
 228	1.1350e-01	9.0639	22.581319	-0.000273	-2.727322	-0.924042	-0.021779
 229	1.1400e-01	9.1040	22.811206	0.000576	5.757681	1.950755	0.045977
 230	1.1450e-01	9.1313	23.093523	0.000707	7.070836	2.395664	0.056463
 231	1.1500e-01	9.1666	23.279045	0.000465	4.646549	1.574294	0.037105
 232	1.1550e-01	9.2227	23.472634	0.000485	4.848573	1.642741	0.038718
 233	1.1600e-01	9.2564	23.408104	-0.000162	-1.616191	-0.547580	-0.012906
 234	1.1650e-01	9.3046	23.549263	0.000354	3.535418	1.197832	0.028232
 235	1.1700e-01	9.3286	23.557329	0.000020	0.202024	0.068448	0.001613
 236	1.1750e-01	9.3735	24.025168	0.001172	11.717385	3.969958	0.093568
 237	1.1800e-01	9.4152	23.940473	-0.000212	-2.121251	-0.718699	-0.016939
 238	1.1850e-01	9.4537	23.722686	-0.000545	-5.454645	-1.848084	-0.043557
 239	1.1900e-01	9.4987	24.162294	0.001101	11.010302	3.730391	0.087922
 240	1.1950e-01	9.5324	24.263121	0.000253	2.525299	0.855594	0.020165
 241	1.2000e-01	9.5741	24.416379	0.000384	3.838454	1.300503	0.030652
 242	1.2050e-01	9.6110	24.460743	0.000111	1.111131	0.376462	0.008873
 243	1.2100e-01	9.6479	24.605935	0.000364	3.636430	1.232056	0.029038
 244	1.2150e-01	9.6976	24.827755	0.000556	5.555657	1.882308	0.044364
 245	1.2200e-01	9.7361	24.976980	0.000374	3.737442	1.266280	0.029845
 246	1.2250e-01	9.7810	24.997145	0.000051	0.505060	0.171119	0.004033
 247	1.2300e-01	9.8211	25.093940	0.000242	2.424287	0.821371	0.019359
 248	1.2350e-01	9.8532	25.158469	0.000162	1.616191	0.547580	0.012906
 249	1.2400e-01	9.8917	25.210899	0.000131	1.313155	0.444909	0.010486
 250	1.2450e-01	9.9414	25.505316	0.000737	7.373872	2.498335	0.058883
 251	1.2500e-01	9.9687	25.545647	0.000101	1.010119	0.342238	0.008066
 252	1.2550e-01	10.0104	25.485150	-0.000152	-1.515179	-0.513357	-0.012099
 253	1.2600e-01	10.0650	25.594044	0.000273	2.727322	0.924042	0.021779
 254	1.2650e-01	10.0986	25.973155	0.000950	9.495123	3.217035	0.075822
 255	1.2700e-01	10.1404	26.174810	0.000505	5.050597	1.711189	0.040331
 256	1.2750e-01	10.1789	25.836030	-0.000849	-8.485003	-2.874797	-0.067756
 257	1.2800e-01	10.2093	26.130446	0.000737	7.373872	2.498335	0.058883
 258	1.2850e-01	10.2559	26.432928	0.000758	7.575896	2.566783	0.060496
 259	1.2900e-01	10.2992	26.654749	0.000556	5.555657	1.882308	0.044364
 260	1.2950e-01	10.3409	26.501491	-0.000384	-3.838454	-1.300503	-0.030652
 261	1.3000e-01	10.3714	26.610385	0.000273	2.727322	0.924042	0.021779
 262	1.3050e-01	10.4179	26.884635	0.000687	6.868812	2.327217	0.054850
 263	1.3100e-01	10.4580	27.049992	0.000414	4.141490	1.403175	0.033071
