»»»»»»»»»»»»»»»»»»»»»»»»»»»»»»»»»»»» Hysteresis ««««««««««««««««««««««««««««««««««««
»»»  Executed Version:	5.48.1
»»»  Vision Version:	5.48.4 (R)
»»»  Vision Compiled:	9/18/24
»»»  Driver Version:	5.47.0
»»»  Windows Version:	Windows 8 or 8.1
»»»  Processor Information:	x86 (AMD or Intel) - 32 Processors
»»»  Tester Name:	PMF21124-494 (100V)
»»»  Tester S/N:	PMF21124-494
»»»  Internal Amp Type:	100V RevK 270k
»»»  Internal Amp S/N:	iAB2-596/K     
»»»  Execution Count:	1
»»»»»»»»»»»»»»»»»»»»»»»»»»»»»»»»»»»»»»»»»»««««««««««««««««««««««««««««««««««««««««««

Stored:	7/3/2025 - 13:49:22
Configured:	07/03/25 12:01:19 PM
Executed:	07/03/25 01:49:01 PM

»»»»»»»»»»»»»»»»»»»»»»»»»»»»»»»»»»» Sample Info ««««««««««««««««««««««««««««««««««««
Sample Name:	
Lot Name:	
Wafer Name:	
Die Row/Column:	0/0
Capacitor Number:	0
Sample Area (cm2):	1.00e-04
Sample Thickness (microns):	1.50e-01

Amplifier:	Internal

»»»»»»»»»»»»»»»»»»»»»»»»»»»»»»»»»»» Tester Info «««««««««««««««««««««««««««««««««««
Tester Name:	PMF21124-494 (100V)
Tester Serial Number:	PMF21124-494
Return Signal Amp. Level:	0.19 [Index: 3]

»»»»»»»»»»»»»»»»»»»»»»»»»»»»»»»» Hysteresis Info ««««««««««««««««««««««««««««««««««
Task Name:	Hyst-410
Volts:	10.00
Field:	666.67 (kV/cm)
DCBias:	0.00
DCField:	0.00 (kV/cm)
Hysteresis Period (ms):	1.00e+00
Preset:	Enabled
Preset Delay (ms):	1.00e+03
Profile:	Standard Bipolar

»»»»»»»»»»»»»»»»»»»»»»»»»»»»»»»»»»»»»» Data «««««««««««««««««««««««««««««««««««««««
Points:	2001

Valid Data

Point	Time (ms)	Drive Voltage	Measured Polarization (uC/cm2)	Capacitance (uF)	Normalized Capacitance (uF/cm2)	Dielectric Constant	Instantaneous Current (mA)
   1	0.0000e+00	0.0004	2.948195	0.000606	6.057516	1.026171	0.024199
   2	5.0000e-04	0.0109	3.069188	0.000606	6.057516	1.026171	0.024199
   3	1.0000e-03	0.0306	3.266810	0.000989	9.893943	1.676079	0.039524
   4	1.5000e-03	0.0471	3.375704	0.000545	5.451764	0.923554	0.021779
   5	2.0000e-03	0.0673	3.448299	0.000363	3.634510	0.615703	0.014519
   6	2.5000e-03	0.0871	3.601557	0.000767	7.672854	1.299817	0.030652
   7	3.0000e-03	0.1070	3.714484	0.000565	5.653682	0.957760	0.022585
   8	3.5000e-03	0.1282	3.823377	0.000545	5.451764	0.923554	0.021779
   9	4.0000e-03	0.1476	4.008900	0.000929	9.288191	1.573462	0.037105
  10	4.5000e-03	0.1678	4.109727	0.000505	5.047930	0.855142	0.020165
  11	5.0000e-03	0.1877	4.226687	0.000586	5.855599	0.991965	0.023392
  12	5.5000e-03	0.2079	4.404144	0.000888	8.884357	1.505051	0.035491
  13	6.0000e-03	0.2267	4.525137	0.000606	6.057516	1.026171	0.024199
  14	6.5000e-03	0.2476	4.634030	0.000545	5.451764	0.923554	0.021779
  15	7.0000e-03	0.2675	4.795354	0.000808	8.076688	1.368228	0.032265
  16	7.5000e-03	0.2867	4.924413	0.000646	6.461350	1.094582	0.025812
  17	8.0000e-03	0.3079	5.077671	0.000767	7.672854	1.299817	0.030652
  18	8.5000e-03	0.3278	5.222863	0.000727	7.269019	1.231405	0.029038
  19	9.0000e-03	0.3471	5.347889	0.000626	6.259433	1.060377	0.025005
  20	9.5000e-03	0.3677	5.497113	0.000747	7.470936	1.265611	0.029845
  21	1.0000e-02	0.3877	5.626173	0.000646	6.461350	1.094582	0.025812
  22	1.0500e-02	0.4080	5.718934	0.000464	4.644096	0.786731	0.018552
  23	1.1000e-02	0.4283	5.868158	0.000747	7.470936	1.265611	0.029845
  24	1.1500e-02	0.4478	6.049648	0.000909	9.086274	1.539256	0.036298
  25	1.2000e-02	0.4675	6.146442	0.000485	4.846013	0.820937	0.019359
  26	1.2500e-02	0.4882	6.267435	0.000606	6.057516	1.026171	0.024199
  27	1.3000e-02	0.5076	6.436825	0.000848	8.480522	1.436639	0.033878
  28	1.3500e-02	0.5279	6.602182	0.000828	8.278605	1.402434	0.033071
  29	1.4000e-02	0.5473	6.731242	0.000646	6.461350	1.094582	0.025812
  30	1.4500e-02	0.5677	6.836102	0.000525	5.249847	0.889348	0.020972
  31	1.5000e-02	0.5877	6.993393	0.000787	7.874771	1.334022	0.031458
  32	1.5500e-02	0.6080	7.114386	0.000606	6.057516	1.026171	0.024199
  33	1.6000e-02	0.6279	7.316041	0.001010	10.095860	1.710285	0.040331
  34	1.6500e-02	0.6472	7.396703	0.000404	4.038344	0.684114	0.016132
  35	1.7000e-02	0.6677	7.537861	0.000707	7.067102	1.197199	0.028232
  36	1.7500e-02	0.6870	7.634656	0.000485	4.846013	0.820937	0.019359
  37	1.8000e-02	0.7076	7.739516	0.000525	5.249847	0.889348	0.020972
  38	1.8500e-02	0.7273	7.957304	0.001090	10.903529	1.847108	0.043557
  39	1.9000e-02	0.7484	8.118627	0.000808	8.076688	1.368228	0.032265
  40	1.9500e-02	0.7684	8.223488	0.000525	5.249847	0.889348	0.020972
  41	2.0000e-02	0.7873	8.372713	0.000747	7.470936	1.265611	0.029845
  42	2.0500e-02	0.8080	8.489673	0.000586	5.855599	0.991965	0.023392
  43	2.1000e-02	0.8278	8.614699	0.000626	6.259433	1.060377	0.025005
  44	2.1500e-02	0.8476	8.755857	0.000707	7.067102	1.197199	0.028232
  45	2.2000e-02	0.8677	8.945413	0.000949	9.490108	1.607668	0.037911
  46	2.2500e-02	0.8876	9.078505	0.000666	6.663268	1.128788	0.026618
  47	2.3000e-02	0.9084	9.179332	0.000505	5.047930	0.855142	0.020165
  48	2.3500e-02	0.9280	9.324524	0.000727	7.269019	1.231405	0.029038
  49	2.4000e-02	0.9478	9.501980	0.000888	8.884357	1.505051	0.035491
  50	2.4500e-02	0.9671	9.643139	0.000707	7.067102	1.197199	0.028232
  51	2.5000e-02	0.9875	9.764132	0.000606	6.057516	1.026171	0.024199
  52	2.5500e-02	1.0077	9.889158	0.000626	6.259433	1.060377	0.025005
  53	2.6000e-02	1.0287	10.018217	0.000646	6.461350	1.094582	0.025812
  54	2.6500e-02	1.0474	10.187607	0.000848	8.480522	1.436639	0.033878
  55	2.7000e-02	1.0675	10.292468	0.000525	5.249847	0.889348	0.020972
  56	2.7500e-02	1.0873	10.477990	0.000929	9.288191	1.573462	0.037105
  57	2.8000e-02	1.1076	10.627215	0.000747	7.470936	1.265611	0.029845
  58	2.8500e-02	1.1279	10.744175	0.000586	5.855599	0.991965	0.023392
  59	2.9000e-02	1.1483	10.897432	0.000767	7.672854	1.299817	0.030652
  60	2.9500e-02	1.1678	11.046657	0.000747	7.470936	1.265611	0.029845
  61	3.0000e-02	1.1877	11.151518	0.000525	5.249847	0.889348	0.020972
  62	3.0500e-02	1.2090	11.300742	0.000747	7.470936	1.265611	0.029845
  63	3.1000e-02	1.2289	11.514497	0.001070	10.701612	1.812902	0.042751
  64	3.1500e-02	1.2486	11.579026	0.000323	3.230675	0.547291	0.012906
  65	3.2000e-02	1.2684	11.732284	0.000767	7.672854	1.299817	0.030652
  66	3.2500e-02	1.2875	11.925873	0.000969	9.692026	1.641874	0.038718
  67	3.3000e-02	1.3078	12.014601	0.000444	4.442178	0.752525	0.017746
  68	3.3500e-02	1.3275	12.183991	0.000848	8.480522	1.436639	0.033878
  69	3.4000e-02	1.3477	12.317083	0.000666	6.663268	1.128788	0.026618
  70	3.4500e-02	1.3675	12.425977	0.000545	5.451764	0.923554	0.021779
  71	3.5000e-02	1.3885	12.595367	0.000848	8.480522	1.436639	0.033878
  72	3.5500e-02	1.4070	12.720393	0.000626	6.259433	1.060377	0.025005
  73	3.6000e-02	1.4275	12.885750	0.000828	8.278605	1.402434	0.033071
  74	3.6500e-02	1.4472	13.022875	0.000687	6.865185	1.162994	0.027425
  75	3.7000e-02	1.4677	13.212431	0.000949	9.490108	1.607668	0.037911
  76	3.7500e-02	1.4880	13.252762	0.000202	2.019172	0.342057	0.008066
  77	3.8000e-02	1.5080	13.470549	0.001090	10.903529	1.847108	0.043557
  78	3.8500e-02	1.5273	13.607675	0.000687	6.865185	1.162994	0.027425
  79	3.9000e-02	1.5482	13.712535	0.000525	5.249847	0.889348	0.020972
  80	3.9500e-02	1.5678	13.881925	0.000848	8.480522	1.436639	0.033878
  81	4.0000e-02	1.5879	14.019051	0.000687	6.865185	1.162994	0.027425
  82	4.0500e-02	1.6084	14.148110	0.000646	6.461350	1.094582	0.025812
  83	4.1000e-02	1.6272	14.345732	0.000989	9.893943	1.676079	0.039524
  84	4.1500e-02	1.6470	14.462692	0.000586	5.855599	0.991965	0.023392
  85	4.2000e-02	1.6675	14.632082	0.000848	8.480522	1.436639	0.033878
  86	4.2500e-02	1.6866	14.745008	0.000565	5.653682	0.957760	0.022585
  87	4.3000e-02	1.7078	14.886167	0.000707	7.067102	1.197199	0.028232
  88	4.3500e-02	1.7278	15.071689	0.000929	9.288191	1.573462	0.037105
  89	4.4000e-02	1.7480	15.188649	0.000586	5.855599	0.991965	0.023392
  90	4.4500e-02	1.7676	15.349973	0.000808	8.076688	1.368228	0.032265
  91	4.5000e-02	1.7877	15.503231	0.000767	7.672854	1.299817	0.030652
  92	4.5500e-02	1.8081	15.684720	0.000909	9.086274	1.539256	0.036298
  93	4.6000e-02	1.8270	15.777482	0.000464	4.644096	0.786731	0.018552
  94	4.6500e-02	1.8478	15.950905	0.000868	8.682440	1.470845	0.034685
  95	4.7000e-02	1.8672	16.128361	0.000888	8.884357	1.505051	0.035491
  96	4.7500e-02	1.8884	16.241288	0.000565	5.653682	0.957760	0.022585
  97	4.8000e-02	1.9075	16.386480	0.000727	7.269019	1.231405	0.029038
  98	4.8500e-02	1.9275	16.507473	0.000606	6.057516	1.026171	0.024199
  99	4.9000e-02	1.9470	16.705094	0.000989	9.893943	1.676079	0.039524
 100	4.9500e-02	1.9673	16.805922	0.000505	5.047930	0.855142	0.020165
 101	5.0000e-02	1.9885	16.934981	0.000646	6.461350	1.094582	0.025812
 102	5.0500e-02	2.0074	17.116470	0.000909	9.086274	1.539256	0.036298
 103	5.1000e-02	2.0278	17.310059	0.000969	9.692026	1.641874	0.038718
 104	5.1500e-02	2.0482	17.422986	0.000565	5.653682	0.957760	0.022585
 105	5.2000e-02	2.0682	17.543979	0.000606	6.057516	1.026171	0.024199
 106	5.2500e-02	2.0879	17.685137	0.000707	7.067102	1.197199	0.028232
 107	5.3000e-02	2.1079	17.850494	0.000828	8.278605	1.402434	0.033071
 108	5.3500e-02	2.1283	18.027951	0.000888	8.884357	1.505051	0.035491
 109	5.4000e-02	2.1480	18.128778	0.000505	5.047930	0.855142	0.020165
 110	5.4500e-02	2.1680	18.269937	0.000707	7.067102	1.197199	0.028232
 111	5.5000e-02	2.1881	18.394963	0.000626	6.259433	1.060377	0.025005
 112	5.5500e-02	2.2086	18.556287	0.000808	8.076688	1.368228	0.032265
 113	5.6000e-02	2.2256	18.705511	0.000747	7.470936	1.265611	0.029845
 114	5.6500e-02	2.2470	18.903133	0.000989	9.893943	1.676079	0.039524
 115	5.7000e-02	2.2690	19.060424	0.000787	7.874771	1.334022	0.031458
 116	5.7500e-02	2.2876	19.209649	0.000747	7.470936	1.265611	0.029845
 117	5.8000e-02	2.3078	19.350807	0.000707	7.067102	1.197199	0.028232
 118	5.8500e-02	2.3270	19.467767	0.000586	5.855599	0.991965	0.023392
 119	5.9000e-02	2.3474	19.584727	0.000586	5.855599	0.991965	0.023392
 120	5.9500e-02	2.3676	19.790415	0.001030	10.297777	1.744491	0.041138
 121	6.0000e-02	2.3883	19.931573	0.000707	7.067102	1.197199	0.028232
 122	6.0500e-02	2.4084	20.040467	0.000545	5.451764	0.923554	0.021779
 123	6.1000e-02	2.4280	20.213890	0.000868	8.682440	1.470845	0.034685
 124	6.1500e-02	2.4472	20.371181	0.000787	7.874771	1.334022	0.031458
 125	6.2000e-02	2.4683	20.476042	0.000525	5.249847	0.889348	0.020972
 126	6.2500e-02	2.4873	20.641399	0.000828	8.278605	1.402434	0.033071
 127	6.3000e-02	2.5067	20.794656	0.000767	7.672854	1.299817	0.030652
 128	6.3500e-02	2.5284	20.988245	0.000969	9.692026	1.641874	0.038718
 129	6.4000e-02	2.5478	21.141503	0.000767	7.672854	1.299817	0.030652
 130	6.4500e-02	2.5670	21.258463	0.000586	5.855599	0.991965	0.023392
 131	6.5000e-02	2.5876	21.419787	0.000808	8.076688	1.368228	0.032265
 132	6.5500e-02	2.6077	21.564978	0.000727	7.269019	1.231405	0.029038
 133	6.6000e-02	2.6270	21.673872	0.000545	5.451764	0.923554	0.021779
 134	6.6500e-02	2.6468	21.786799	0.000565	5.653682	0.957760	0.022585
 135	6.7000e-02	2.6678	21.980387	0.000969	9.692026	1.641874	0.038718
 136	6.7500e-02	2.6877	22.085248	0.000525	5.249847	0.889348	0.020972
 137	6.8000e-02	2.7077	22.238506	0.000767	7.672854	1.299817	0.030652
 138	6.8500e-02	2.7283	22.411929	0.000868	8.682440	1.470845	0.034685
 139	6.9000e-02	2.7481	22.540988	0.000646	6.461350	1.094582	0.025812
 140	6.9500e-02	2.7679	22.698279	0.000787	7.874771	1.334022	0.031458
 141	7.0000e-02	2.7878	22.839437	0.000707	7.067102	1.197199	0.028232
 142	7.0500e-02	2.8078	23.008828	0.000848	8.480522	1.436639	0.033878
 143	7.1000e-02	2.8281	23.170151	0.000808	8.076688	1.368228	0.032265
 144	7.1500e-02	2.8468	23.351641	0.000909	9.086274	1.539256	0.036298
 145	7.2000e-02	2.8671	23.480700	0.000646	6.461350	1.094582	0.025812
 146	7.2500e-02	2.8867	23.557329	0.000384	3.836427	0.649908	0.015326
 147	7.3000e-02	2.9079	23.730752	0.000868	8.682440	1.470845	0.034685
 148	7.3500e-02	2.9274	23.892076	0.000808	8.076688	1.368228	0.032265
 149	7.4000e-02	2.9475	24.069532	0.000888	8.884357	1.505051	0.035491
 150	7.4500e-02	2.9666	24.190525	0.000606	6.057516	1.026171	0.024199
 151	7.5000e-02	2.9883	24.295386	0.000525	5.249847	0.889348	0.020972
 152	7.5500e-02	3.0080	24.440578	0.000727	7.269019	1.231405	0.029038
 153	7.6000e-02	3.0289	24.634166	0.000969	9.692026	1.641874	0.038718
 154	7.6500e-02	3.0481	24.714828	0.000404	4.038344	0.684114	0.016132
 155	7.7000e-02	3.0688	24.892285	0.000888	8.884357	1.505051	0.035491
 156	7.7500e-02	3.0884	25.097973	0.001030	10.297777	1.744491	0.041138
 157	7.8000e-02	3.1076	25.243164	0.000727	7.269019	1.231405	0.029038
 158	7.8500e-02	3.1274	25.323826	0.000404	4.038344	0.684114	0.016132
 159	7.9000e-02	3.1482	25.485150	0.000808	8.076688	1.368228	0.032265
 160	7.9500e-02	3.1674	25.642441	0.000787	7.874771	1.334022	0.031458
 161	8.0000e-02	3.1873	25.771500	0.000646	6.461350	1.094582	0.025812
 162	8.0500e-02	3.2069	25.981221	0.001050	10.499694	1.778696	0.041944
 163	8.1000e-02	3.2269	26.078016	0.000485	4.846013	0.820937	0.019359
 164	8.1500e-02	3.2465	26.199009	0.000606	6.057516	1.026171	0.024199
 165	8.2000e-02	3.2666	26.344200	0.000727	7.269019	1.231405	0.029038
 166	8.2500e-02	3.2886	26.493425	0.000747	7.470936	1.265611	0.029845
 167	8.3000e-02	3.3081	26.691047	0.000989	9.893943	1.676079	0.039524
 168	8.3500e-02	3.3264	26.791874	0.000505	5.047930	0.855142	0.020165
 169	8.4000e-02	3.3472	26.896735	0.000525	5.249847	0.889348	0.020972
 170	8.4500e-02	3.3676	27.114522	0.001090	10.903529	1.847108	0.043557
 171	8.5000e-02	3.3881	27.219382	0.000525	5.249847	0.889348	0.020972
 172	8.5500e-02	3.4073	27.376673	0.000787	7.874771	1.334022	0.031458
 173	8.6000e-02	3.4277	27.521865	0.000727	7.269019	1.231405	0.029038
 174	8.6500e-02	3.4479	27.671090	0.000747	7.470936	1.265611	0.029845
 175	8.7000e-02	3.4680	27.860645	0.000949	9.490108	1.607668	0.037911
 176	8.7500e-02	3.4871	28.017936	0.000787	7.874771	1.334022	0.031458
 177	8.8000e-02	3.5071	28.094565	0.000384	3.836427	0.649908	0.015326
 178	8.8500e-02	3.5278	28.223624	0.000646	6.461350	1.094582	0.025812
 179	8.9000e-02	3.5486	28.376882	0.000767	7.672854	1.299817	0.030652
 180	8.9500e-02	3.5678	28.522073	0.000727	7.269019	1.231405	0.029038
 181	9.0000e-02	3.5876	28.687430	0.000828	8.278605	1.402434	0.033071
 182	9.0500e-02	3.6079	28.828589	0.000707	7.067102	1.197199	0.028232
 183	9.1000e-02	3.6282	28.973780	0.000727	7.269019	1.231405	0.029038
 184	9.1500e-02	3.6481	29.094773	0.000606	6.057516	1.026171	0.024199
 185	9.2000e-02	3.6684	29.243998	0.000747	7.470936	1.265611	0.029845
 186	9.2500e-02	3.6874	29.385156	0.000707	7.067102	1.197199	0.028232
 187	9.3000e-02	3.7086	29.506149	0.000606	6.057516	1.026171	0.024199
 188	9.3500e-02	3.7286	29.679573	0.000868	8.682440	1.470845	0.034685
 189	9.4000e-02	3.7488	29.865095	0.000929	9.288191	1.573462	0.037105
 190	9.4500e-02	3.7680	29.965923	0.000505	5.047930	0.855142	0.020165
 191	9.5000e-02	3.7885	30.131280	0.000828	8.278605	1.402434	0.033071
 192	9.5500e-02	3.8080	30.252273	0.000606	6.057516	1.026171	0.024199
 193	9.6000e-02	3.8275	30.373266	0.000606	6.057516	1.026171	0.024199
 194	9.6500e-02	3.8477	30.550722	0.000888	8.884357	1.505051	0.035491
 195	9.7000e-02	3.8678	30.667682	0.000586	5.855599	0.991965	0.023392
 196	9.7500e-02	3.8873	30.833039	0.000828	8.278605	1.402434	0.033071
 197	9.8000e-02	3.9081	30.978230	0.000727	7.269019	1.231405	0.029038
 198	9.8500e-02	3.9267	31.087124	0.000545	5.451764	0.923554	0.021779
 199	9.9000e-02	3.9484	31.252481	0.000828	8.278605	1.402434	0.033071
 200	9.9500e-02	3.9679	31.325077	0.000363	3.634510	0.615703	0.014519
 201	1.0000e-01	3.9877	31.498500	0.000868	8.682440	1.470845	0.034685
 202	1.0050e-01	4.0079	31.671923	0.000868	8.682440	1.470845	0.034685
 203	1.0100e-01	4.0283	31.821148	0.000747	7.470936	1.265611	0.029845
 204	1.0150e-01	4.0491	32.006671	0.000929	9.288191	1.573462	0.037105
 205	1.0200e-01	4.0681	32.026836	0.000101	1.009586	0.171028	0.004033
 206	1.0250e-01	4.0881	32.212359	0.000929	9.288191	1.573462	0.037105
 207	1.0300e-01	4.1077	32.353517	0.000707	7.067102	1.197199	0.028232
 208	1.0350e-01	4.1273	32.514841	0.000808	8.076688	1.368228	0.032265
 209	1.0400e-01	4.1479	32.660032	0.000727	7.269019	1.231405	0.029038
 210	1.0450e-01	4.1681	32.764893	0.000525	5.249847	0.889348	0.020972
 211	1.0500e-01	4.1888	32.926217	0.000808	8.076688	1.368228	0.032265
 212	1.0550e-01	4.2072	33.071409	0.000727	7.269019	1.231405	0.029038
 213	1.0600e-01	4.2275	33.184335	0.000565	5.653682	0.957760	0.022585
 214	1.0650e-01	4.2474	33.337593	0.000767	7.672854	1.299817	0.030652
 215	1.0700e-01	4.2682	33.470685	0.000666	6.663268	1.128788	0.026618
 216	1.0750e-01	4.2883	33.619910	0.000747	7.470936	1.265611	0.029845
 217	1.0800e-01	4.3085	33.728804	0.000545	5.451764	0.923554	0.021779
 218	1.0850e-01	4.3286	33.930459	0.001010	10.095860	1.710285	0.040331
 219	1.0900e-01	4.3471	34.075650	0.000727	7.269019	1.231405	0.029038
 220	1.0950e-01	4.3683	34.176478	0.000505	5.047930	0.855142	0.020165
 221	1.1000e-01	4.3878	34.317636	0.000707	7.067102	1.197199	0.028232
 222	1.1050e-01	4.4092	34.503159	0.000929	9.288191	1.573462	0.037105
 223	1.1100e-01	4.4272	34.636251	0.000666	6.663268	1.128788	0.026618
 224	1.1150e-01	4.4473	34.704813	0.000343	3.432592	0.581497	0.013713
 225	1.1200e-01	4.4684	34.850005	0.000727	7.269019	1.231405	0.029038
 226	1.1250e-01	4.4879	34.966965	0.000586	5.855599	0.991965	0.023392
 227	1.1300e-01	4.5081	35.100057	0.000666	6.663268	1.128788	0.026618
 228	1.1350e-01	4.5282	35.269447	0.000848	8.480522	1.436639	0.033878
 229	1.1400e-01	4.5479	35.362209	0.000464	4.644096	0.786731	0.018552
 230	1.1450e-01	4.5682	35.487235	0.000626	6.259433	1.060377	0.025005
 231	1.1500e-01	4.5878	35.713088	0.001131	11.307363	1.915519	0.045171
 232	1.1550e-01	4.6088	35.789717	0.000384	3.836427	0.649908	0.015326
 233	1.1600e-01	4.6289	35.938942	0.000747	7.470936	1.265611	0.029845
 234	1.1650e-01	4.6484	36.084133	0.000727	7.269019	1.231405	0.029038
 235	1.1700e-01	4.6689	36.237391	0.000767	7.672854	1.299817	0.030652
 236	1.1750e-01	4.6887	36.354351	0.000586	5.855599	0.991965	0.023392
 237	1.1800e-01	4.7089	36.471311	0.000586	5.855599	0.991965	0.023392
 238	1.1850e-01	4.7281	36.608436	0.000687	6.865185	1.162994	0.027425
 239	1.1900e-01	4.7479	36.753628	0.000727	7.269019	1.231405	0.029038
 240	1.1950e-01	4.7693	36.878654	0.000626	6.259433	1.060377	0.025005
 241	1.2000e-01	4.7888	37.011746	0.000666	6.663268	1.128788	0.026618
 242	1.2050e-01	4.8083	37.104507	0.000464	4.644096	0.786731	0.018552
 243	1.2100e-01	4.8291	37.245666	0.000707	7.067102	1.197199	0.028232
 244	1.2150e-01	4.8480	37.443287	0.000989	9.893943	1.676079	0.039524
 245	1.2200e-01	4.8688	37.584446	0.000707	7.067102	1.197199	0.028232
 246	1.2250e-01	4.8891	37.737704	0.000767	7.672854	1.299817	0.030652
 247	1.2300e-01	4.9084	37.834498	0.000485	4.846013	0.820937	0.019359
 248	1.2350e-01	4.9288	37.959524	0.000626	6.259433	1.060377	0.025005
 249	1.2400e-01	4.9484	38.104716	0.000727	7.269019	1.231405	0.029038
 250	1.2450e-01	4.9677	38.229742	0.000626	6.259433	1.060377	0.025005
 251	1.2500e-01	4.9896	38.358801	0.000646	6.461350	1.094582	0.025812
 252	1.2550e-01	5.0085	38.540290	0.000909	9.086274	1.539256	0.036298
 253	1.2600e-01	5.0276	38.641118	0.000505	5.047930	0.855142	0.020165
 254	1.2650e-01	5.0497	38.770177	0.000646	6.461350	1.094582	0.025812
 255	1.2700e-01	5.0681	38.875037	0.000525	5.249847	0.889348	0.020972
 256	1.2750e-01	5.0885	38.996030	0.000606	6.057516	1.026171	0.024199
 257	1.2800e-01	5.1089	39.205752	0.001050	10.499694	1.778696	0.041944
 258	1.2850e-01	5.1282	39.302546	0.000485	4.846013	0.820937	0.019359
 259	1.2900e-01	5.1479	39.407406	0.000525	5.249847	0.889348	0.020972
 260	1.2950e-01	5.1691	39.552598	0.000727	7.269019	1.231405	0.029038
 261	1.3000e-01	5.1883	39.705856	0.000767	7.672854	1.299817	0.030652
 262	1.3050e-01	5.2084	39.879279	0.000868	8.682440	1.470845	0.034685
 263	1.3100e-01	5.2283	39.972040	0.000464	4.644096	0.786731	0.018552
 264	1.3150e-01	5.2478	40.056735	0.000424	4.240261	0.718320	0.016939
 265	1.3200e-01	5.2689	40.177728	0.000606	6.057516	1.026171	0.024199
 266	1.3250e-01	5.2887	40.310821	0.000666	6.663268	1.128788	0.026618
