»»»»»»»»»»»»»»»»»»»»»»»»»»»»»»»»»»»» Hysteresis ««««««««««««««««««««««««««««««««««««
»»»  Executed Version:	5.48.1
»»»  Vision Version:	5.48.4 (R)
»»»  Vision Compiled:	9/18/24
»»»  Driver Version:	5.47.0
»»»  Windows Version:	Windows 8 or 8.1
»»»  Processor Information:	x86 (AMD or Intel) - 32 Processors
»»»  Tester Name:	PMF21124-494 (100V)
»»»  Tester S/N:	PMF21124-494
»»»  Internal Amp Type:	100V RevK 270k
»»»  Internal Amp S/N:	iAB2-596/K     
»»»  Execution Count:	1
»»»»»»»»»»»»»»»»»»»»»»»»»»»»»»»»»»»»»»»»»»««««««««««««««««««««««««««««««««««««««««««

Stored:	7/7/2025 - 13:43:7
Configured:	07/07/25 01:27:50 PM
Executed:	07/07/25 01:42:48 PM

»»»»»»»»»»»»»»»»»»»»»»»»»»»»»»»»»»» Sample Info ««««««««««««««««««««««««««««««««««««
Sample Name:	
Lot Name:	
Wafer Name:	
Die Row/Column:	0/0
Capacitor Number:	0
Sample Area (cm2):	1.00e-04
Sample Thickness (microns):	1.50e-01

Amplifier:	Internal

»»»»»»»»»»»»»»»»»»»»»»»»»»»»»»»»»»» Tester Info «««««««««««««««««««««««««««««««««««
Tester Name:	PMF21124-494 (100V)
Tester Serial Number:	PMF21124-494
Return Signal Amp. Level:	0.19 [Index: 3]

»»»»»»»»»»»»»»»»»»»»»»»»»»»»»»»» Hysteresis Info ««««««««««««««««««««««««««««««««««
Task Name:	Hyst-528
Volts:	10.00
Field:	666.67 (kV/cm)
DCBias:	0.00
DCField:	0.00 (kV/cm)
Hysteresis Period (ms):	1.00e+00
Preset:	Enabled
Preset Delay (ms):	1.00e+03
Profile:	Standard Bipolar

»»»»»»»»»»»»»»»»»»»»»»»»»»»»»»»»»»»»»» Data «««««««««««««««««««««««««««««««««««««««
Points:	2001

Valid Data

Point	Time (ms)	Drive Voltage	Measured Polarization (uC/cm2)	Capacitance (uF)	Normalized Capacitance (uF/cm2)	Dielectric Constant	Instantaneous Current (mA)
   1	0.0000e+00	0.0006	-4.732841	0.000545	5.451088	0.923439	0.021779
   2	5.0000e-04	0.0125	-4.623948	0.000545	5.451088	0.923439	0.021779
   3	1.0000e-03	0.0303	-4.470690	0.000767	7.671901	1.299655	0.030652
   4	1.5000e-03	0.0490	-4.361796	0.000545	5.451088	0.923439	0.021779
   5	2.0000e-03	0.0687	-4.260969	0.000505	5.047303	0.855036	0.020165
   6	2.5000e-03	0.0890	-4.160141	0.000505	5.047303	0.855036	0.020165
   7	3.0000e-03	0.1088	-4.063347	0.000485	4.845411	0.820835	0.019359
   8	3.5000e-03	0.1282	-3.950420	0.000565	5.652980	0.957641	0.022585
   9	4.0000e-03	0.1491	-3.877824	0.000363	3.634058	0.615626	0.014519
  10	4.5000e-03	0.1685	-3.740699	0.000686	6.864333	1.162849	0.027425
  11	5.0000e-03	0.1892	-3.635838	0.000525	5.249196	0.889238	0.020972
  12	5.5000e-03	0.2091	-3.518879	0.000585	5.854872	0.991842	0.023392
  13	6.0000e-03	0.2279	-3.426117	0.000464	4.643519	0.786633	0.018552
  14	6.5000e-03	0.2488	-3.293025	0.000666	6.662441	1.128648	0.026618
  15	7.0000e-03	0.2695	-3.188164	0.000525	5.249196	0.889238	0.020972
  16	7.5000e-03	0.2888	-3.083304	0.000525	5.249196	0.889238	0.020972
  17	8.0000e-03	0.3093	-2.990543	0.000464	4.643519	0.786633	0.018552
  18	8.5000e-03	0.3288	-2.865517	0.000626	6.258656	1.060245	0.025005
  19	9.0000e-03	0.3496	-2.756623	0.000545	5.451088	0.923439	0.021779
  20	9.5000e-03	0.3688	-2.692093	0.000323	3.230274	0.547223	0.012906
  21	1.0000e-02	0.3895	-2.534802	0.000787	7.873793	1.333857	0.031458
  22	1.0500e-02	0.4093	-2.421876	0.000565	5.652980	0.957641	0.022585
  23	1.1000e-02	0.4289	-2.321048	0.000505	5.047303	0.855036	0.020165
  24	1.1500e-02	0.4491	-2.240386	0.000404	4.037843	0.684029	0.016132
  25	1.2000e-02	0.4691	-2.175857	0.000323	3.230274	0.547223	0.012906
  26	1.2500e-02	0.4892	-1.986301	0.000949	9.488931	1.607468	0.037911
  27	1.3000e-02	0.5093	-1.849176	0.000686	6.864333	1.162849	0.027425
  28	1.3500e-02	0.5289	-1.728183	0.000606	6.056764	1.026044	0.024199
  29	1.4000e-02	0.5488	-1.675752	0.000262	2.624598	0.444619	0.010486
  30	1.4500e-02	0.5679	-1.538627	0.000686	6.864333	1.162849	0.027425
  31	1.5000e-02	0.5893	-1.457965	0.000404	4.037843	0.684029	0.016132
  32	1.5500e-02	0.6090	-1.328906	0.000646	6.460548	1.094447	0.025812
  33	1.6000e-02	0.6300	-1.244211	0.000424	4.239735	0.718231	0.016939
  34	1.6500e-02	0.6470	-1.066755	0.000888	8.883254	1.504864	0.035491
  35	1.7000e-02	0.6683	-0.986093	0.000404	4.037843	0.684029	0.016132
  36	1.7500e-02	0.6898	-0.853000	0.000666	6.662441	1.128648	0.026618
  37	1.8000e-02	0.7089	-0.760239	0.000464	4.643519	0.786633	0.018552
  38	1.8500e-02	0.7291	-0.695710	0.000323	3.230274	0.547223	0.012906
  39	1.9000e-02	0.7487	-0.538419	0.000787	7.873793	1.333857	0.031458
  40	1.9500e-02	0.7683	-0.473889	0.000323	3.230274	0.547223	0.012906
  41	2.0000e-02	0.7889	-0.360962	0.000565	5.652980	0.957641	0.022585
  42	2.0500e-02	0.8094	-0.195605	0.000828	8.277578	1.402260	0.033071
  43	2.1000e-02	0.8290	-0.127043	0.000343	3.432166	0.581425	0.013713
  44	2.1500e-02	0.8494	0.050414	0.000888	8.883254	1.504864	0.035491
  45	2.2000e-02	0.8681	0.195605	0.000727	7.268117	1.231252	0.029038
  46	2.2500e-02	0.8887	0.264168	0.000343	3.432166	0.581425	0.013713
  47	2.3000e-02	0.9098	0.344830	0.000404	4.037843	0.684029	0.016132
  48	2.3500e-02	0.9295	0.469856	0.000626	6.258656	1.060245	0.025005
  49	2.4000e-02	0.9497	0.578750	0.000545	5.451088	0.923439	0.021779
  50	2.4500e-02	0.9692	0.671511	0.000464	4.643519	0.786633	0.018552
  51	2.5000e-02	0.9884	0.776371	0.000525	5.249196	0.889238	0.020972
  52	2.5500e-02	1.0079	0.933662	0.000787	7.873793	1.333857	0.031458
  53	2.6000e-02	1.0294	1.026424	0.000464	4.643519	0.786633	0.018552
  54	2.6500e-02	1.0490	1.159516	0.000666	6.662441	1.128648	0.026618
  55	2.7000e-02	1.0694	1.207913	0.000242	2.422706	0.410417	0.009679
  56	2.7500e-02	1.0896	1.373270	0.000828	8.277578	1.402260	0.033071
  57	2.8000e-02	1.1103	1.482164	0.000545	5.451088	0.923439	0.021779
  58	2.8500e-02	1.1292	1.558793	0.000384	3.835951	0.649828	0.015326
  59	2.9000e-02	1.1491	1.736249	0.000888	8.883254	1.504864	0.035491
  60	2.9500e-02	1.1691	1.780613	0.000222	2.220814	0.376216	0.008873
  61	3.0000e-02	1.1890	1.921771	0.000707	7.066225	1.197051	0.028232
  62	3.0500e-02	1.2095	2.022599	0.000505	5.047303	0.855036	0.020165
  63	3.1000e-02	1.2297	2.143592	0.000606	6.056764	1.026044	0.024199
  64	3.1500e-02	1.2488	2.204088	0.000303	3.028382	0.513022	0.012099
  65	3.2000e-02	1.2701	2.349280	0.000727	7.268117	1.231252	0.029038
  66	3.2500e-02	1.2895	2.486405	0.000686	6.864333	1.162849	0.027425
  67	3.3000e-02	1.3083	2.595299	0.000545	5.451088	0.923439	0.021779
  68	3.3500e-02	1.3272	2.720325	0.000626	6.258656	1.060245	0.025005
  69	3.4000e-02	1.3479	2.821152	0.000505	5.047303	0.855036	0.020165
  70	3.4500e-02	1.3690	2.893748	0.000363	3.634058	0.615626	0.014519
  71	3.5000e-02	1.3889	3.026841	0.000666	6.662441	1.128648	0.026618
  72	3.5500e-02	1.4091	3.107502	0.000404	4.037843	0.684029	0.016132
  73	3.6000e-02	1.4291	3.260760	0.000767	7.671901	1.299655	0.030652
  74	3.6500e-02	1.4484	3.389819	0.000646	6.460548	1.094447	0.025812
  75	3.7000e-02	1.4682	3.450316	0.000303	3.028382	0.513022	0.012099
  76	3.7500e-02	1.4893	3.611640	0.000808	8.075686	1.368058	0.032265
  77	3.8000e-02	1.5079	3.680202	0.000343	3.432166	0.581425	0.013713
  78	3.8500e-02	1.5292	3.797162	0.000585	5.854872	0.991842	0.023392
  79	3.9000e-02	1.5481	3.934288	0.000686	6.864333	1.162849	0.027425
  80	3.9500e-02	1.5694	4.018983	0.000424	4.239735	0.718231	0.016939
  81	4.0000e-02	1.5900	4.164174	0.000727	7.268117	1.231252	0.029038
  82	4.0500e-02	1.6087	4.309366	0.000727	7.268117	1.231252	0.029038
  83	4.1000e-02	1.6278	4.357763	0.000242	2.422706	0.410417	0.009679
  84	4.1500e-02	1.6498	4.515054	0.000787	7.873793	1.333857	0.031458
  85	4.2000e-02	1.6692	4.623948	0.000545	5.451088	0.923439	0.021779
  86	4.2500e-02	1.6891	4.765106	0.000707	7.066225	1.197051	0.028232
  87	4.3000e-02	1.7084	4.813503	0.000242	2.422706	0.410417	0.009679
  88	4.3500e-02	1.7296	4.966761	0.000767	7.671901	1.299655	0.030652
  89	4.4000e-02	1.7493	5.136151	0.000848	8.479470	1.436461	0.033878
  90	4.4500e-02	1.7690	5.192614	0.000283	2.826490	0.478820	0.011293
  91	4.5000e-02	1.7889	5.285376	0.000464	4.643519	0.786633	0.018552
  92	4.5500e-02	1.8095	5.422501	0.000686	6.864333	1.162849	0.027425
  93	4.6000e-02	1.8301	5.587858	0.000828	8.277578	1.402260	0.033071
  94	4.6500e-02	1.8488	5.668520	0.000404	4.037843	0.684029	0.016132
  95	4.7000e-02	1.8694	5.761281	0.000464	4.643519	0.786633	0.018552
  96	4.7500e-02	1.8906	5.910506	0.000747	7.470009	1.265454	0.029845
  97	4.8000e-02	1.9089	6.015367	0.000525	5.249196	0.889238	0.020972
  98	4.8500e-02	1.9302	6.128293	0.000565	5.652980	0.957641	0.022585
  99	4.9000e-02	1.9490	6.249286	0.000606	6.056764	1.026044	0.024199
 100	4.9500e-02	1.9696	6.350114	0.000505	5.047303	0.855036	0.020165
 101	5.0000e-02	1.9893	6.503371	0.000767	7.671901	1.299655	0.030652
 102	5.0500e-02	2.0088	6.596133	0.000464	4.643519	0.786633	0.018552
 103	5.1000e-02	2.0291	6.680828	0.000424	4.239735	0.718231	0.016939
 104	5.1500e-02	2.0488	6.817953	0.000686	6.864333	1.162849	0.027425
 105	5.2000e-02	2.0699	6.898615	0.000404	4.037843	0.684029	0.016132
 106	5.2500e-02	2.0896	7.027674	0.000646	6.460548	1.094447	0.025812
 107	5.3000e-02	2.1091	7.144634	0.000585	5.854872	0.991842	0.023392
 108	5.3500e-02	2.1301	7.281760	0.000686	6.864333	1.162849	0.027425
 109	5.4000e-02	2.1490	7.402752	0.000606	6.056764	1.026044	0.024199
 110	5.4500e-02	2.1688	7.564076	0.000808	8.075686	1.368058	0.032265
 111	5.5000e-02	2.1887	7.600374	0.000182	1.817029	0.307813	0.007260
 112	5.5500e-02	2.2089	7.749599	0.000747	7.470009	1.265454	0.029845
 113	5.6000e-02	2.2296	7.858493	0.000545	5.451088	0.923439	0.021779
 114	5.6500e-02	2.2498	7.979486	0.000606	6.056764	1.026044	0.024199
 115	5.7000e-02	2.2690	8.044015	0.000323	3.230274	0.547223	0.012906
 116	5.7500e-02	2.2899	8.213405	0.000848	8.479470	1.436461	0.033878
 117	5.8000e-02	2.3087	8.334398	0.000606	6.056764	1.026044	0.024199
 118	5.8500e-02	2.3294	8.427160	0.000464	4.643519	0.786633	0.018552
 119	5.9000e-02	2.3491	8.540086	0.000565	5.652980	0.957641	0.022585
 120	5.9500e-02	2.3695	8.661079	0.000606	6.056764	1.026044	0.024199
 121	6.0000e-02	2.3895	8.830469	0.000848	8.479470	1.436461	0.033878
 122	6.0500e-02	2.4091	8.947429	0.000585	5.854872	0.991842	0.023392
 123	6.1000e-02	2.4274	8.995826	0.000242	2.422706	0.410417	0.009679
 124	6.1500e-02	2.4484	9.096654	0.000505	5.047303	0.855036	0.020165
 125	6.2000e-02	2.4698	9.253945	0.000787	7.873793	1.333857	0.031458
 126	6.2500e-02	2.4890	9.358805	0.000525	5.249196	0.889238	0.020972
 127	6.3000e-02	2.5090	9.467699	0.000545	5.451088	0.923439	0.021779
 128	6.3500e-02	2.5305	9.564493	0.000485	4.845411	0.820835	0.019359
 129	6.4000e-02	2.5493	9.713718	0.000747	7.470009	1.265454	0.029845
 130	6.4500e-02	2.5687	9.846810	0.000666	6.662441	1.128648	0.026618
 131	6.5000e-02	2.5891	9.967803	0.000606	6.056764	1.026044	0.024199
 132	6.5500e-02	2.6093	10.060564	0.000464	4.643519	0.786633	0.018552
 133	6.6000e-02	2.6295	10.145260	0.000424	4.239735	0.718231	0.016939
 134	6.6500e-02	2.6496	10.294484	0.000747	7.470009	1.265454	0.029845
 135	6.7000e-02	2.6691	10.399345	0.000525	5.249196	0.889238	0.020972
 136	6.7500e-02	2.6892	10.504205	0.000525	5.249196	0.889238	0.020972
 137	6.8000e-02	2.7090	10.629231	0.000626	6.258656	1.060245	0.025005
 138	6.8500e-02	2.7297	10.738125	0.000545	5.451088	0.923439	0.021779
 139	6.9000e-02	2.7484	10.859118	0.000606	6.056764	1.026044	0.024199
 140	6.9500e-02	2.7692	10.992210	0.000666	6.662441	1.128648	0.026618
 141	7.0000e-02	2.7896	11.084972	0.000464	4.643519	0.786633	0.018552
 142	7.0500e-02	2.8098	11.173700	0.000444	4.441627	0.752432	0.017746
 143	7.1000e-02	2.8304	11.274527	0.000505	5.047303	0.855036	0.020165
 144	7.1500e-02	2.8497	11.411652	0.000686	6.864333	1.162849	0.027425
 145	7.2000e-02	2.8699	11.552811	0.000707	7.066225	1.197051	0.028232
 146	7.2500e-02	2.8891	11.722201	0.000848	8.479470	1.436461	0.033878
 147	7.3000e-02	2.9102	11.802863	0.000404	4.037843	0.684029	0.016132
 148	7.3500e-02	2.9301	11.859326	0.000283	2.826490	0.478820	0.011293
 149	7.4000e-02	2.9492	12.048882	0.000949	9.488931	1.607468	0.037911
 150	7.4500e-02	2.9704	12.149710	0.000505	5.047303	0.855036	0.020165
 151	7.5000e-02	2.9901	12.250537	0.000505	5.047303	0.855036	0.020165
 152	7.5500e-02	3.0096	12.355398	0.000525	5.249196	0.889238	0.020972
 153	7.6000e-02	3.0298	12.484457	0.000646	6.460548	1.094447	0.025812
 154	7.6500e-02	3.0502	12.561086	0.000384	3.835951	0.649828	0.015326
 155	7.7000e-02	3.0692	12.661913	0.000505	5.047303	0.855036	0.020165
 156	7.7500e-02	3.0899	12.786939	0.000626	6.258656	1.060245	0.025005
 157	7.8000e-02	3.1104	12.956329	0.000848	8.479470	1.436461	0.033878
 158	7.8500e-02	3.1299	13.032958	0.000384	3.835951	0.649828	0.015326
 159	7.9000e-02	3.1506	13.153951	0.000606	6.056764	1.026044	0.024199
 160	7.9500e-02	3.1696	13.266878	0.000565	5.652980	0.957641	0.022585
 161	8.0000e-02	3.1898	13.412069	0.000727	7.268117	1.231252	0.029038
 162	8.0500e-02	3.2101	13.512897	0.000505	5.047303	0.855036	0.020165
 163	8.1000e-02	3.2292	13.650022	0.000686	6.864333	1.162849	0.027425
 164	8.1500e-02	3.2496	13.771015	0.000606	6.056764	1.026044	0.024199
 165	8.2000e-02	3.2707	13.859743	0.000444	4.441627	0.752432	0.017746
 166	8.2500e-02	3.2899	13.984769	0.000626	6.258656	1.060245	0.025005
 167	8.3000e-02	3.3087	14.097696	0.000565	5.652980	0.957641	0.022585
 168	8.3500e-02	3.3298	14.206590	0.000545	5.451088	0.923439	0.021779
 169	8.4000e-02	3.3504	14.307417	0.000505	5.047303	0.855036	0.020165
 170	8.4500e-02	3.3694	14.420344	0.000565	5.652980	0.957641	0.022585
 171	8.5000e-02	3.3896	14.521172	0.000505	5.047303	0.855036	0.020165
 172	8.5500e-02	3.4097	14.662330	0.000707	7.066225	1.197051	0.028232
 173	8.6000e-02	3.4302	14.775257	0.000565	5.652980	0.957641	0.022585
 174	8.6500e-02	3.4497	14.892217	0.000585	5.854872	0.991842	0.023392
 175	8.7000e-02	3.4700	15.017243	0.000626	6.258656	1.060245	0.025005
 176	8.7500e-02	3.4900	15.118070	0.000505	5.047303	0.855036	0.020165
 177	8.8000e-02	3.5101	15.230997	0.000565	5.652980	0.957641	0.022585
 178	8.8500e-02	3.5297	15.327791	0.000485	4.845411	0.820835	0.019359
 179	8.9000e-02	3.5502	15.420553	0.000464	4.643519	0.786633	0.018552
 180	8.9500e-02	3.5690	15.533479	0.000565	5.652980	0.957641	0.022585
 181	9.0000e-02	3.5889	15.682704	0.000747	7.470009	1.265454	0.029845
 182	9.0500e-02	3.6099	15.771432	0.000444	4.441627	0.752432	0.017746
 183	9.1000e-02	3.6298	15.928723	0.000787	7.873793	1.333857	0.031458
 184	9.1500e-02	3.6504	16.037617	0.000545	5.451088	0.923439	0.021779
 185	9.2000e-02	3.6703	16.114245	0.000384	3.835951	0.649828	0.015326
 186	9.2500e-02	3.6884	16.211040	0.000485	4.845411	0.820835	0.019359
 187	9.3000e-02	3.7099	16.299768	0.000444	4.441627	0.752432	0.017746
 188	9.3500e-02	3.7296	16.440926	0.000707	7.066225	1.197051	0.028232
 189	9.4000e-02	3.7506	16.569986	0.000646	6.460548	1.094447	0.025812
 190	9.4500e-02	3.7695	16.666780	0.000485	4.845411	0.820835	0.019359
 191	9.5000e-02	3.7912	16.816005	0.000747	7.470009	1.265454	0.029845
 192	9.5500e-02	3.8101	16.896667	0.000404	4.037843	0.684029	0.016132
 193	9.6000e-02	3.8295	17.029759	0.000666	6.662441	1.128648	0.026618
 194	9.6500e-02	3.8495	17.191083	0.000808	8.075686	1.368058	0.032265
 195	9.7000e-02	3.8693	17.211248	0.000101	1.009461	0.171007	0.004033
 196	9.7500e-02	3.8904	17.364506	0.000767	7.671901	1.299655	0.030652
 197	9.8000e-02	3.9101	17.441135	0.000384	3.835951	0.649828	0.015326
 198	9.8500e-02	3.9301	17.545995	0.000525	5.249196	0.889238	0.020972
 199	9.9000e-02	3.9502	17.695220	0.000747	7.470009	1.265454	0.029845
 200	9.9500e-02	3.9685	17.808147	0.000565	5.652980	0.957641	0.022585
 201	1.0000e-01	3.9905	17.908974	0.000505	5.047303	0.855036	0.020165
 202	1.0050e-01	4.0112	17.981570	0.000363	3.634058	0.615626	0.014519
 203	1.0100e-01	4.0302	18.082398	0.000505	5.047303	0.855036	0.020165
 204	1.0150e-01	4.0498	18.163060	0.000404	4.037843	0.684029	0.016132
 205	1.0200e-01	4.0695	18.409079	0.001232	12.315420	2.086289	0.049204
 206	1.0250e-01	4.0906	18.538138	0.000646	6.460548	1.094447	0.025812
 207	1.0300e-01	4.1107	18.574436	0.000182	1.817029	0.307813	0.007260
 208	1.0350e-01	4.1298	18.647031	0.000363	3.634058	0.615626	0.014519
 209	1.0400e-01	4.1510	18.824488	0.000888	8.883254	1.504864	0.035491
 210	1.0450e-01	4.1699	18.929348	0.000525	5.249196	0.889238	0.020972
 211	1.0500e-01	4.1901	18.985812	0.000283	2.826490	0.478820	0.011293
 212	1.0550e-01	4.2102	19.139069	0.000767	7.671901	1.299655	0.030652
 213	1.0600e-01	4.2310	19.260062	0.000606	6.056764	1.026044	0.024199
 214	1.0650e-01	4.2506	19.352824	0.000464	4.643519	0.786633	0.018552
 215	1.0700e-01	4.2708	19.477850	0.000626	6.258656	1.060245	0.025005
 216	1.0750e-01	4.2902	19.530280	0.000262	2.624598	0.444619	0.010486
 217	1.0800e-01	4.3105	19.647240	0.000585	5.854872	0.991842	0.023392
 218	1.0850e-01	4.3301	19.772266	0.000626	6.258656	1.060245	0.025005
 219	1.0900e-01	4.3500	19.873093	0.000505	5.047303	0.855036	0.020165
 220	1.0950e-01	4.3695	19.998119	0.000626	6.258656	1.060245	0.025005
 221	1.1000e-01	4.3909	20.159443	0.000808	8.075686	1.368058	0.032265
 222	1.1050e-01	4.4119	20.215907	0.000283	2.826490	0.478820	0.011293
 223	1.1100e-01	4.4302	20.320767	0.000525	5.249196	0.889238	0.020972
 224	1.1150e-01	4.4498	20.397396	0.000384	3.835951	0.649828	0.015326
 225	1.1200e-01	4.4704	20.526455	0.000646	6.460548	1.094447	0.025812
 226	1.1250e-01	4.4911	20.675680	0.000747	7.470009	1.265454	0.029845
 227	1.1300e-01	4.5096	20.740210	0.000323	3.230274	0.547223	0.012906
 228	1.1350e-01	4.5300	20.828938	0.000444	4.441627	0.752432	0.017746
 229	1.1400e-01	4.5511	20.929765	0.000505	5.047303	0.855036	0.020165
 230	1.1450e-01	4.5703	21.006394	0.000384	3.835951	0.649828	0.015326
 231	1.1500e-01	4.5906	21.155619	0.000747	7.470009	1.265454	0.029845
 232	1.1550e-01	4.6106	21.256446	0.000505	5.047303	0.855036	0.020165
 233	1.1600e-01	4.6307	21.385505	0.000646	6.460548	1.094447	0.025812
 234	1.1650e-01	4.6506	21.405671	0.000101	1.009461	0.171007	0.004033
 235	1.1700e-01	4.6710	21.599260	0.000969	9.690823	1.641670	0.038718
 236	1.1750e-01	4.6918	21.708153	0.000545	5.451088	0.923439	0.021779
 237	1.1800e-01	4.7101	21.837212	0.000646	6.460548	1.094447	0.025812
 238	1.1850e-01	4.7305	21.958205	0.000606	6.056764	1.026044	0.024199
 239	1.1900e-01	4.7510	22.010636	0.000262	2.624598	0.444619	0.010486
 240	1.1950e-01	4.7707	22.167926	0.000787	7.873793	1.333857	0.031458
 241	1.2000e-01	4.7908	22.276820	0.000545	5.451088	0.923439	0.021779
 242	1.2050e-01	4.8108	22.385714	0.000545	5.451088	0.923439	0.021779
 243	1.2100e-01	4.8303	22.486541	0.000505	5.047303	0.855036	0.020165
 244	1.2150e-01	4.8511	22.559137	0.000363	3.634058	0.615626	0.014519
 245	1.2200e-01	4.8712	22.639799	0.000404	4.037843	0.684029	0.016132
 246	1.2250e-01	4.8898	22.744660	0.000525	5.249196	0.889238	0.020972
 247	1.2300e-01	4.9106	22.893884	0.000747	7.470009	1.265454	0.029845
 248	1.2350e-01	4.9306	23.022943	0.000646	6.460548	1.094447	0.025812
 249	1.2400e-01	4.9518	23.047142	0.000121	1.211353	0.205209	0.004840
 250	1.2450e-01	4.9706	23.220565	0.000868	8.681362	1.470663	0.034685
 251	1.2500e-01	4.9910	23.305260	0.000424	4.239735	0.718231	0.016939
 252	1.2550e-01	5.0110	23.406088	0.000505	5.047303	0.855036	0.020165
 253	1.2600e-01	5.0311	23.527081	0.000606	6.056764	1.026044	0.024199
 254	1.2650e-01	5.0519	23.640007	0.000565	5.652980	0.957641	0.022585
 255	1.2700e-01	5.0705	23.696471	0.000283	2.826490	0.478820	0.011293
 256	1.2750e-01	5.0916	23.785199	0.000444	4.441627	0.752432	0.017746
 257	1.2800e-01	5.1112	23.930391	0.000727	7.268117	1.231252	0.029038
 258	1.2850e-01	5.1300	24.043317	0.000565	5.652980	0.957641	0.022585
 259	1.2900e-01	5.1511	24.180443	0.000686	6.864333	1.162849	0.027425
 260	1.2950e-01	5.1703	24.289336	0.000545	5.451088	0.923439	0.021779
 261	1.3000e-01	5.1912	24.321601	0.000162	1.615137	0.273612	0.006453
 262	1.3050e-01	5.2100	24.422429	0.000505	5.047303	0.855036	0.020165
 263	1.3100e-01	5.2307	24.499057	0.000384	3.835951	0.649828	0.015326
 264	1.3150e-01	5.2509	24.640216	0.000707	7.066225	1.197051	0.028232
 265	1.3200e-01	5.2705	24.801540	0.000808	8.075686	1.368058	0.032265
 266	1.3250e-01	5.2905	24.910434	0.000545	5.451088	0.923439	0.021779
 267	1.3300e-01	5.3107	24.983029	0.000363	3.634058	0.615626	0.014519
