»»»»»»»»»»»»»»»»»»»»»»»»»»»»»»»»»»»» Hysteresis ««««««««««««««««««««««««««««««««««««
»»»  Executed Version:	5.48.1
»»»  Vision Version:	5.48.4 (R)
»»»  Vision Compiled:	9/18/24
»»»  Driver Version:	5.47.0
»»»  Windows Version:	Windows 8 or 8.1
»»»  Processor Information:	x86 (AMD or Intel) - 32 Processors
»»»  Tester Name:	PMF21124-494 (100V)
»»»  Tester S/N:	PMF21124-494
»»»  Internal Amp Type:	100V RevK 270k
»»»  Internal Amp S/N:	iAB2-596/K     
»»»  Execution Count:	1
»»»»»»»»»»»»»»»»»»»»»»»»»»»»»»»»»»»»»»»»»»««««««««««««««««««««««««««««««««««««««««««

Stored:	7/7/2025 - 13:34:27
Configured:	07/07/25 01:27:50 PM
Executed:	07/07/25 01:34:07 PM

»»»»»»»»»»»»»»»»»»»»»»»»»»»»»»»»»»» Sample Info ««««««««««««««««««««««««««««««««««««
Sample Name:	
Lot Name:	
Wafer Name:	
Die Row/Column:	0/0
Capacitor Number:	0
Sample Area (cm2):	1.00e-04
Sample Thickness (microns):	1.50e-01

Amplifier:	Internal

»»»»»»»»»»»»»»»»»»»»»»»»»»»»»»»»»»» Tester Info «««««««««««««««««««««««««««««««««««
Tester Name:	PMF21124-494 (100V)
Tester Serial Number:	PMF21124-494
Return Signal Amp. Level:	0.19 [Index: 3]

»»»»»»»»»»»»»»»»»»»»»»»»»»»»»»»» Hysteresis Info ««««««««««««««««««««««««««««««««««
Task Name:	Hyst-528
Volts:	10.00
Field:	666.67 (kV/cm)
DCBias:	0.00
DCField:	0.00 (kV/cm)
Hysteresis Period (ms):	1.00e+00
Preset:	Enabled
Preset Delay (ms):	1.00e+03
Profile:	Standard Bipolar

»»»»»»»»»»»»»»»»»»»»»»»»»»»»»»»»»»»»»» Data «««««««««««««««««««««««««««««««««««««««
Points:	2001

Valid Data

Point	Time (ms)	Drive Voltage	Measured Polarization (uC/cm2)	Capacitance (uF)	Normalized Capacitance (uF/cm2)	Dielectric Constant	Instantaneous Current (mA)
   1	0.0000e+00	0.0014	-1.002225	0.000525	5.248745	0.889161	0.020972
   2	5.0000e-04	0.0127	-0.897364	0.000525	5.248745	0.889161	0.020972
   3	1.0000e-03	0.0301	-0.800570	0.000484	4.844995	0.820764	0.019359
   4	1.5000e-03	0.0500	-0.679577	0.000606	6.056244	1.025955	0.024199
   5	2.0000e-03	0.0703	-0.566650	0.000565	5.652494	0.957558	0.022585
   6	2.5000e-03	0.0903	-0.518253	0.000242	2.422497	0.410382	0.009679
   7	3.0000e-03	0.1100	-0.360962	0.000787	7.873117	1.333742	0.031458
   8	3.5000e-03	0.1298	-0.203671	0.000787	7.873117	1.333742	0.031458
   9	4.0000e-03	0.1492	-0.110910	0.000464	4.643120	0.786566	0.018552
  10	4.5000e-03	0.1698	0.030248	0.000707	7.065618	1.196948	0.028232
  11	5.0000e-03	0.1897	0.195605	0.000828	8.276866	1.402139	0.033071
  12	5.5000e-03	0.2089	0.280300	0.000424	4.239371	0.718169	0.016939
  13	6.0000e-03	0.2306	0.413393	0.000666	6.661868	1.128551	0.026618
  14	6.5000e-03	0.2493	0.538419	0.000626	6.258119	1.060154	0.025005
  15	7.0000e-03	0.2699	0.715875	0.000888	8.882491	1.504735	0.035491
  16	7.5000e-03	0.2892	0.788471	0.000363	3.633746	0.615573	0.014519
  17	8.0000e-03	0.3099	0.881232	0.000464	4.643120	0.786566	0.018552
  18	8.5000e-03	0.3294	1.042556	0.000807	8.074992	1.367941	0.032265
  19	9.0000e-03	0.3504	1.179681	0.000686	6.863743	1.162750	0.027425
  20	9.5000e-03	0.3689	1.276476	0.000484	4.844995	0.820764	0.019359
  21	1.0000e-02	0.3893	1.421667	0.000727	7.267492	1.231147	0.029038
  22	1.0500e-02	0.4095	1.562826	0.000707	7.065618	1.196948	0.028232
  23	1.1000e-02	0.4294	1.655587	0.000464	4.643120	0.786566	0.018552
  24	1.1500e-02	0.4483	1.841110	0.000929	9.286240	1.573132	0.037105
  25	1.2000e-02	0.4688	1.917738	0.000384	3.835621	0.649772	0.015326
  26	1.2500e-02	0.4893	2.042764	0.000626	6.258119	1.060154	0.025005
  27	1.3000e-02	0.5102	2.143592	0.000505	5.046870	0.854963	0.020165
  28	1.3500e-02	0.5291	2.244419	0.000505	5.046870	0.854963	0.020165
  29	1.4000e-02	0.5499	2.446074	0.001009	10.093740	1.709926	0.040331
  30	1.4500e-02	0.5695	2.559001	0.000565	5.652494	0.957558	0.022585
  31	1.5000e-02	0.5903	2.655795	0.000484	4.844995	0.820764	0.019359
  32	1.5500e-02	0.6097	2.752590	0.000484	4.844995	0.820764	0.019359
  33	1.6000e-02	0.6310	2.966344	0.001070	10.699364	1.812521	0.042751
  34	1.6500e-02	0.6502	3.119602	0.000767	7.671242	1.299544	0.030652
  35	1.7000e-02	0.6692	3.176065	0.000283	2.826247	0.478779	0.011293
  36	1.7500e-02	0.6899	3.329323	0.000767	7.671242	1.299544	0.030652
  37	1.8000e-02	0.7104	3.486614	0.000787	7.873117	1.333742	0.031458
  38	1.8500e-02	0.7294	3.543077	0.000283	2.826247	0.478779	0.011293
  39	1.9000e-02	0.7502	3.684236	0.000707	7.065618	1.196948	0.028232
  40	1.9500e-02	0.7693	3.801195	0.000585	5.854369	0.991757	0.023392
  41	2.0000e-02	0.7906	3.970586	0.000848	8.478741	1.436338	0.033878
  42	2.0500e-02	0.8099	4.075446	0.000525	5.248745	0.889161	0.020972
  43	2.1000e-02	0.8302	4.236770	0.000807	8.074992	1.367941	0.032265
  44	2.1500e-02	0.8505	4.369862	0.000666	6.661868	1.128551	0.026618
  45	2.2000e-02	0.8704	4.466657	0.000484	4.844995	0.820764	0.019359
  46	2.2500e-02	0.8894	4.599749	0.000666	6.661868	1.128551	0.026618
  47	2.3000e-02	0.9097	4.740907	0.000707	7.065618	1.196948	0.028232
  48	2.3500e-02	0.9300	4.874000	0.000666	6.661868	1.128551	0.026618
  49	2.4000e-02	0.9500	5.011125	0.000686	6.863743	1.162750	0.027425
  50	2.4500e-02	0.9686	5.099853	0.000444	4.441245	0.752367	0.017746
  51	2.5000e-02	0.9903	5.249078	0.000747	7.469367	1.265345	0.029845
  52	2.5500e-02	1.0091	5.370071	0.000606	6.056244	1.025955	0.024199
  53	2.6000e-02	1.0301	5.539461	0.000848	8.478741	1.436338	0.033878
  54	2.6500e-02	1.0501	5.688686	0.000747	7.469367	1.265345	0.029845
  55	2.7000e-02	1.0699	5.753215	0.000323	3.229997	0.547176	0.012906
  56	2.7500e-02	1.0906	5.914539	0.000807	8.074992	1.367941	0.032265
  57	2.8000e-02	1.1109	6.047631	0.000666	6.661868	1.128551	0.026618
  58	2.8500e-02	1.1300	6.180724	0.000666	6.661868	1.128551	0.026618
  59	2.9000e-02	1.1496	6.366246	0.000929	9.286240	1.573132	0.037105
  60	2.9500e-02	1.1716	6.459007	0.000464	4.643120	0.786566	0.018552
  61	3.0000e-02	1.1902	6.479173	0.000101	1.009374	0.170993	0.004033
  62	3.0500e-02	1.2104	6.684861	0.001030	10.295614	1.744124	0.041138
  63	3.1000e-02	1.2305	6.817953	0.000666	6.661868	1.128551	0.026618
  64	3.1500e-02	1.2517	6.987343	0.000848	8.478741	1.436338	0.033878
  65	3.2000e-02	1.2711	7.096237	0.000545	5.450619	0.923360	0.021779
  66	3.2500e-02	1.2909	7.225296	0.000646	6.459993	1.094352	0.025812
  67	3.3000e-02	1.3099	7.386620	0.000807	8.074992	1.367941	0.032265
  68	3.3500e-02	1.3290	7.443083	0.000283	2.826247	0.478779	0.011293
  69	3.4000e-02	1.3489	7.564076	0.000606	6.056244	1.025955	0.024199
  70	3.4500e-02	1.3696	7.745566	0.000908	9.084366	1.538933	0.036298
  71	3.5000e-02	1.3896	7.902857	0.000787	7.873117	1.333742	0.031458
  72	3.5500e-02	1.4095	7.999651	0.000484	4.844995	0.820764	0.019359
  73	3.6000e-02	1.4301	8.148876	0.000747	7.469367	1.265345	0.029845
  74	3.6500e-02	1.4505	8.310200	0.000807	8.074992	1.367941	0.032265
  75	3.7000e-02	1.4694	8.406994	0.000484	4.844995	0.820764	0.019359
  76	3.7500e-02	1.4898	8.580417	0.000868	8.680616	1.470536	0.034685
  77	3.8000e-02	1.5103	8.661079	0.000404	4.037496	0.683970	0.016132
  78	3.8500e-02	1.5302	8.862734	0.001009	10.093740	1.709926	0.040331
  79	3.9000e-02	1.5504	8.987760	0.000626	6.258119	1.060154	0.025005
  80	3.9500e-02	1.5697	9.084555	0.000484	4.844995	0.820764	0.019359
  81	4.0000e-02	1.5900	9.213614	0.000646	6.459993	1.094352	0.025812
  82	4.0500e-02	1.6101	9.354772	0.000707	7.065618	1.196948	0.028232
  83	4.1000e-02	1.6302	9.451567	0.000484	4.844995	0.820764	0.019359
  84	4.1500e-02	1.6494	9.604824	0.000767	7.671242	1.299544	0.030652
  85	4.2000e-02	1.6689	9.754049	0.000747	7.469367	1.265345	0.029845
  86	4.2500e-02	1.6901	9.862943	0.000545	5.450619	0.923360	0.021779
  87	4.3000e-02	1.7091	10.012167	0.000747	7.469367	1.265345	0.029845
  88	4.3500e-02	1.7300	10.157359	0.000727	7.267492	1.231147	0.029038
  89	4.4000e-02	1.7499	10.294484	0.000686	6.863743	1.162750	0.027425
  90	4.4500e-02	1.7694	10.395312	0.000505	5.046870	0.854963	0.020165
  91	4.5000e-02	1.7902	10.588900	0.000969	9.689990	1.641529	0.038718
  92	4.5500e-02	1.8097	10.665529	0.000384	3.835621	0.649772	0.015326
  93	4.6000e-02	1.8311	10.863151	0.000989	9.891865	1.675727	0.039524
  94	4.6500e-02	1.8496	10.959945	0.000484	4.844995	0.820764	0.019359
  95	4.7000e-02	1.8704	11.084972	0.000626	6.258119	1.060154	0.025005
  96	4.7500e-02	1.8913	11.254362	0.000848	8.478741	1.436338	0.033878
  97	4.8000e-02	1.9098	11.383421	0.000646	6.459993	1.094352	0.025812
  98	4.8500e-02	1.9304	11.544745	0.000807	8.074992	1.367941	0.032265
  99	4.9000e-02	1.9498	11.633473	0.000444	4.441245	0.752367	0.017746
 100	4.9500e-02	1.9708	11.823029	0.000949	9.488115	1.607330	0.037911
 101	5.0000e-02	1.9906	11.919823	0.000484	4.844995	0.820764	0.019359
 102	5.0500e-02	2.0094	12.016617	0.000484	4.844995	0.820764	0.019359
 103	5.1000e-02	2.0303	12.161809	0.000727	7.267492	1.231147	0.029038
 104	5.1500e-02	2.0508	12.339265	0.000888	8.882491	1.504735	0.035491
 105	5.2000e-02	2.0707	12.464291	0.000626	6.258119	1.060154	0.025005
 106	5.2500e-02	2.0898	12.557052	0.000464	4.643120	0.786566	0.018552
 107	5.3000e-02	2.1100	12.661913	0.000525	5.248745	0.889161	0.020972
 108	5.3500e-02	2.1301	12.795005	0.000666	6.661868	1.128551	0.026618
 109	5.4000e-02	2.1503	12.960362	0.000828	8.276866	1.402139	0.033071
 110	5.4500e-02	2.1691	13.117653	0.000787	7.873117	1.333742	0.031458
 111	5.5000e-02	2.1912	13.258812	0.000707	7.065618	1.196948	0.028232
 112	5.5500e-02	2.2098	13.399970	0.000707	7.065618	1.196948	0.028232
 113	5.6000e-02	2.2302	13.585493	0.000929	9.286240	1.573132	0.037105
 114	5.6500e-02	2.2495	13.682287	0.000484	4.844995	0.820764	0.019359
 115	5.7000e-02	2.2708	13.787148	0.000525	5.248745	0.889161	0.020972
 116	5.7500e-02	2.2891	13.924273	0.000686	6.863743	1.162750	0.027425
 117	5.8000e-02	2.3102	14.041233	0.000585	5.854369	0.991757	0.023392
 118	5.8500e-02	2.3303	14.146093	0.000525	5.248745	0.889161	0.020972
 119	5.9000e-02	2.3511	14.351781	0.001030	10.295614	1.744124	0.041138
 120	5.9500e-02	2.3700	14.468741	0.000585	5.854369	0.991757	0.023392
 121	6.0000e-02	2.3906	14.593767	0.000626	6.258119	1.060154	0.025005
 122	6.0500e-02	2.4100	14.722826	0.000646	6.459993	1.094352	0.025812
 123	6.1000e-02	2.4305	14.872051	0.000747	7.469367	1.265345	0.029845
 124	6.1500e-02	2.4493	14.993044	0.000606	6.056244	1.025955	0.024199
 125	6.2000e-02	2.4701	15.138236	0.000727	7.267492	1.231147	0.029038
 126	6.2500e-02	2.4896	15.271328	0.000666	6.661868	1.128551	0.026618
 127	6.3000e-02	2.5102	15.436685	0.000828	8.276866	1.402139	0.033071
 128	6.3500e-02	2.5317	15.577843	0.000707	7.065618	1.196948	0.028232
 129	6.4000e-02	2.5496	15.694803	0.000585	5.854369	0.991757	0.023392
 130	6.4500e-02	2.5696	15.827895	0.000666	6.661868	1.128551	0.026618
 131	6.5000e-02	2.5900	16.001319	0.000868	8.680616	1.470536	0.034685
 132	6.5500e-02	2.6099	16.146510	0.000727	7.267492	1.231147	0.029038
 133	6.6000e-02	2.6295	16.243305	0.000484	4.844995	0.820764	0.019359
 134	6.6500e-02	2.6495	16.356231	0.000565	5.652494	0.957558	0.022585
 135	6.7000e-02	2.6698	16.513522	0.000787	7.873117	1.333742	0.031458
 136	6.7500e-02	2.6899	16.622416	0.000545	5.450619	0.923360	0.021779
 137	6.8000e-02	2.7094	16.787773	0.000828	8.276866	1.402139	0.033071
 138	6.8500e-02	2.7301	16.949097	0.000807	8.074992	1.367941	0.032265
 139	6.9000e-02	2.7502	17.017660	0.000343	3.431871	0.581375	0.013713
 140	6.9500e-02	2.7700	17.174950	0.000787	7.873117	1.333742	0.031458
 141	7.0000e-02	2.7905	17.279811	0.000525	5.248745	0.889161	0.020972
 142	7.0500e-02	2.8091	17.465333	0.000929	9.286240	1.573132	0.037105
 143	7.1000e-02	2.8307	17.521797	0.000283	2.826247	0.478779	0.011293
 144	7.1500e-02	2.8497	17.715386	0.000969	9.689990	1.641529	0.038718
 145	7.2000e-02	2.8706	17.896875	0.000908	9.084366	1.538933	0.036298
 146	7.2500e-02	2.8899	17.981570	0.000424	4.239371	0.718169	0.016939
 147	7.3000e-02	2.9108	18.070298	0.000444	4.441245	0.752367	0.017746
 148	7.3500e-02	2.9294	18.255821	0.000929	9.286240	1.573132	0.037105
 149	7.4000e-02	2.9494	18.364714	0.000545	5.450619	0.923360	0.021779
 150	7.4500e-02	2.9703	18.546204	0.000908	9.084366	1.538933	0.036298
 151	7.5000e-02	2.9914	18.638965	0.000464	4.643120	0.786566	0.018552
 152	7.5500e-02	3.0096	18.755925	0.000585	5.854369	0.991757	0.023392
 153	7.6000e-02	3.0304	18.921282	0.000828	8.276866	1.402139	0.033071
 154	7.6500e-02	3.0499	19.026143	0.000525	5.248745	0.889161	0.020972
 155	7.7000e-02	3.0707	19.155202	0.000646	6.459993	1.094352	0.025812
 156	7.7500e-02	3.0890	19.312493	0.000787	7.873117	1.333742	0.031458
 157	7.8000e-02	3.1104	19.425419	0.000565	5.652494	0.957558	0.022585
 158	7.8500e-02	3.1305	19.554479	0.000646	6.459993	1.094352	0.025812
 159	7.9000e-02	3.1503	19.699670	0.000727	7.267492	1.231147	0.029038
 160	7.9500e-02	3.1708	19.889226	0.000949	9.488115	1.607330	0.037911
 161	8.0000e-02	3.1909	19.949722	0.000303	3.028122	0.512978	0.012099
 162	8.0500e-02	3.2095	20.119112	0.000848	8.478741	1.436338	0.033878
 163	8.1000e-02	3.2306	20.256238	0.000686	6.863743	1.162750	0.027425
 164	8.1500e-02	3.2497	20.328834	0.000363	3.633746	0.615573	0.014519
 165	8.2000e-02	3.2706	20.465959	0.000686	6.863743	1.162750	0.027425
 166	8.2500e-02	3.2905	20.554687	0.000444	4.441245	0.752367	0.017746
 167	8.3000e-02	3.3112	20.752309	0.000989	9.891865	1.675727	0.039524
 168	8.3500e-02	3.3302	20.913633	0.000807	8.074992	1.367941	0.032265
 169	8.4000e-02	3.3501	21.018493	0.000525	5.248745	0.889161	0.020972
 170	8.4500e-02	3.3710	21.187884	0.000848	8.478741	1.436338	0.033878
 171	8.5000e-02	3.3905	21.236281	0.000242	2.422497	0.410382	0.009679
 172	8.5500e-02	3.4106	21.421803	0.000929	9.286240	1.573132	0.037105
 173	8.6000e-02	3.4308	21.550862	0.000646	6.459993	1.094352	0.025812
 174	8.6500e-02	3.4509	21.667822	0.000585	5.854369	0.991757	0.023392
 175	8.7000e-02	3.4698	21.800914	0.000666	6.661868	1.128551	0.026618
 176	8.7500e-02	3.4901	21.925941	0.000626	6.258119	1.060154	0.025005
 177	8.8000e-02	3.5110	22.034834	0.000545	5.450619	0.923360	0.021779
 178	8.8500e-02	3.5297	22.212291	0.000888	8.882491	1.504735	0.035491
 179	8.9000e-02	3.5513	22.353449	0.000707	7.065618	1.196948	0.028232
 180	8.9500e-02	3.5701	22.458310	0.000525	5.248745	0.889161	0.020972
 181	9.0000e-02	3.5901	22.607534	0.000747	7.469367	1.265345	0.029845
 182	9.0500e-02	3.6102	22.720461	0.000565	5.652494	0.957558	0.022585
 183	9.1000e-02	3.6305	22.861619	0.000707	7.065618	1.196948	0.028232
 184	9.1500e-02	3.6511	22.974546	0.000565	5.652494	0.957558	0.022585
 185	9.2000e-02	3.6710	23.091506	0.000585	5.854369	0.991757	0.023392
 186	9.2500e-02	3.6908	23.268962	0.000888	8.882491	1.504735	0.035491
 187	9.3000e-02	3.7112	23.349624	0.000404	4.037496	0.683970	0.016132
 188	9.3500e-02	3.7305	23.494816	0.000727	7.267492	1.231147	0.029038
 189	9.4000e-02	3.7495	23.595643	0.000505	5.046870	0.854963	0.020165
 190	9.4500e-02	3.7701	23.793265	0.000989	9.891865	1.675727	0.039524
 191	9.5000e-02	3.7930	23.962655	0.000848	8.478741	1.436338	0.033878
 192	9.5500e-02	3.8107	24.051384	0.000444	4.441245	0.752367	0.017746
 193	9.6000e-02	3.8300	24.119946	0.000343	3.431871	0.581375	0.013713
 194	9.6500e-02	3.8501	24.273204	0.000767	7.671242	1.299544	0.030652
 195	9.7000e-02	3.8708	24.394197	0.000606	6.056244	1.025955	0.024199
 196	9.7500e-02	3.8910	24.495024	0.000505	5.046870	0.854963	0.020165
 197	9.8000e-02	3.9108	24.656348	0.000807	8.074992	1.367941	0.032265
 198	9.8500e-02	3.9299	24.773308	0.000585	5.854369	0.991757	0.023392
 199	9.9000e-02	3.9503	24.946731	0.000868	8.680616	1.470536	0.034685
 200	9.9500e-02	3.9705	25.075791	0.000646	6.459993	1.094352	0.025812
 201	1.0000e-01	3.9905	25.196784	0.000606	6.056244	1.025955	0.024199
 202	1.0050e-01	4.0107	25.273412	0.000384	3.835621	0.649772	0.015326
 203	1.0100e-01	4.0308	25.406505	0.000666	6.661868	1.128551	0.026618
 204	1.0150e-01	4.0506	25.563795	0.000787	7.873117	1.333742	0.031458
 205	1.0200e-01	4.0704	25.704954	0.000707	7.065618	1.196948	0.028232
 206	1.0250e-01	4.0918	25.801748	0.000484	4.844995	0.820764	0.019359
 207	1.0300e-01	4.1107	25.963072	0.000807	8.074992	1.367941	0.032265
 208	1.0350e-01	4.1302	26.059867	0.000484	4.844995	0.820764	0.019359
 209	1.0400e-01	4.1510	26.176826	0.000585	5.854369	0.991757	0.023392
 210	1.0450e-01	4.1714	26.301853	0.000626	6.258119	1.060154	0.025005
 211	1.0500e-01	4.1904	26.402680	0.000505	5.046870	0.854963	0.020165
 212	1.0550e-01	4.2108	26.527706	0.000626	6.258119	1.060154	0.025005
 213	1.0600e-01	4.2303	26.684997	0.000787	7.873117	1.333742	0.031458
 214	1.0650e-01	4.2502	26.814056	0.000646	6.459993	1.094352	0.025812
 215	1.0700e-01	4.2712	26.935049	0.000606	6.056244	1.025955	0.024199
 216	1.0750e-01	4.2902	27.100406	0.000828	8.276866	1.402139	0.033071
 217	1.0800e-01	4.3109	27.177035	0.000384	3.835621	0.649772	0.015326
 218	1.0850e-01	4.3304	27.334326	0.000787	7.873117	1.333742	0.031458
 219	1.0900e-01	4.3509	27.386756	0.000262	2.624372	0.444581	0.010486
 220	1.0950e-01	4.3707	27.556146	0.000848	8.478741	1.436338	0.033878
 221	1.1000e-01	4.3909	27.701338	0.000727	7.267492	1.231147	0.029038
 222	1.1050e-01	4.4112	27.769900	0.000343	3.431871	0.581375	0.013713
 223	1.1100e-01	4.4312	27.898960	0.000646	6.459993	1.094352	0.025812
 224	1.1150e-01	4.4507	28.052217	0.000767	7.671242	1.299544	0.030652
 225	1.1200e-01	4.4708	28.169177	0.000585	5.854369	0.991757	0.023392
 226	1.1250e-01	4.4907	28.274038	0.000525	5.248745	0.889161	0.020972
 227	1.1300e-01	4.5102	28.411163	0.000686	6.863743	1.162750	0.027425
 228	1.1350e-01	4.5302	28.536189	0.000626	6.258119	1.060154	0.025005
 229	1.1400e-01	4.5505	28.713645	0.000888	8.882491	1.504735	0.035491
 230	1.1450e-01	4.5703	28.798341	0.000424	4.239371	0.718169	0.016939
 231	1.1500e-01	4.5911	28.887069	0.000444	4.441245	0.752367	0.017746
 232	1.1550e-01	4.6106	29.044360	0.000787	7.873117	1.333742	0.031458
 233	1.1600e-01	4.6362	29.145187	0.000505	5.046870	0.854963	0.020165
 234	1.1650e-01	4.6515	29.286346	0.000707	7.065618	1.196948	0.028232
 235	1.1700e-01	4.6716	29.395239	0.000545	5.450619	0.923360	0.021779
 236	1.1750e-01	4.6913	29.483967	0.000444	4.441245	0.752367	0.017746
 237	1.1800e-01	4.7119	29.625126	0.000707	7.065618	1.196948	0.028232
 238	1.1850e-01	4.7318	29.734019	0.000545	5.450619	0.923360	0.021779
 239	1.1900e-01	4.7507	29.903410	0.000848	8.478741	1.436338	0.033878
 240	1.1950e-01	4.7705	29.959873	0.000283	2.826247	0.478779	0.011293
 241	1.2000e-01	4.7910	30.129263	0.000848	8.478741	1.436338	0.033878
 242	1.2050e-01	4.8114	30.262355	0.000666	6.661868	1.128551	0.026618
 243	1.2100e-01	4.8314	30.399481	0.000686	6.863743	1.162750	0.027425
 244	1.2150e-01	4.8505	30.492242	0.000464	4.643120	0.786566	0.018552
 245	1.2200e-01	4.8718	30.572904	0.000404	4.037496	0.683970	0.016132
 246	1.2250e-01	4.8911	30.718096	0.000727	7.267492	1.231147	0.029038
 247	1.2300e-01	4.9115	30.843122	0.000626	6.258119	1.060154	0.025005
 248	1.2350e-01	4.9319	30.972181	0.000646	6.459993	1.094352	0.025812
 249	1.2400e-01	4.9518	31.097207	0.000626	6.258119	1.060154	0.025005
 250	1.2450e-01	4.9708	31.278696	0.000908	9.084366	1.538933	0.036298
 251	1.2500e-01	4.9911	31.327093	0.000242	2.422497	0.410382	0.009679
 252	1.2550e-01	5.0107	31.452119	0.000626	6.258119	1.060154	0.025005
 253	1.2600e-01	5.0317	31.520682	0.000343	3.431871	0.581375	0.013713
 254	1.2650e-01	5.0525	31.702172	0.000908	9.084366	1.538933	0.036298
 255	1.2700e-01	5.0720	31.774767	0.000363	3.633746	0.615573	0.014519
 256	1.2750e-01	5.0919	31.887694	0.000565	5.652494	0.957558	0.022585
 257	1.2800e-01	5.1123	32.053051	0.000828	8.276866	1.402139	0.033071
 258	1.2850e-01	5.1306	32.145812	0.000464	4.643120	0.786566	0.018552
 259	1.2900e-01	5.1517	32.222441	0.000384	3.835621	0.649772	0.015326
 260	1.2950e-01	5.1698	32.339401	0.000585	5.854369	0.991757	0.023392
 261	1.3000e-01	5.1910	32.484593	0.000727	7.267492	1.231147	0.029038
 262	1.3050e-01	5.2112	32.621718	0.000686	6.863743	1.162750	0.027425
 263	1.3100e-01	5.2319	32.710446	0.000444	4.441245	0.752367	0.017746
 264	1.3150e-01	5.2515	32.867737	0.000787	7.873117	1.333742	0.031458
 265	1.3200e-01	5.2710	32.980664	0.000565	5.652494	0.957558	0.022585
 266	1.3250e-01	5.2913	33.105690	0.000626	6.258119	1.060154	0.025005
 267	1.3300e-01	5.3107	33.214584	0.000545	5.450619	0.923360	0.021779
