»»»»»»»»»»»»»»»»»»»»»»»»»»»»»»»»»»»» Hysteresis ««««««««««««««««««««««««««««««««««««
»»»  Executed Version:	5.48.1
»»»  Vision Version:	5.48.4 (R)
»»»  Vision Compiled:	9/18/24
»»»  Driver Version:	5.47.0
»»»  Windows Version:	Windows 8 or 8.1
»»»  Processor Information:	x86 (AMD or Intel) - 32 Processors
»»»  Tester Name:	PMF21124-494 (100V)
»»»  Tester S/N:	PMF21124-494
»»»  Internal Amp Type:	100V RevK 270k
»»»  Internal Amp S/N:	iAB2-596/K     
»»»  Execution Count:	1
»»»»»»»»»»»»»»»»»»»»»»»»»»»»»»»»»»»»»»»»»»««««««««««««««««««««««««««««««««««««««««««

Stored:	6/19/2025 - 16:21:13
Configured:	06/19/25 10:04:32 AM
Executed:	06/19/25 04:20:16 PM

»»»»»»»»»»»»»»»»»»»»»»»»»»»»»»»»»»» Sample Info ««««««««««««««««««««««««««««««««««««
Sample Name:	
Lot Name:	
Wafer Name:	
Die Row/Column:	0/0
Capacitor Number:	0
Sample Area (cm2):	1.00e-04
Sample Thickness (microns):	3.00e-01

Amplifier:	Internal

»»»»»»»»»»»»»»»»»»»»»»»»»»»»»»»»»»» Tester Info «««««««««««««««««««««««««««««««««««
Tester Name:	PMF21124-494 (100V)
Tester Serial Number:	PMF21124-494
Return Signal Amp. Level:	0.19 [Index: 3]

»»»»»»»»»»»»»»»»»»»»»»»»»»»»»»»» Hysteresis Info ««««««««««««««««««««««««««««««««««
Task Name:	Hyst-1168
Volts:	20.00
Field:	666.67 (kV/cm)
DCBias:	0.00
DCField:	0.00 (kV/cm)
Hysteresis Period (ms):	2.00e+02
Preset:	Enabled
Preset Delay (ms):	1.00e+03
Profile:	Standard Bipolar

»»»»»»»»»»»»»»»»»»»»»»»»»»»»»»»»»»»»»» Data «««««««««««««««««««««««««««««««««««««««
Points:	2009

Valid Data

Point	Time (ms)	Drive Voltage	Measured Polarization (uC/cm2)	Capacitance (uF)	Normalized Capacitance (uF/cm2)	Dielectric Constant	Instantaneous Current (mA)
   1	0.0000e+00	0.0064	-8.167126	0.000142	1.419335	0.480884	0.000057
   2	9.9500e-02	0.0417	-8.110606	0.000142	1.419335	0.480884	0.000057
   3	1.9900e-01	0.0738	-7.957195	0.000385	3.852480	1.305256	0.000154
   4	2.9850e-01	0.1187	-7.856266	0.000253	2.534526	0.858721	0.000101
   5	3.9800e-01	0.1508	-7.795709	0.000152	1.520716	0.515232	0.000061
   6	4.9750e-01	0.1941	-7.682669	0.000284	2.838669	0.961767	0.000114
   7	5.9700e-01	0.2326	-7.581741	0.000253	2.534526	0.858721	0.000101
   8	6.9650e-01	0.2791	-7.492924	0.000223	2.230383	0.755674	0.000089
   9	7.9600e-01	0.3144	-7.391996	0.000253	2.534526	0.858721	0.000101
  10	8.9550e-01	0.3593	-7.291067	0.000253	2.534526	0.858721	0.000101
  11	9.9500e-01	0.3962	-7.186102	0.000264	2.635907	0.893070	0.000105
  12	1.0945e+00	0.4412	-7.036728	0.000375	3.751099	1.270907	0.000150
  13	1.1940e+00	0.4749	-6.939836	0.000243	2.433145	0.824372	0.000097
  14	1.2935e+00	0.5085	-6.867168	0.000182	1.824859	0.618279	0.000073
  15	1.3930e+00	0.5567	-6.758165	0.000274	2.737288	0.927418	0.000110
  16	1.4925e+00	0.5888	-6.616865	0.000355	3.548337	1.202209	0.000142
  17	1.5920e+00	0.6337	-6.572457	0.000112	1.115192	0.377837	0.000045
  18	1.6915e+00	0.6754	-6.447306	0.000314	3.142813	1.064814	0.000126
  19	1.7910e+00	0.7187	-6.318117	0.000324	3.244194	1.099163	0.000130
  20	1.8905e+00	0.7588	-6.257560	0.000152	1.520716	0.515232	0.000061
  21	1.9900e+00	0.7941	-6.144521	0.000284	2.838669	0.961767	0.000114
  22	2.0895e+00	0.8390	-6.047629	0.000243	2.433145	0.824372	0.000097
  23	2.1890e+00	0.8679	-5.934590	0.000284	2.838669	0.961767	0.000114
  24	2.2885e+00	0.9128	-5.825587	0.000274	2.737288	0.927418	0.000110
  25	2.3880e+00	0.9513	-5.700436	0.000314	3.142813	1.064814	0.000126
  26	2.4875e+00	0.9978	-5.627767	0.000182	1.824859	0.618279	0.000073
  27	2.5870e+00	1.0331	-5.514727	0.000284	2.838669	0.961767	0.000114
  28	2.6865e+00	1.0748	-5.425910	0.000223	2.230383	0.755674	0.000089
  29	2.7860e+00	1.1149	-5.341131	0.000213	2.129002	0.721325	0.000085
  30	2.8855e+00	1.1550	-5.220017	0.000304	3.041431	1.030465	0.000122
  31	2.9850e+00	1.1919	-5.090828	0.000324	3.244194	1.099163	0.000130
  32	3.0845e+00	1.2385	-5.026234	0.000162	1.622097	0.549581	0.000065
  33	3.1840e+00	1.2673	-4.917231	0.000274	2.737288	0.927418	0.000110
  34	3.2835e+00	1.3074	-4.808229	0.000274	2.737288	0.927418	0.000110
  35	3.3830e+00	1.3492	-4.711337	0.000243	2.433145	0.824372	0.000097
  36	3.4825e+00	1.3893	-4.610409	0.000253	2.534526	0.858721	0.000101
  37	3.5820e+00	1.4374	-4.493332	0.000294	2.940050	0.996116	0.000118
  38	3.6815e+00	1.4647	-4.388367	0.000264	2.635907	0.893070	0.000105
  39	3.7810e+00	1.5096	-4.319735	0.000172	1.723478	0.583930	0.000069
  40	3.8805e+00	1.5529	-4.198621	0.000304	3.041431	1.030465	0.000122
  41	3.9800e+00	1.5914	-4.077507	0.000304	3.041431	1.030465	0.000122
  42	4.0795e+00	1.6251	-3.996764	0.000203	2.027621	0.686977	0.000081
  43	4.1790e+00	1.6716	-3.875650	0.000304	3.041431	1.030465	0.000122
  44	4.2785e+00	1.7133	-3.782796	0.000233	2.331764	0.790023	0.000093
  45	4.3780e+00	1.7582	-3.669756	0.000284	2.838669	0.961767	0.000114
  46	4.4775e+00	1.7919	-3.576902	0.000233	2.331764	0.790023	0.000093
  47	4.5770e+00	1.8304	-3.439640	0.000345	3.446956	1.167860	0.000138
  48	4.6765e+00	1.8625	-3.379083	0.000152	1.520716	0.515232	0.000061
  49	4.7760e+00	1.9058	-3.213560	0.000416	4.156623	1.408302	0.000166
  50	4.8755e+00	1.9443	-3.165114	0.000122	1.216573	0.412186	0.000049
  51	4.9750e+00	1.9812	-3.003629	0.000406	4.055242	1.373953	0.000162
  52	5.0745e+00	2.0213	-2.934998	0.000172	1.723478	0.583930	0.000069
  53	5.1740e+00	2.0646	-2.825995	0.000274	2.737288	0.927418	0.000110
  54	5.2735e+00	2.1064	-2.749289	0.000193	1.926240	0.652628	0.000077
  55	5.3730e+00	2.1481	-2.591841	0.000395	3.953861	1.339604	0.000158
  56	5.4725e+00	2.1866	-2.507061	0.000213	2.129002	0.721325	0.000085
  57	5.5720e+00	2.2251	-2.389984	0.000294	2.940050	0.996116	0.000118
  58	5.6715e+00	2.2668	-2.285019	0.000264	2.635907	0.893070	0.000105
  59	5.7710e+00	2.3085	-2.171979	0.000284	2.838669	0.961767	0.000114
  60	5.8705e+00	2.3502	-2.042791	0.000324	3.244194	1.099163	0.000130
  61	5.9700e+00	2.3887	-1.953974	0.000223	2.230383	0.755674	0.000089
  62	6.0695e+00	2.4320	-1.832860	0.000304	3.041431	1.030465	0.000122
  63	6.1690e+00	2.4657	-1.740006	0.000233	2.331764	0.790023	0.000093
  64	6.2685e+00	2.5010	-1.631003	0.000274	2.737288	0.927418	0.000110
  65	6.3680e+00	2.5459	-1.574483	0.000142	1.419335	0.480884	0.000057
  66	6.4675e+00	2.5892	-1.429146	0.000365	3.649718	1.236558	0.000146
  67	6.5670e+00	2.6277	-1.340329	0.000223	2.230383	0.755674	0.000089
  68	6.6665e+00	2.6646	-1.178844	0.000406	4.055242	1.373953	0.000162
  69	6.7660e+00	2.7015	-1.118287	0.000152	1.520716	0.515232	0.000061
  70	6.8655e+00	2.7481	-1.009284	0.000274	2.737288	0.927418	0.000110
  71	6.9650e+00	2.7833	-0.900281	0.000274	2.737288	0.927418	0.000110
  72	7.0645e+00	2.8299	-0.771093	0.000324	3.244194	1.099163	0.000130
  73	7.1640e+00	2.8587	-0.662090	0.000274	2.737288	0.927418	0.000110
  74	7.2635e+00	2.9069	-0.573273	0.000223	2.230383	0.755674	0.000089
  75	7.3630e+00	2.9486	-0.456196	0.000294	2.940050	0.996116	0.000118
  76	7.4625e+00	2.9855	-0.367379	0.000223	2.230383	0.755674	0.000089
  77	7.5620e+00	3.0176	-0.238191	0.000324	3.244194	1.099163	0.000130
  78	7.6615e+00	3.0737	-0.092854	0.000365	3.649718	1.236558	0.000146
  79	7.7610e+00	3.1042	-0.024223	0.000172	1.723478	0.583930	0.000069
  80	7.8605e+00	3.1459	0.117077	0.000355	3.548337	1.202209	0.000142
  81	7.9600e+00	3.1892	0.226080	0.000274	2.737288	0.927418	0.000110
  82	8.0595e+00	3.2293	0.347194	0.000304	3.041431	1.030465	0.000122
  83	8.1590e+00	3.2742	0.423899	0.000193	1.926240	0.652628	0.000077
  84	8.2585e+00	3.2951	0.561162	0.000345	3.446956	1.167860	0.000138
  85	8.3580e+00	3.3432	0.662090	0.000253	2.534526	0.858721	0.000101
  86	8.4575e+00	3.3817	0.779167	0.000294	2.940050	0.996116	0.000118
  87	8.5570e+00	3.4266	0.880096	0.000253	2.534526	0.858721	0.000101
  88	8.6565e+00	3.4667	1.009284	0.000324	3.244194	1.099163	0.000130
  89	8.7560e+00	3.5101	1.150584	0.000355	3.548337	1.202209	0.000142
  90	8.8555e+00	3.5341	1.215178	0.000162	1.622097	0.549581	0.000065
  91	8.9550e+00	3.5871	1.352440	0.000345	3.446956	1.167860	0.000138
  92	9.0545e+00	3.6175	1.473555	0.000304	3.041431	1.030465	0.000122
  93	9.1540e+00	3.6609	1.590631	0.000294	2.940050	0.996116	0.000118
  94	9.2535e+00	3.7010	1.683486	0.000233	2.331764	0.790023	0.000093
  95	9.3530e+00	3.7411	1.861120	0.000446	4.460766	1.511348	0.000179
  96	9.4525e+00	3.7828	1.953974	0.000233	2.331764	0.790023	0.000093
  97	9.5520e+00	3.8229	2.062976	0.000274	2.737288	0.927418	0.000110
  98	9.6515e+00	3.8550	2.184090	0.000304	3.041431	1.030465	0.000122
  99	9.7510e+00	3.9111	2.268870	0.000213	2.129002	0.721325	0.000085
 100	9.8505e+00	3.9352	2.406133	0.000345	3.446956	1.167860	0.000138
 101	9.9500e+00	3.9817	2.543396	0.000345	3.446956	1.167860	0.000138
 102	1.0050e+01	4.0186	2.680658	0.000345	3.446956	1.167860	0.000138
 103	1.0149e+01	4.0651	2.773512	0.000233	2.331764	0.790023	0.000093
 104	1.0248e+01	4.0940	2.930961	0.000395	3.953861	1.339604	0.000158
 105	1.0348e+01	4.1421	3.044000	0.000284	2.838669	0.961767	0.000114
 106	1.0447e+01	4.1854	3.165114	0.000304	3.041431	1.030465	0.000122
 107	1.0547e+01	4.2191	3.290266	0.000314	3.142813	1.064814	0.000126
 108	1.0646e+01	4.2592	3.455788	0.000416	4.156623	1.408302	0.000166
 109	1.0746e+01	4.2993	3.568828	0.000284	2.838669	0.961767	0.000114
 110	1.0845e+01	4.3443	3.726276	0.000395	3.953861	1.339604	0.000158
 111	1.0945e+01	4.3860	3.823168	0.000243	2.433145	0.824372	0.000097
 112	1.1044e+01	4.4245	3.980616	0.000395	3.953861	1.339604	0.000158
 113	1.1144e+01	4.4598	4.097693	0.000294	2.940050	0.996116	0.000118
 114	1.1243e+01	4.5079	4.267252	0.000426	4.258004	1.442651	0.000170
 115	1.1343e+01	4.5448	4.380292	0.000284	2.838669	0.961767	0.000114
 116	1.1443e+01	4.5833	4.489295	0.000274	2.737288	0.927418	0.000110
 117	1.1542e+01	4.6218	4.638669	0.000375	3.751099	1.270907	0.000150
 118	1.1642e+01	4.6587	4.812266	0.000436	4.359385	1.477000	0.000174
 119	1.1741e+01	4.7004	4.925306	0.000284	2.838669	0.961767	0.000114
 120	1.1841e+01	4.7341	5.058531	0.000335	3.345575	1.133511	0.000134
 121	1.1940e+01	4.7774	5.171571	0.000284	2.838669	0.961767	0.000114
 122	1.2040e+01	4.8175	5.345168	0.000436	4.359385	1.477000	0.000174
 123	1.2139e+01	4.8544	5.490505	0.000365	3.649718	1.236558	0.000146
 124	1.2239e+01	4.8961	5.615656	0.000314	3.142813	1.064814	0.000126
 125	1.2338e+01	4.9266	5.777141	0.000406	4.055242	1.373953	0.000162
 126	1.2438e+01	4.9795	5.954775	0.000446	4.460766	1.511348	0.000179
 127	1.2537e+01	5.0180	6.027444	0.000182	1.824859	0.618279	0.000073
 128	1.2636e+01	5.0533	6.209115	0.000456	4.562147	1.545697	0.000183
 129	1.2736e+01	5.0950	6.362526	0.000385	3.852480	1.305256	0.000154
 130	1.2835e+01	5.1351	6.491714	0.000324	3.244194	1.099163	0.000130
 131	1.2935e+01	5.1801	6.612828	0.000304	3.041431	1.030465	0.000122
 132	1.3034e+01	5.2250	6.770277	0.000395	3.953861	1.339604	0.000158
 133	1.3134e+01	5.2651	6.927725	0.000395	3.953861	1.339604	0.000158
 134	1.3233e+01	5.2972	7.064988	0.000345	3.446956	1.167860	0.000138
 135	1.3333e+01	5.3341	7.190139	0.000314	3.142813	1.064814	0.000126
 136	1.3432e+01	5.3774	7.319327	0.000324	3.244194	1.099163	0.000130
 137	1.3532e+01	5.4143	7.484850	0.000416	4.156623	1.408302	0.000166
 138	1.3632e+01	5.4576	7.646335	0.000406	4.055242	1.373953	0.000162
 139	1.3731e+01	5.4849	7.747263	0.000253	2.534526	0.858721	0.000101
 140	1.3831e+01	5.5330	7.941046	0.000487	4.866290	1.648744	0.000195
 141	1.3930e+01	5.5699	8.078309	0.000345	3.446956	1.167860	0.000138
 142	1.4030e+01	5.6100	8.159051	0.000203	2.027621	0.686977	0.000081
 143	1.4129e+01	5.6613	8.340722	0.000456	4.562147	1.545697	0.000183
 144	1.4229e+01	5.6950	8.502208	0.000406	4.055242	1.373953	0.000162
 145	1.4328e+01	5.7512	8.603136	0.000253	2.534526	0.858721	0.000101
 146	1.4428e+01	5.7784	8.744436	0.000355	3.548337	1.202209	0.000142
 147	1.4527e+01	5.8153	8.901884	0.000395	3.953861	1.339604	0.000158
 148	1.4627e+01	5.8522	9.051258	0.000375	3.751099	1.270907	0.000150
 149	1.4726e+01	5.8923	9.184484	0.000335	3.345575	1.133511	0.000134
 150	1.4825e+01	5.9325	9.358081	0.000436	4.359385	1.477000	0.000174
 151	1.4925e+01	5.9742	9.471120	0.000284	2.838669	0.961767	0.000114
 152	1.5024e+01	6.0255	9.592235	0.000304	3.041431	1.030465	0.000122
 153	1.5124e+01	6.0544	9.737571	0.000365	3.649718	1.236558	0.000146
 154	1.5223e+01	6.1009	9.911168	0.000436	4.359385	1.477000	0.000174
 155	1.5323e+01	6.1394	10.044394	0.000335	3.345575	1.133511	0.000134
 156	1.5422e+01	6.1747	10.181656	0.000345	3.446956	1.167860	0.000138
 157	1.5522e+01	6.2148	10.326993	0.000365	3.649718	1.236558	0.000146
 158	1.5621e+01	6.2597	10.464256	0.000345	3.446956	1.167860	0.000138
 159	1.5721e+01	6.2982	10.597481	0.000335	3.345575	1.133511	0.000134
 160	1.5820e+01	6.3335	10.698410	0.000253	2.534526	0.858721	0.000101
 161	1.5920e+01	6.3800	10.811450	0.000284	2.838669	0.961767	0.000114
 162	1.6020e+01	6.4137	10.976972	0.000416	4.156623	1.408302	0.000166
 163	1.6119e+01	6.4586	11.126346	0.000375	3.751099	1.270907	0.000150
 164	1.6218e+01	6.4811	11.279757	0.000385	3.852480	1.305256	0.000154
 165	1.6318e+01	6.5260	11.380686	0.000253	2.534526	0.858721	0.000101
 166	1.6418e+01	6.5661	11.562357	0.000456	4.562147	1.545697	0.000183
 167	1.6517e+01	6.6062	11.703657	0.000355	3.548337	1.202209	0.000142
 168	1.6616e+01	6.6544	11.804585	0.000253	2.534526	0.858721	0.000101
 169	1.6716e+01	6.6929	11.925699	0.000304	3.041431	1.030465	0.000122
 170	1.6816e+01	6.7298	12.050850	0.000314	3.142813	1.064814	0.000126
 171	1.6915e+01	6.7650	12.192150	0.000355	3.548337	1.202209	0.000142
 172	1.7015e+01	6.8196	12.321338	0.000324	3.244194	1.099163	0.000130
 173	1.7114e+01	6.8404	12.482824	0.000406	4.055242	1.373953	0.000162
 174	1.7213e+01	6.8870	12.603938	0.000304	3.041431	1.030465	0.000122
 175	1.7313e+01	6.9351	12.716978	0.000284	2.838669	0.961767	0.000114
 176	1.7413e+01	6.9688	12.870389	0.000385	3.852480	1.305256	0.000154
 177	1.7512e+01	7.0073	13.011688	0.000355	3.548337	1.202209	0.000142
 178	1.7611e+01	7.0554	13.140877	0.000324	3.244194	1.099163	0.000130
 179	1.7711e+01	7.0939	13.302362	0.000406	4.055242	1.373953	0.000162
 180	1.7811e+01	7.1388	13.443662	0.000355	3.548337	1.202209	0.000142
 181	1.7910e+01	7.1629	13.568813	0.000314	3.142813	1.064814	0.000126
 182	1.8009e+01	7.2014	13.718187	0.000375	3.751099	1.270907	0.000150
 183	1.8109e+01	7.2495	13.823153	0.000264	2.635907	0.893070	0.000105
 184	1.8209e+01	7.2848	13.976564	0.000385	3.852480	1.305256	0.000154
 185	1.8308e+01	7.3281	14.097678	0.000304	3.041431	1.030465	0.000122
 186	1.8407e+01	7.3634	14.214755	0.000294	2.940050	0.996116	0.000118
 187	1.8507e+01	7.4148	14.380277	0.000416	4.156623	1.408302	0.000166
 188	1.8607e+01	7.4501	14.469094	0.000223	2.230383	0.755674	0.000089
 189	1.8706e+01	7.4870	14.626543	0.000395	3.953861	1.339604	0.000158
 190	1.8805e+01	7.5271	14.751694	0.000314	3.142813	1.064814	0.000126
 191	1.8905e+01	7.5656	14.844548	0.000233	2.331764	0.790023	0.000093
 192	1.9005e+01	7.6025	14.965662	0.000304	3.041431	1.030465	0.000122
 193	1.9104e+01	7.6506	15.074665	0.000274	2.737288	0.927418	0.000110
 194	1.9203e+01	7.6843	15.211927	0.000345	3.446956	1.167860	0.000138
 195	1.9303e+01	7.7276	15.329004	0.000294	2.940050	0.996116	0.000118
 196	1.9402e+01	7.7693	15.462230	0.000335	3.345575	1.133511	0.000134
 197	1.9502e+01	7.8110	15.567195	0.000264	2.635907	0.893070	0.000105
 198	1.9602e+01	7.8559	15.700421	0.000335	3.345575	1.133511	0.000134
 199	1.9701e+01	7.8896	15.849795	0.000375	3.751099	1.270907	0.000150
 200	1.9800e+01	7.9265	15.930538	0.000203	2.027621	0.686977	0.000081
 201	1.9900e+01	7.9618	16.063763	0.000335	3.345575	1.133511	0.000134
 202	2.0000e+01	8.0003	16.180840	0.000294	2.940050	0.996116	0.000118
 203	2.0099e+01	8.0452	16.285806	0.000264	2.635907	0.893070	0.000105
 204	2.0198e+01	8.0918	16.423068	0.000345	3.446956	1.167860	0.000138
 205	2.0298e+01	8.1270	16.515922	0.000233	2.331764	0.790023	0.000093
 206	2.0398e+01	8.1623	16.657222	0.000355	3.548337	1.202209	0.000142
 207	2.0497e+01	8.1992	16.737965	0.000203	2.027621	0.686977	0.000081
 208	2.0596e+01	8.2458	16.883302	0.000365	3.649718	1.236558	0.000146
 209	2.0696e+01	8.2859	17.020564	0.000345	3.446956	1.167860	0.000138
 210	2.0796e+01	8.3179	17.137641	0.000294	2.940050	0.996116	0.000118
 211	2.0895e+01	8.3564	17.250681	0.000284	2.838669	0.961767	0.000114
 212	2.0994e+01	8.4094	17.367758	0.000294	2.940050	0.996116	0.000118
 213	2.1094e+01	8.4351	17.456575	0.000223	2.230383	0.755674	0.000089
 214	2.1194e+01	8.4880	17.605949	0.000375	3.751099	1.270907	0.000150
 215	2.1293e+01	8.5265	17.698803	0.000233	2.331764	0.790023	0.000093
 216	2.1392e+01	8.5570	17.840103	0.000355	3.548337	1.202209	0.000142
 217	2.1492e+01	8.5987	17.961217	0.000304	3.041431	1.030465	0.000122
 218	2.1591e+01	8.6404	18.070220	0.000274	2.737288	0.927418	0.000110
 219	2.1691e+01	8.6805	18.163074	0.000233	2.331764	0.790023	0.000093
 220	2.1791e+01	8.7126	18.272076	0.000274	2.737288	0.927418	0.000110
 221	2.1890e+01	8.7607	18.393190	0.000304	3.041431	1.030465	0.000122
 222	2.1989e+01	8.7976	18.562750	0.000426	4.258004	1.442651	0.000170
 223	2.2089e+01	8.8425	18.647530	0.000213	2.129002	0.721325	0.000085
 224	2.2189e+01	8.8874	18.756533	0.000274	2.737288	0.927418	0.000110
 225	2.2288e+01	8.9179	18.897832	0.000355	3.548337	1.202209	0.000142
 226	2.2387e+01	8.9693	18.962427	0.000162	1.622097	0.549581	0.000065
 227	2.2487e+01	8.9997	19.091615	0.000324	3.244194	1.099163	0.000130
 228	2.2587e+01	9.0431	19.261175	0.000426	4.258004	1.442651	0.000170
 229	2.2686e+01	9.0848	19.362103	0.000253	2.534526	0.858721	0.000101
 230	2.2785e+01	9.1088	19.483217	0.000304	3.041431	1.030465	0.000122
 231	2.2885e+01	9.1570	19.559923	0.000193	1.926240	0.652628	0.000077
 232	2.2985e+01	9.2003	19.685074	0.000314	3.142813	1.064814	0.000126
 233	2.3084e+01	9.2420	19.830411	0.000365	3.649718	1.236558	0.000146
 234	2.3183e+01	9.2805	19.927302	0.000243	2.433145	0.824372	0.000097
 235	2.3283e+01	9.3190	20.048416	0.000304	3.041431	1.030465	0.000122
 236	2.3383e+01	9.3543	20.173567	0.000314	3.142813	1.064814	0.000126
 237	2.3482e+01	9.4008	20.282570	0.000274	2.737288	0.927418	0.000110
 238	2.3581e+01	9.4361	20.379461	0.000243	2.433145	0.824372	0.000097
 239	2.3681e+01	9.4826	20.532872	0.000385	3.852480	1.305256	0.000154
 240	2.3780e+01	9.5227	20.629764	0.000243	2.433145	0.824372	0.000097
 241	2.3880e+01	9.5628	20.730692	0.000253	2.534526	0.858721	0.000101
 242	2.3980e+01	9.5997	20.867955	0.000345	3.446956	1.167860	0.000138
 243	2.4079e+01	9.6479	21.001180	0.000335	3.345575	1.133511	0.000134
 244	2.4178e+01	9.6735	21.102109	0.000253	2.534526	0.858721	0.000101
 245	2.4278e+01	9.7217	21.243408	0.000355	3.548337	1.202209	0.000142
 246	2.4378e+01	9.7569	21.384708	0.000355	3.548337	1.202209	0.000142
 247	2.4477e+01	9.8035	21.477562	0.000233	2.331764	0.790023	0.000093
 248	2.4576e+01	9.8307	21.550231	0.000182	1.824859	0.618279	0.000073
 249	2.4676e+01	9.8724	21.691530	0.000355	3.548337	1.202209	0.000142
 250	2.4776e+01	9.9190	21.836867	0.000365	3.649718	1.236558	0.000146
 251	2.4875e+01	9.9591	21.917610	0.000203	2.027621	0.686977	0.000081
 252	2.4974e+01	9.9976	22.030650	0.000284	2.838669	0.961767	0.000114
 253	2.5074e+01	10.0409	22.131578	0.000253	2.534526	0.858721	0.000101
 254	2.5174e+01	10.0762	22.268841	0.000345	3.446956	1.167860	0.000138
 255	2.5273e+01	10.1195	22.406103	0.000345	3.446956	1.167860	0.000138
 256	2.5372e+01	10.1516	22.543366	0.000345	3.446956	1.167860	0.000138
 257	2.5472e+01	10.1965	22.611997	0.000172	1.723478	0.583930	0.000069
 258	2.5572e+01	10.2302	22.664480	0.000132	1.317954	0.446535	0.000053
 259	2.5671e+01	10.2815	22.825965	0.000406	4.055242	1.373953	0.000162
 260	2.5770e+01	10.3232	22.959191	0.000335	3.345575	1.133511	0.000134
 261	2.5870e+01	10.3537	23.076268	0.000294	2.940050	0.996116	0.000118
 262	2.5970e+01	10.3922	23.189308	0.000284	2.838669	0.961767	0.000114
