»»»»»»»»»»»»»»»»»»»»»»»»»»»»»»»»»»»» Hysteresis ««««««««««««««««««««««««««««««««««««
»»»  Executed Version:	5.48.1
»»»  Vision Version:	5.48.4 (R)
»»»  Vision Compiled:	9/18/24
»»»  Driver Version:	5.47.0
»»»  Windows Version:	Windows 8 or 8.1
»»»  Processor Information:	x86 (AMD or Intel) - 32 Processors
»»»  Tester Name:	PMF21124-494 (100V)
»»»  Tester S/N:	PMF21124-494
»»»  Internal Amp Type:	100V RevK 270k
»»»  Internal Amp S/N:	iAB2-596/K     
»»»  Execution Count:	1
»»»»»»»»»»»»»»»»»»»»»»»»»»»»»»»»»»»»»»»»»»««««««««««««««««««««««««««««««««««««««««««

Stored:	6/19/2025 - 16:10:51
Configured:	06/19/25 10:04:32 AM
Executed:	06/19/25 04:10:27 PM

»»»»»»»»»»»»»»»»»»»»»»»»»»»»»»»»»»» Sample Info ««««««««««««««««««««««««««««««««««««
Sample Name:	
Lot Name:	
Wafer Name:	
Die Row/Column:	0/0
Capacitor Number:	0
Sample Area (cm2):	1.00e-04
Sample Thickness (microns):	3.00e-01

Amplifier:	Internal

»»»»»»»»»»»»»»»»»»»»»»»»»»»»»»»»»»» Tester Info «««««««««««««««««««««««««««««««««««
Tester Name:	PMF21124-494 (100V)
Tester Serial Number:	PMF21124-494
Return Signal Amp. Level:	0.19 [Index: 3]

»»»»»»»»»»»»»»»»»»»»»»»»»»»»»»»» Hysteresis Info ««««««««««««««««««««««««««««««««««
Task Name:	Hyst-1168
Volts:	20.00
Field:	666.67 (kV/cm)
DCBias:	0.00
DCField:	0.00 (kV/cm)
Hysteresis Period (ms):	2.00e+02
Preset:	Enabled
Preset Delay (ms):	1.00e+03
Profile:	Standard Bipolar

»»»»»»»»»»»»»»»»»»»»»»»»»»»»»»»»»»»»»» Data «««««««««««««««««««««««««««««««««««««««
Points:	2009

Valid Data

Point	Time (ms)	Drive Voltage	Measured Polarization (uC/cm2)	Capacitance (uF)	Normalized Capacitance (uF/cm2)	Dielectric Constant	Instantaneous Current (mA)
   1	0.0000e+00	0.0064	-3.088409	0.000193	1.926008	0.652549	0.000077
   2	9.9500e-02	0.0433	-3.011703	0.000193	1.926008	0.652549	0.000077
   3	1.9900e-01	0.0818	-2.870404	0.000355	3.547910	1.202064	0.000142
   4	2.9850e-01	0.1139	-2.721029	0.000375	3.750647	1.270754	0.000150
   5	3.9800e-01	0.1556	-2.652398	0.000172	1.723270	0.583860	0.000069
   6	4.9750e-01	0.1957	-2.571655	0.000203	2.027377	0.686894	0.000081
   7	5.9700e-01	0.2326	-2.474764	0.000243	2.432852	0.824273	0.000097
   8	6.9650e-01	0.2888	-2.394021	0.000203	2.027377	0.686894	0.000081
   9	7.9600e-01	0.3096	-2.313279	0.000203	2.027377	0.686894	0.000081
  10	8.9550e-01	0.3658	-2.232536	0.000203	2.027377	0.686894	0.000081
  11	9.9500e-01	0.4011	-2.115459	0.000294	2.939697	0.995996	0.000118
  12	1.0945e+00	0.4396	-2.062976	0.000132	1.317795	0.446481	0.000053
  13	1.1940e+00	0.4765	-1.889380	0.000436	4.358860	1.476822	0.000174
  14	1.2935e+00	0.5101	-1.869194	0.000051	0.506844	0.171723	0.000020
  15	1.3930e+00	0.5486	-1.735968	0.000335	3.345172	1.133375	0.000134
  16	1.4925e+00	0.5968	-1.626966	0.000274	2.736959	0.927307	0.000110
  17	1.5920e+00	0.6321	-1.509889	0.000294	2.939697	0.995996	0.000118
  18	1.6915e+00	0.6786	-1.421072	0.000223	2.230115	0.755583	0.000089
  19	1.7910e+00	0.7171	-1.340329	0.000203	2.027377	0.686894	0.000081
  20	1.8905e+00	0.7492	-1.219215	0.000304	3.041065	1.030341	0.000122
  21	1.9900e+00	0.7957	-1.138472	0.000203	2.027377	0.686894	0.000081
  22	2.0895e+00	0.8358	-1.013321	0.000314	3.142434	1.064686	0.000126
  23	2.1890e+00	0.8599	-0.908356	0.000264	2.635590	0.892962	0.000105
  24	2.2885e+00	0.9096	-0.767056	0.000355	3.547910	1.202064	0.000142
  25	2.3880e+00	0.9481	-0.670165	0.000243	2.432852	0.824273	0.000097
  26	2.4875e+00	0.9962	-0.654016	0.000041	0.405475	0.137379	0.000016
  27	2.5870e+00	1.0411	-0.549050	0.000264	2.635590	0.892962	0.000105
  28	2.6865e+00	1.0764	-0.452159	0.000243	2.432852	0.824273	0.000097
  29	2.7860e+00	1.1165	-0.343157	0.000274	2.736959	0.927307	0.000110
  30	2.8855e+00	1.1534	-0.234154	0.000274	2.736959	0.927307	0.000110
  31	2.9850e+00	1.1952	-0.137263	0.000243	2.432852	0.824273	0.000097
  32	3.0845e+00	1.2385	-0.100928	0.000091	0.912320	0.309102	0.000037
  33	3.1840e+00	1.2689	0.012111	0.000284	2.838328	0.961651	0.000114
  34	3.2835e+00	1.3139	0.149374	0.000345	3.446541	1.167720	0.000138
  35	3.3830e+00	1.3572	0.246265	0.000243	2.432852	0.824273	0.000097
  36	3.4825e+00	1.3941	0.355268	0.000274	2.736959	0.927307	0.000110
  37	3.5820e+00	1.4342	0.419862	0.000162	1.621902	0.549515	0.000065
  38	3.6815e+00	1.4711	0.536939	0.000294	2.939697	0.995996	0.000118
  39	3.7810e+00	1.5112	0.637867	0.000253	2.534221	0.858617	0.000101
  40	3.8805e+00	1.5401	0.738796	0.000253	2.534221	0.858617	0.000101
  41	3.9800e+00	1.5946	0.867984	0.000324	3.243803	1.099030	0.000130
  42	4.0795e+00	1.6219	0.976987	0.000274	2.736959	0.927307	0.000110
  43	4.1790e+00	1.6652	1.073878	0.000243	2.432852	0.824273	0.000097
  44	4.2785e+00	1.7149	1.170769	0.000243	2.432852	0.824273	0.000097
  45	4.3780e+00	1.7534	1.239401	0.000172	1.723270	0.583860	0.000069
  46	4.4775e+00	1.7935	1.352440	0.000284	2.838328	0.961651	0.000114
  47	4.5770e+00	1.8304	1.441257	0.000223	2.230115	0.755583	0.000089
  48	4.6765e+00	1.8721	1.522000	0.000203	2.027377	0.686894	0.000081
  49	4.7760e+00	1.9155	1.631003	0.000274	2.736959	0.927307	0.000110
  50	4.8755e+00	1.9524	1.699634	0.000172	1.723270	0.583860	0.000069
  51	4.9750e+00	1.9909	1.824785	0.000314	3.142434	1.064686	0.000126
  52	5.0745e+00	2.0278	1.925714	0.000253	2.534221	0.858617	0.000101
  53	5.1740e+00	2.0663	2.002419	0.000193	1.926008	0.652549	0.000077
  54	5.2735e+00	2.1015	2.119496	0.000294	2.939697	0.995996	0.000118
  55	5.3730e+00	2.1497	2.220425	0.000253	2.534221	0.858617	0.000101
  56	5.4725e+00	2.1946	2.293093	0.000182	1.824639	0.618205	0.000073
  57	5.5720e+00	2.2315	2.406133	0.000284	2.838328	0.961651	0.000114
  58	5.6715e+00	2.2668	2.587804	0.000456	4.561598	1.545511	0.000183
  59	5.7710e+00	2.3085	2.607990	0.000051	0.506844	0.171723	0.000020
  60	5.8705e+00	2.3518	2.769475	0.000405	4.054754	1.373788	0.000162
  61	5.9700e+00	2.3919	2.886552	0.000294	2.939697	0.995996	0.000118
  62	6.0695e+00	2.4224	2.983443	0.000243	2.432852	0.824273	0.000097
  63	6.1690e+00	2.4657	3.031889	0.000122	1.216426	0.412136	0.000049
  64	6.2685e+00	2.5106	3.185300	0.000385	3.852016	1.305098	0.000154
  65	6.3680e+00	2.5459	3.270080	0.000213	2.128746	0.721239	0.000085
  66	6.4675e+00	2.5892	3.338711	0.000172	1.723270	0.583860	0.000069
  67	6.5670e+00	2.6277	3.459825	0.000304	3.041065	1.030341	0.000122
  68	6.6665e+00	2.6694	3.580939	0.000304	3.041065	1.030341	0.000122
  69	6.7660e+00	2.7144	3.649571	0.000172	1.723270	0.583860	0.000069
  70	6.8655e+00	2.7481	3.778759	0.000324	3.243803	1.099030	0.000130
  71	6.9650e+00	2.7978	3.847390	0.000172	1.723270	0.583860	0.000069
  72	7.0645e+00	2.8315	3.944282	0.000243	2.432852	0.824273	0.000097
  73	7.1640e+00	2.8668	4.081544	0.000345	3.446541	1.167720	0.000138
  74	7.2635e+00	2.9021	4.166324	0.000213	2.128746	0.721239	0.000085
  75	7.3630e+00	2.9325	4.275327	0.000274	2.736959	0.927307	0.000110
  76	7.4625e+00	2.9903	4.380292	0.000264	2.635590	0.892962	0.000105
  77	7.5620e+00	3.0336	4.505443	0.000314	3.142434	1.064686	0.000126
  78	7.6615e+00	3.0609	4.590223	0.000213	2.128746	0.721239	0.000085
  79	7.7610e+00	3.1042	4.703263	0.000284	2.838328	0.961651	0.000114
  80	7.8605e+00	3.1491	4.840526	0.000345	3.446541	1.167720	0.000138
  81	7.9600e+00	3.1892	4.909157	0.000172	1.723270	0.583860	0.000069
  82	8.0595e+00	3.2165	5.014123	0.000264	2.635590	0.892962	0.000105
  83	8.1590e+00	3.2598	5.082754	0.000172	1.723270	0.583860	0.000069
  84	8.2585e+00	3.3079	5.171571	0.000223	2.230115	0.755583	0.000089
  85	8.3580e+00	3.3432	5.272499	0.000253	2.534221	0.858617	0.000101
  86	8.4575e+00	3.3930	5.373428	0.000253	2.534221	0.858617	0.000101
  87	8.5570e+00	3.4266	5.502616	0.000324	3.243803	1.099030	0.000130
  88	8.6565e+00	3.4684	5.587396	0.000213	2.128746	0.721239	0.000085
  89	8.7560e+00	3.5085	5.656027	0.000172	1.723270	0.583860	0.000069
  90	8.8555e+00	3.5341	5.773104	0.000294	2.939697	0.995996	0.000118
  91	8.9550e+00	3.5774	5.825587	0.000132	1.317795	0.446481	0.000053
  92	9.0545e+00	3.6320	5.978998	0.000385	3.852016	1.305098	0.000154
  93	9.1540e+00	3.6641	6.031481	0.000132	1.317795	0.446481	0.000053
  94	9.2535e+00	3.7010	6.152595	0.000304	3.041065	1.030341	0.000122
  95	9.3530e+00	3.7443	6.233338	0.000203	2.027377	0.686894	0.000081
  96	9.4525e+00	3.7860	6.362526	0.000324	3.243803	1.099030	0.000130
  97	9.5520e+00	3.8213	6.463454	0.000253	2.534221	0.858617	0.000101
  98	9.6515e+00	3.8582	6.564383	0.000253	2.534221	0.858617	0.000101
  99	9.7510e+00	3.9031	6.705682	0.000355	3.547910	1.202064	0.000142
 100	9.8505e+00	3.9368	6.806611	0.000253	2.534221	0.858617	0.000101
 101	9.9500e+00	3.9913	6.943873	0.000345	3.446541	1.167720	0.000138
 102	1.0050e+01	4.0266	6.931762	-0.000030	-0.304107	-0.103034	-0.000012
 103	1.0149e+01	4.0603	7.052876	0.000304	3.041065	1.030341	0.000122
 104	1.0248e+01	4.1068	7.161879	0.000274	2.736959	0.927307	0.000110
 105	1.0348e+01	4.1502	7.270881	0.000274	2.736959	0.927307	0.000110
 106	1.0447e+01	4.1790	7.335476	0.000162	1.621902	0.549515	0.000065
 107	1.0547e+01	4.2159	7.480813	0.000365	3.649279	1.236409	0.000146
 108	1.0646e+01	4.2608	7.589815	0.000274	2.736959	0.927307	0.000110
 109	1.0746e+01	4.2977	7.658446	0.000172	1.723270	0.583860	0.000069
 110	1.0845e+01	4.3378	7.739189	0.000203	2.027377	0.686894	0.000081
 111	1.0945e+01	4.3812	7.848192	0.000274	2.736959	0.927307	0.000110
 112	1.1044e+01	4.4213	7.973343	0.000314	3.142434	1.064686	0.000126
 113	1.1144e+01	4.4614	8.070234	0.000243	2.432852	0.824273	0.000097
 114	1.1243e+01	4.4967	8.191348	0.000304	3.041065	1.030341	0.000122
 115	1.1343e+01	4.5320	8.284203	0.000233	2.331483	0.789928	0.000093
 116	1.1443e+01	4.5801	8.389168	0.000264	2.635590	0.892962	0.000105
 117	1.1542e+01	4.6154	8.490096	0.000253	2.534221	0.858617	0.000101
 118	1.1642e+01	4.6587	8.619285	0.000324	3.243803	1.099030	0.000130
 119	1.1741e+01	4.6988	8.736362	0.000294	2.939697	0.995996	0.000118
 120	1.1841e+01	4.7357	8.817104	0.000203	2.027377	0.686894	0.000081
 121	1.1940e+01	4.7806	8.869587	0.000132	1.317795	0.446481	0.000053
 122	1.2040e+01	4.8223	8.962441	0.000233	2.331483	0.789928	0.000093
 123	1.2139e+01	4.8592	9.132001	0.000426	4.257492	1.442477	0.000170
 124	1.2239e+01	4.9073	9.172372	0.000101	1.013688	0.343447	0.000041
 125	1.2338e+01	4.9410	9.277338	0.000264	2.635590	0.892962	0.000105
 126	1.2438e+01	4.9715	9.370192	0.000233	2.331483	0.789928	0.000093
 127	1.2537e+01	5.0245	9.483232	0.000284	2.838328	0.961651	0.000114
 128	1.2636e+01	5.0437	9.596272	0.000284	2.838328	0.961651	0.000114
 129	1.2736e+01	5.0950	9.721423	0.000314	3.142434	1.064686	0.000126
 130	1.2835e+01	5.1335	9.761794	0.000101	1.013688	0.343447	0.000041
 131	1.2935e+01	5.1688	9.907131	0.000365	3.649279	1.236409	0.000146
 132	1.3034e+01	5.2202	10.024208	0.000294	2.939697	0.995996	0.000118
 133	1.3134e+01	5.2571	10.088802	0.000162	1.621902	0.549515	0.000065
 134	1.3233e+01	5.2924	10.209916	0.000304	3.041065	1.030341	0.000122
 135	1.3333e+01	5.3357	10.339105	0.000324	3.243803	1.099030	0.000130
 136	1.3432e+01	5.3806	10.496553	0.000395	3.953385	1.339443	0.000158
 137	1.3532e+01	5.4239	10.573258	0.000193	1.926008	0.652549	0.000077
 138	1.3632e+01	5.4608	10.658038	0.000213	2.128746	0.721239	0.000085
 139	1.3731e+01	5.4913	10.763004	0.000264	2.635590	0.892962	0.000105
 140	1.3831e+01	5.5314	10.839709	0.000193	1.926008	0.652549	0.000077
 141	1.3930e+01	5.5763	10.948712	0.000274	2.736959	0.927307	0.000110
 142	1.4030e+01	5.6196	11.037529	0.000223	2.230115	0.755583	0.000089
 143	1.4129e+01	5.6678	11.182866	0.000365	3.649279	1.236409	0.000146
 144	1.4229e+01	5.6982	11.255534	0.000182	1.824639	0.618205	0.000073
 145	1.4328e+01	5.7432	11.320129	0.000162	1.621902	0.549515	0.000065
 146	1.4428e+01	5.7704	11.408946	0.000223	2.230115	0.755583	0.000089
 147	1.4527e+01	5.8089	11.538134	0.000324	3.243803	1.099030	0.000130
 148	1.4627e+01	5.8490	11.655211	0.000294	2.939697	0.995996	0.000118
 149	1.4726e+01	5.8907	11.776325	0.000304	3.041065	1.030341	0.000122
 150	1.4825e+01	5.9292	11.853031	0.000193	1.926008	0.652549	0.000077
 151	1.4925e+01	5.9822	11.945885	0.000233	2.331483	0.789928	0.000093
 152	1.5024e+01	6.0191	12.042776	0.000243	2.432852	0.824273	0.000097
 153	1.5124e+01	6.0528	12.188113	0.000365	3.649279	1.236409	0.000146
 154	1.5223e+01	6.0961	12.301153	0.000284	2.838328	0.961651	0.000114
 155	1.5323e+01	6.1394	12.410155	0.000274	2.736959	0.927307	0.000110
 156	1.5422e+01	6.1763	12.470712	0.000152	1.520533	0.515170	0.000061
 157	1.5522e+01	6.2196	12.567604	0.000243	2.432852	0.824273	0.000097
 158	1.5621e+01	6.2565	12.700829	0.000335	3.345172	1.133375	0.000134
 159	1.5721e+01	6.2966	12.805795	0.000264	2.635590	0.892962	0.000105
 160	1.5820e+01	6.3399	12.894612	0.000223	2.230115	0.755583	0.000089
 161	1.5920e+01	6.3720	12.975354	0.000203	2.027377	0.686894	0.000081
 162	1.6020e+01	6.4137	13.116654	0.000355	3.547910	1.202064	0.000142
 163	1.6119e+01	6.4506	13.221620	0.000264	2.635590	0.892962	0.000105
 164	1.6218e+01	6.4939	13.282177	0.000152	1.520533	0.515170	0.000061
 165	1.6318e+01	6.5324	13.395216	0.000284	2.838328	0.961651	0.000114
 166	1.6418e+01	6.5709	13.528442	0.000335	3.345172	1.133375	0.000134
 167	1.6517e+01	6.6143	13.621296	0.000233	2.331483	0.789928	0.000093
 168	1.6616e+01	6.6463	13.750484	0.000324	3.243803	1.099030	0.000130
 169	1.6716e+01	6.6961	13.807004	0.000142	1.419164	0.480826	0.000057
 170	1.6816e+01	6.7330	13.924081	0.000294	2.939697	0.995996	0.000118
 171	1.6915e+01	6.7683	14.065381	0.000355	3.547910	1.202064	0.000142
 172	1.7015e+01	6.8084	14.186495	0.000304	3.041065	1.030341	0.000122
 173	1.7114e+01	6.8437	14.295498	0.000274	2.736959	0.927307	0.000110
 174	1.7213e+01	6.8902	14.376240	0.000203	2.027377	0.686894	0.000081
 175	1.7313e+01	6.9223	14.473132	0.000243	2.432852	0.824273	0.000097
 176	1.7413e+01	6.9752	14.590209	0.000294	2.939697	0.995996	0.000118
 177	1.7512e+01	7.0009	14.670951	0.000203	2.027377	0.686894	0.000081
 178	1.7611e+01	7.0506	14.796102	0.000314	3.142434	1.064686	0.000126
 179	1.7711e+01	7.0859	14.868771	0.000182	1.824639	0.618205	0.000073
 180	1.7811e+01	7.1276	14.993922	0.000314	3.142434	1.064686	0.000126
 181	1.7910e+01	7.1757	15.110999	0.000294	2.939697	0.995996	0.000118
 182	1.8009e+01	7.1998	15.224039	0.000284	2.838328	0.961651	0.000114
 183	1.8109e+01	7.2431	15.333042	0.000274	2.736959	0.927307	0.000110
 184	1.8209e+01	7.2848	15.450118	0.000294	2.939697	0.995996	0.000118
 185	1.8308e+01	7.3346	15.542973	0.000233	2.331483	0.789928	0.000093
 186	1.8407e+01	7.3650	15.688309	0.000365	3.649279	1.236409	0.000146
 187	1.8507e+01	7.4051	15.748867	0.000152	1.520533	0.515170	0.000061
 188	1.8607e+01	7.4420	15.878055	0.000324	3.243803	1.099030	0.000130
 189	1.8706e+01	7.4886	15.970909	0.000233	2.331483	0.789928	0.000093
 190	1.8805e+01	7.5271	16.120283	0.000375	3.750647	1.270754	0.000150
 191	1.8905e+01	7.5640	16.196989	0.000193	1.926008	0.652549	0.000077
 192	1.9005e+01	7.6089	16.318103	0.000304	3.041065	1.030341	0.000122
 193	1.9104e+01	7.6554	16.419031	0.000253	2.534221	0.858617	0.000101
 194	1.9203e+01	7.6827	16.491699	0.000182	1.824639	0.618205	0.000073
 195	1.9303e+01	7.7212	16.576479	0.000213	2.128746	0.721239	0.000085
 196	1.9402e+01	7.7645	16.750076	0.000436	4.358860	1.476822	0.000174
 197	1.9502e+01	7.8094	16.826782	0.000193	1.926008	0.652549	0.000077
 198	1.9602e+01	7.8479	16.915599	0.000223	2.230115	0.755583	0.000089
 199	1.9701e+01	7.8960	17.044787	0.000324	3.243803	1.099030	0.000130
 200	1.9800e+01	7.9313	17.117456	0.000182	1.824639	0.618205	0.000073
 201	1.9900e+01	7.9714	17.198198	0.000203	2.027377	0.686894	0.000081
 202	2.0000e+01	8.0003	17.323349	0.000314	3.142434	1.064686	0.000126
 203	2.0099e+01	8.0468	17.472723	0.000375	3.750647	1.270754	0.000150
 204	2.0198e+01	8.0885	17.549429	0.000193	1.926008	0.652549	0.000077
 205	2.0298e+01	8.1286	17.662469	0.000284	2.838328	0.961651	0.000114
 206	2.0398e+01	8.1575	17.731100	0.000172	1.723270	0.583860	0.000069
 207	2.0497e+01	8.1912	17.856251	0.000314	3.142434	1.064686	0.000126
 208	2.0596e+01	8.2409	17.961217	0.000264	2.635590	0.892962	0.000105
 209	2.0696e+01	8.2859	18.122702	0.000405	4.054754	1.373788	0.000162
 210	2.0796e+01	8.3292	18.207482	0.000213	2.128746	0.721239	0.000085
 211	2.0895e+01	8.3581	18.320522	0.000284	2.838328	0.961651	0.000114
 212	2.0994e+01	8.4110	18.417413	0.000243	2.432852	0.824273	0.000097
 213	2.1094e+01	8.4447	18.522379	0.000264	2.635590	0.892962	0.000105
 214	2.1194e+01	8.4880	18.623307	0.000253	2.534221	0.858617	0.000101
 215	2.1293e+01	8.5169	18.687901	0.000162	1.621902	0.549515	0.000065
 216	2.1392e+01	8.5714	18.837275	0.000375	3.750647	1.270754	0.000150
 217	2.1492e+01	8.6035	18.901870	0.000162	1.621902	0.549515	0.000065
 218	2.1591e+01	8.6436	19.039132	0.000345	3.446541	1.167720	0.000138
 219	2.1691e+01	8.6757	19.123912	0.000213	2.128746	0.721239	0.000085
 220	2.1791e+01	8.7286	19.208692	0.000213	2.128746	0.721239	0.000085
 221	2.1890e+01	8.7607	19.374214	0.000416	4.156123	1.408133	0.000166
 222	2.1989e+01	8.8008	19.454957	0.000203	2.027377	0.686894	0.000081
 223	2.2089e+01	8.8409	19.519551	0.000162	1.621902	0.549515	0.000065
 224	2.2189e+01	8.8874	19.668925	0.000375	3.750647	1.270754	0.000150
 225	2.2288e+01	8.9276	19.757742	0.000223	2.230115	0.755583	0.000089
 226	2.2387e+01	8.9628	19.890968	0.000335	3.345172	1.133375	0.000134
 227	2.2487e+01	9.0030	19.959599	0.000172	1.723270	0.583860	0.000069
 228	2.2587e+01	9.0350	20.060527	0.000253	2.534221	0.858617	0.000101
 229	2.2686e+01	9.0800	20.185679	0.000314	3.142434	1.064686	0.000126
 230	2.2785e+01	9.1185	20.266421	0.000203	2.027377	0.686894	0.000081
 231	2.2885e+01	9.1570	20.419833	0.000385	3.852016	1.305098	0.000154
 232	2.2985e+01	9.2019	20.464241	0.000112	1.115057	0.377792	0.000045
 233	2.3084e+01	9.2420	20.577281	0.000284	2.838328	0.961651	0.000114
 234	2.3183e+01	9.2789	20.730692	0.000385	3.852016	1.305098	0.000154
 235	2.3283e+01	9.3254	20.831620	0.000253	2.534221	0.858617	0.000101
 236	2.3383e+01	9.3623	20.924475	0.000233	2.331483	0.789928	0.000093
 237	2.3482e+01	9.3976	21.037514	0.000284	2.838328	0.961651	0.000114
 238	2.3581e+01	9.4457	21.126331	0.000223	2.230115	0.755583	0.000089
 239	2.3681e+01	9.4730	21.219185	0.000233	2.331483	0.789928	0.000093
 240	2.3780e+01	9.5307	21.340300	0.000304	3.041065	1.030341	0.000122
 241	2.3880e+01	9.5564	21.469488	0.000324	3.243803	1.099030	0.000130
 242	2.3980e+01	9.6078	21.586565	0.000294	2.939697	0.995996	0.000118
 243	2.4079e+01	9.6366	21.659233	0.000182	1.824639	0.618205	0.000073
 244	2.4178e+01	9.6815	21.780347	0.000304	3.041065	1.030341	0.000122
 245	2.4278e+01	9.7265	21.873201	0.000233	2.331483	0.789928	0.000093
 246	2.4378e+01	9.7618	21.994316	0.000304	3.041065	1.030341	0.000122
 247	2.4477e+01	9.8019	22.079095	0.000213	2.128746	0.721239	0.000085
 248	2.4576e+01	9.8420	22.171949	0.000233	2.331483	0.789928	0.000093
 249	2.4676e+01	9.8853	22.305175	0.000335	3.345172	1.133375	0.000134
 250	2.4776e+01	9.9254	22.381881	0.000193	1.926008	0.652549	0.000077
 251	2.4875e+01	9.9511	22.466660	0.000213	2.128746	0.721239	0.000085
 252	2.4974e+01	10.0008	22.611997	0.000365	3.649279	1.236409	0.000146
 253	2.5074e+01	10.0313	22.680629	0.000172	1.723270	0.583860	0.000069
 254	2.5174e+01	10.0794	22.769446	0.000223	2.230115	0.755583	0.000089
 255	2.5273e+01	10.1083	22.886522	0.000294	2.939697	0.995996	0.000118
 256	2.5372e+01	10.1564	23.011674	0.000314	3.142434	1.064686	0.000126
 257	2.5472e+01	10.1997	23.128751	0.000294	2.939697	0.995996	0.000118
 258	2.5572e+01	10.2302	23.201419	0.000182	1.824639	0.618205	0.000073
 259	2.5671e+01	10.2783	23.318496	0.000294	2.939697	0.995996	0.000118
 260	2.5770e+01	10.3168	23.439610	0.000304	3.041065	1.030341	0.000122
 261	2.5870e+01	10.3441	23.504204	0.000162	1.621902	0.549515	0.000065
 262	2.5970e+01	10.3986	23.633393	0.000324	3.243803	1.099030	0.000130
