»»»»»»»»»»»»»»»»»»»»»»»»»»»»»»»»»»»» Hysteresis ««««««««««««««««««««««««««««««««««««
»»»  Executed Version:	5.48.1
»»»  Vision Version:	5.48.4 (R)
»»»  Vision Compiled:	9/18/24
»»»  Driver Version:	5.47.0
»»»  Windows Version:	Windows 8 or 8.1
»»»  Processor Information:	x86 (AMD or Intel) - 32 Processors
»»»  Tester Name:	PMF21124-494 (100V)
»»»  Tester S/N:	PMF21124-494
»»»  Internal Amp Type:	100V RevK 270k
»»»  Internal Amp S/N:	iAB2-596/K     
»»»  Execution Count:	1
»»»»»»»»»»»»»»»»»»»»»»»»»»»»»»»»»»»»»»»»»»««««««««««««««««««««««««««««««««««««««««««

Stored:	6/19/2025 - 16:48:28
Configured:	06/19/25 10:04:32 AM
Executed:	06/19/25 04:47:59 PM

»»»»»»»»»»»»»»»»»»»»»»»»»»»»»»»»»»» Sample Info ««««««««««««««««««««««««««««««««««««
Sample Name:	
Lot Name:	
Wafer Name:	
Die Row/Column:	0/0
Capacitor Number:	0
Sample Area (cm2):	1.00e-04
Sample Thickness (microns):	3.00e-01

Amplifier:	Internal

»»»»»»»»»»»»»»»»»»»»»»»»»»»»»»»»»»» Tester Info «««««««««««««««««««««««««««««««««««
Tester Name:	PMF21124-494 (100V)
Tester Serial Number:	PMF21124-494
Return Signal Amp. Level:	0.19 [Index: 3]

»»»»»»»»»»»»»»»»»»»»»»»»»»»»»»»» Hysteresis Info ««««««««««««««««««««««««««««««««««
Task Name:	Hyst-1168
Volts:	20.00
Field:	666.67 (kV/cm)
DCBias:	0.00
DCField:	0.00 (kV/cm)
Hysteresis Period (ms):	2.00e+02
Preset:	Enabled
Preset Delay (ms):	1.00e+03
Profile:	Standard Bipolar

»»»»»»»»»»»»»»»»»»»»»»»»»»»»»»»»»»»»»» Data «««««««««««««««««««««««««««««««««««««««
Points:	2009

Valid Data

Point	Time (ms)	Drive Voltage	Measured Polarization (uC/cm2)	Capacitance (uF)	Normalized Capacitance (uF/cm2)	Dielectric Constant	Instantaneous Current (mA)
   1	0.0000e+00	0.0128	-3.683886	0.000142	1.419221	0.480845	0.000057
   2	9.9500e-02	0.0289	-3.627366	0.000142	1.419221	0.480845	0.000057
   3	1.9900e-01	0.0770	-3.518364	0.000274	2.737069	0.927344	0.000110
   4	2.9850e-01	0.1219	-3.385138	0.000335	3.345306	1.133420	0.000134
   5	3.9800e-01	0.1588	-3.272099	0.000284	2.838442	0.961690	0.000114
   6	4.9750e-01	0.2021	-3.163096	0.000274	2.737069	0.927344	0.000110
   7	5.9700e-01	0.2358	-3.074279	0.000223	2.230204	0.755614	0.000089
   8	6.9650e-01	0.2807	-2.932979	0.000355	3.548052	1.202113	0.000142
   9	7.9600e-01	0.3128	-2.844162	0.000223	2.230204	0.755614	0.000089
  10	8.9550e-01	0.3513	-2.735159	0.000274	2.737069	0.927344	0.000110
  11	9.9500e-01	0.3930	-2.593860	0.000355	3.548052	1.202113	0.000142
  12	1.0945e+00	0.4412	-2.496968	0.000243	2.432950	0.824306	0.000097
  13	1.1940e+00	0.4684	-2.416226	0.000203	2.027458	0.686921	0.000081
  14	1.2935e+00	0.5166	-2.266852	0.000375	3.750798	1.270805	0.000150
  15	1.3930e+00	0.5551	-2.153812	0.000284	2.838442	0.961690	0.000114
  16	1.4925e+00	0.5952	-2.056921	0.000243	2.432950	0.824306	0.000097
  17	1.5920e+00	0.6369	-1.968104	0.000223	2.230204	0.755614	0.000089
  18	1.6915e+00	0.6722	-1.826804	0.000355	3.548052	1.202113	0.000142
  19	1.7910e+00	0.7075	-1.758173	0.000172	1.723340	0.583883	0.000069
  20	1.8905e+00	0.7620	-1.616873	0.000355	3.548052	1.202113	0.000142
  21	1.9900e+00	0.7845	-1.491722	0.000314	3.142560	1.064728	0.000126
  22	2.0895e+00	0.8422	-1.334273	0.000395	3.953544	1.339497	0.000158
  23	2.1890e+00	0.8823	-1.293902	0.000101	1.013729	0.343461	0.000041
  24	2.2885e+00	0.9192	-1.164714	0.000324	3.243933	1.099074	0.000130
  25	2.3880e+00	0.9609	-1.055711	0.000274	2.737069	0.927344	0.000110
  26	2.4875e+00	1.0026	-0.954783	0.000253	2.534323	0.858652	0.000101
  27	2.5870e+00	1.0363	-0.849817	0.000264	2.635696	0.892998	0.000105
  28	2.6865e+00	1.0652	-0.712554	0.000345	3.446679	1.167766	0.000138
  29	2.7860e+00	1.1069	-0.583366	0.000324	3.243933	1.099074	0.000130
  30	2.8855e+00	1.1518	-0.510698	0.000182	1.824712	0.618229	0.000073
  31	2.9850e+00	1.2000	-0.369398	0.000355	3.548052	1.202113	0.000142
  32	3.0845e+00	1.2240	-0.276544	0.000233	2.331577	0.789960	0.000093
  33	3.1840e+00	1.2706	-0.179653	0.000243	2.432950	0.824306	0.000097
  34	3.2835e+00	1.3187	-0.050464	0.000324	3.243933	1.099074	0.000130
  35	3.3830e+00	1.3524	0.054501	0.000264	2.635696	0.892998	0.000105
  36	3.4825e+00	1.3893	0.143318	0.000223	2.230204	0.755614	0.000089
  37	3.5820e+00	1.4310	0.284618	0.000355	3.548052	1.202113	0.000142
  38	3.6815e+00	1.4695	0.397658	0.000284	2.838442	0.961690	0.000114
  39	3.7810e+00	1.5096	0.482438	0.000213	2.128831	0.721268	0.000085
  40	3.8805e+00	1.5529	0.607589	0.000314	3.142560	1.064728	0.000126
  41	3.9800e+00	1.5834	0.720629	0.000284	2.838442	0.961690	0.000114
  42	4.0795e+00	1.6267	0.813483	0.000233	2.331577	0.789960	0.000093
  43	4.1790e+00	1.6748	0.942671	0.000324	3.243933	1.099074	0.000130
  44	4.2785e+00	1.7165	1.055711	0.000284	2.838442	0.961690	0.000114
  45	4.3780e+00	1.7534	1.201048	0.000365	3.649425	1.236459	0.000146
  46	4.4775e+00	1.7919	1.281791	0.000203	2.027458	0.686921	0.000081
  47	4.5770e+00	1.8320	1.419053	0.000345	3.446679	1.167766	0.000138
  48	4.6765e+00	1.8721	1.528056	0.000274	2.737069	0.927344	0.000110
  49	4.7760e+00	1.9138	1.608799	0.000203	2.027458	0.686921	0.000081
  50	4.8755e+00	1.9443	1.713764	0.000264	2.635696	0.892998	0.000105
  51	4.9750e+00	1.9925	1.851027	0.000345	3.446679	1.167766	0.000138
  52	5.0745e+00	2.0342	1.943881	0.000233	2.331577	0.789960	0.000093
  53	5.1740e+00	2.0679	2.101329	0.000395	3.953544	1.339497	0.000158
  54	5.2735e+00	2.1096	2.234555	0.000335	3.345306	1.133420	0.000134
  55	5.3730e+00	2.1577	2.287037	0.000132	1.317848	0.446499	0.000053
  56	5.4725e+00	2.1898	2.444486	0.000395	3.953544	1.339497	0.000158
  57	5.5720e+00	2.2251	2.577711	0.000335	3.345306	1.133420	0.000134
  58	5.6715e+00	2.2716	2.686714	0.000274	2.737069	0.927344	0.000110
  59	5.7710e+00	2.3005	2.783605	0.000243	2.432950	0.824306	0.000097
  60	5.8705e+00	2.3406	2.928942	0.000365	3.649425	1.236459	0.000146
  61	5.9700e+00	2.3871	3.029870	0.000253	2.534323	0.858652	0.000101
  62	6.0695e+00	2.4256	3.114650	0.000213	2.128831	0.721268	0.000085
  63	6.1690e+00	2.4689	3.280173	0.000416	4.156290	1.408189	0.000166
  64	6.2685e+00	2.5106	3.389175	0.000274	2.737069	0.927344	0.000110
  65	6.3680e+00	2.5491	3.498178	0.000274	2.737069	0.927344	0.000110
  66	6.4675e+00	2.5892	3.643515	0.000365	3.649425	1.236459	0.000146
  67	6.5670e+00	2.6245	3.772703	0.000324	3.243933	1.099074	0.000130
  68	6.6665e+00	2.6678	3.857483	0.000213	2.128831	0.721268	0.000085
  69	6.7660e+00	2.7144	4.006857	0.000375	3.750798	1.270805	0.000150
  70	6.8655e+00	2.7497	4.071451	0.000162	1.621967	0.549537	0.000065
  71	6.9650e+00	2.7930	4.204677	0.000335	3.345306	1.133420	0.000134
  72	7.0645e+00	2.8154	4.333865	0.000324	3.243933	1.099074	0.000130
  73	7.1640e+00	2.8684	4.438831	0.000264	2.635696	0.892998	0.000105
  74	7.2635e+00	2.9021	4.539759	0.000253	2.534323	0.858652	0.000101
  75	7.3630e+00	2.9502	4.697207	0.000395	3.953544	1.339497	0.000158
  76	7.4625e+00	2.9871	4.826396	0.000324	3.243933	1.099074	0.000130
  77	7.5620e+00	3.0240	4.939436	0.000284	2.838442	0.961690	0.000114
  78	7.6615e+00	3.0641	5.044401	0.000264	2.635696	0.892998	0.000105
  79	7.7610e+00	3.1154	5.157441	0.000284	2.838442	0.961690	0.000114
  80	7.8605e+00	3.1459	5.347186	0.000476	4.764527	1.614265	0.000191
  81	7.9600e+00	3.1844	5.411780	0.000162	1.621967	0.549537	0.000065
  82	8.0595e+00	3.2277	5.540969	0.000324	3.243933	1.099074	0.000130
  83	8.1590e+00	3.2694	5.702454	0.000405	4.054917	1.373843	0.000162
  84	8.2585e+00	3.3143	5.767048	0.000162	1.621967	0.549537	0.000065
  85	8.3580e+00	3.3432	5.888162	0.000304	3.041187	1.030382	0.000122
  86	8.4575e+00	3.3817	6.033499	0.000365	3.649425	1.236459	0.000146
  87	8.5570e+00	3.4347	6.166725	0.000335	3.345306	1.133420	0.000134
  88	8.6565e+00	3.4667	6.271690	0.000264	2.635696	0.892998	0.000105
  89	8.7560e+00	3.5101	6.360507	0.000223	2.230204	0.755614	0.000089
  90	8.8555e+00	3.5438	6.469510	0.000274	2.737069	0.927344	0.000110
  91	8.9550e+00	3.5887	6.647144	0.000446	4.460408	1.511227	0.000179
  92	9.0545e+00	3.6256	6.735961	0.000223	2.230204	0.755614	0.000089
  93	9.1540e+00	3.6609	6.865149	0.000324	3.243933	1.099074	0.000130
  94	9.2535e+00	3.7058	6.990301	0.000314	3.142560	1.064728	0.000126
  95	9.3530e+00	3.7395	7.131600	0.000355	3.548052	1.202113	0.000142
  96	9.4525e+00	3.7764	7.224454	0.000233	2.331577	0.789960	0.000093
  97	9.5520e+00	3.8293	7.361717	0.000345	3.446679	1.167766	0.000138
  98	9.6515e+00	3.8598	7.442460	0.000203	2.027458	0.686921	0.000081
  99	9.7510e+00	3.8999	7.591834	0.000375	3.750798	1.270805	0.000150
 100	9.8505e+00	3.9384	7.708911	0.000294	2.939815	0.996036	0.000118
 101	9.9500e+00	3.9817	7.817913	0.000274	2.737069	0.927344	0.000110
 102	1.0050e+01	4.0218	7.959213	0.000355	3.548052	1.202113	0.000142
 103	1.0149e+01	4.0571	8.060142	0.000253	2.534323	0.858652	0.000101
 104	1.0248e+01	4.1020	8.249887	0.000476	4.764527	1.614265	0.000191
 105	1.0348e+01	4.1357	8.338704	0.000223	2.230204	0.755614	0.000089
 106	1.0447e+01	4.1870	8.431558	0.000233	2.331577	0.789960	0.000093
 107	1.0547e+01	4.2255	8.528449	0.000243	2.432950	0.824306	0.000097
 108	1.0646e+01	4.2608	8.706083	0.000446	4.460408	1.511227	0.000179
 109	1.0746e+01	4.2945	8.823160	0.000294	2.939815	0.996036	0.000118
 110	1.0845e+01	4.3378	8.956386	0.000335	3.345306	1.133420	0.000134
 111	1.0945e+01	4.3892	9.057314	0.000253	2.534323	0.858652	0.000101
 112	1.1044e+01	4.4245	9.174391	0.000294	2.939815	0.996036	0.000118
 113	1.1144e+01	4.4646	9.319728	0.000365	3.649425	1.236459	0.000146
 114	1.1243e+01	4.5031	9.412582	0.000233	2.331577	0.789960	0.000093
 115	1.1343e+01	4.5400	9.561956	0.000375	3.750798	1.270805	0.000150
 116	1.1443e+01	4.5865	9.695181	0.000335	3.345306	1.133420	0.000134
 117	1.1542e+01	4.6266	9.828407	0.000335	3.345306	1.133420	0.000134
 118	1.1642e+01	4.6619	9.953558	0.000314	3.142560	1.064728	0.000126
 119	1.1741e+01	4.7036	10.086784	0.000335	3.345306	1.133420	0.000134
 120	1.1841e+01	4.7405	10.179638	0.000233	2.331577	0.789960	0.000093
 121	1.1940e+01	4.7790	10.288640	0.000274	2.737069	0.927344	0.000110
 122	1.2040e+01	4.8239	10.429940	0.000355	3.548052	1.202113	0.000142
 123	1.2139e+01	4.8560	10.547017	0.000294	2.939815	0.996036	0.000118
 124	1.2239e+01	4.9041	10.704465	0.000395	3.953544	1.339497	0.000158
 125	1.2338e+01	4.9346	10.817505	0.000284	2.838442	0.961690	0.000114
 126	1.2438e+01	4.9763	10.938619	0.000304	3.041187	1.030382	0.000122
 127	1.2537e+01	5.0229	11.063770	0.000314	3.142560	1.064728	0.000126
 128	1.2636e+01	5.0630	11.188922	0.000314	3.142560	1.064728	0.000126
 129	1.2736e+01	5.1079	11.310036	0.000304	3.041187	1.030382	0.000122
 130	1.2835e+01	5.1368	11.443261	0.000335	3.345306	1.133420	0.000134
 131	1.2935e+01	5.1737	11.572450	0.000324	3.243933	1.099074	0.000130
 132	1.3034e+01	5.2138	11.673378	0.000253	2.534323	0.858652	0.000101
 133	1.3134e+01	5.2619	11.842938	0.000426	4.257662	1.442535	0.000170
 134	1.3233e+01	5.3036	11.927718	0.000213	2.128831	0.721268	0.000085
 135	1.3333e+01	5.3389	12.093240	0.000416	4.156290	1.408189	0.000166
 136	1.3432e+01	5.3822	12.141686	0.000122	1.216475	0.412153	0.000049
 137	1.3532e+01	5.4143	12.303171	0.000405	4.054917	1.373843	0.000162
 138	1.3632e+01	5.4576	12.404100	0.000253	2.534323	0.858652	0.000101
 139	1.3731e+01	5.4961	12.521176	0.000294	2.939815	0.996036	0.000118
 140	1.3831e+01	5.5282	12.646328	0.000314	3.142560	1.064728	0.000126
 141	1.3930e+01	5.5811	12.763405	0.000294	2.939815	0.996036	0.000118
 142	1.4030e+01	5.6180	12.908742	0.000365	3.649425	1.236459	0.000146
 143	1.4129e+01	5.6629	12.997559	0.000223	2.230204	0.755614	0.000089
 144	1.4229e+01	5.6870	13.142895	0.000365	3.649425	1.236459	0.000146
 145	1.4328e+01	5.7415	13.284195	0.000355	3.548052	1.202113	0.000142
 146	1.4428e+01	5.7817	13.389161	0.000264	2.635696	0.892998	0.000105
 147	1.4527e+01	5.8153	13.457792	0.000172	1.723340	0.583883	0.000069
 148	1.4627e+01	5.8603	13.566795	0.000274	2.737069	0.927344	0.000110
 149	1.4726e+01	5.8907	13.708094	0.000355	3.548052	1.202113	0.000142
 150	1.4825e+01	5.9341	13.861506	0.000385	3.852171	1.305151	0.000154
 151	1.4925e+01	5.9742	13.954360	0.000233	2.331577	0.789960	0.000093
 152	1.5024e+01	6.0095	14.071437	0.000294	2.939815	0.996036	0.000118
 153	1.5124e+01	6.0512	14.208699	0.000345	3.446679	1.167766	0.000138
 154	1.5223e+01	6.0977	14.317702	0.000274	2.737069	0.927344	0.000110
 155	1.5323e+01	6.1394	14.450927	0.000335	3.345306	1.133420	0.000134
 156	1.5422e+01	6.1763	14.563967	0.000284	2.838442	0.961690	0.000114
 157	1.5522e+01	6.2180	14.672970	0.000274	2.737069	0.927344	0.000110
 158	1.5621e+01	6.2549	14.790047	0.000294	2.939815	0.996036	0.000118
 159	1.5721e+01	6.2934	14.951532	0.000405	4.054917	1.373843	0.000162
 160	1.5820e+01	6.3367	15.060535	0.000274	2.737069	0.927344	0.000110
 161	1.5920e+01	6.3848	15.165500	0.000264	2.635696	0.892998	0.000105
 162	1.6020e+01	6.4137	15.230095	0.000162	1.621967	0.549537	0.000065
 163	1.6119e+01	6.4538	15.391580	0.000405	4.054917	1.373843	0.000162
 164	1.6218e+01	6.4923	15.528843	0.000345	3.446679	1.167766	0.000138
 165	1.6318e+01	6.5308	15.593437	0.000162	1.621967	0.549537	0.000065
 166	1.6418e+01	6.5725	15.734737	0.000355	3.548052	1.202113	0.000142
 167	1.6517e+01	6.6143	15.851813	0.000294	2.939815	0.996036	0.000118
 168	1.6616e+01	6.6463	16.001187	0.000375	3.750798	1.270805	0.000150
 169	1.6716e+01	6.6864	16.106153	0.000264	2.635696	0.892998	0.000105
 170	1.6816e+01	6.7378	16.215156	0.000274	2.737069	0.927344	0.000110
 171	1.6915e+01	6.7683	16.364530	0.000375	3.750798	1.270805	0.000150
 172	1.7015e+01	6.8019	16.481607	0.000294	2.939815	0.996036	0.000118
 173	1.7114e+01	6.8437	16.570424	0.000223	2.230204	0.755614	0.000089
 174	1.7213e+01	6.8870	16.691538	0.000304	3.041187	1.030382	0.000122
 175	1.7313e+01	6.9223	16.788429	0.000243	2.432950	0.824306	0.000097
 176	1.7413e+01	6.9608	16.925692	0.000345	3.446679	1.167766	0.000138
 177	1.7512e+01	7.0073	17.038731	0.000284	2.838442	0.961690	0.000114
 178	1.7611e+01	7.0554	17.163883	0.000314	3.142560	1.064728	0.000126
 179	1.7711e+01	7.0907	17.272885	0.000274	2.737069	0.927344	0.000110
 180	1.7811e+01	7.1356	17.398036	0.000314	3.142560	1.064728	0.000126
 181	1.7910e+01	7.1709	17.482816	0.000213	2.128831	0.721268	0.000085
 182	1.8009e+01	7.2078	17.624116	0.000355	3.548052	1.202113	0.000142
 183	1.8109e+01	7.2495	17.733119	0.000274	2.737069	0.927344	0.000110
 184	1.8209e+01	7.2961	17.854233	0.000304	3.041187	1.030382	0.000122
 185	1.8308e+01	7.3394	18.007644	0.000385	3.852171	1.305151	0.000154
 186	1.8407e+01	7.3714	18.064164	0.000142	1.419221	0.480845	0.000057
 187	1.8507e+01	7.4051	18.225649	0.000405	4.054917	1.373843	0.000162
 188	1.8607e+01	7.4452	18.370986	0.000365	3.649425	1.236459	0.000146
 189	1.8706e+01	7.4950	18.455766	0.000213	2.128831	0.721268	0.000085
 190	1.8805e+01	7.5222	18.572843	0.000294	2.939815	0.996036	0.000118
 191	1.8905e+01	7.5672	18.661660	0.000223	2.230204	0.755614	0.000089
 192	1.9005e+01	7.6169	18.798923	0.000345	3.446679	1.167766	0.000138
 193	1.9104e+01	7.6410	18.895814	0.000243	2.432950	0.824306	0.000097
 194	1.9203e+01	7.6955	19.033076	0.000345	3.446679	1.167766	0.000138
 195	1.9303e+01	7.7244	19.170339	0.000345	3.446679	1.167766	0.000138
 196	1.9402e+01	7.7597	19.267230	0.000243	2.432950	0.824306	0.000097
 197	1.9502e+01	7.7998	19.372196	0.000264	2.635696	0.892998	0.000105
 198	1.9602e+01	7.8447	19.485236	0.000284	2.838442	0.961690	0.000114
 199	1.9701e+01	7.8928	19.618461	0.000335	3.345306	1.133420	0.000134
 200	1.9800e+01	7.9185	19.759761	0.000355	3.548052	1.202113	0.000142
 201	1.9900e+01	7.9682	19.816281	0.000142	1.419221	0.480845	0.000057
 202	2.0000e+01	8.0067	19.901061	0.000213	2.128831	0.721268	0.000085
 203	2.0099e+01	8.0532	20.026212	0.000314	3.142560	1.064728	0.000126
 204	2.0198e+01	8.0853	20.179623	0.000385	3.852171	1.305151	0.000154
 205	2.0298e+01	8.1270	20.280551	0.000253	2.534323	0.858652	0.000101
 206	2.0398e+01	8.1623	20.397628	0.000294	2.939815	0.996036	0.000118
 207	2.0497e+01	8.2040	20.478371	0.000203	2.027458	0.686921	0.000081
 208	2.0596e+01	8.2393	20.627745	0.000375	3.750798	1.270805	0.000150
 209	2.0696e+01	8.2810	20.704451	0.000193	1.926085	0.652575	0.000077
 210	2.0796e+01	8.3292	20.882085	0.000446	4.460408	1.511227	0.000179
 211	2.0895e+01	8.3581	20.954753	0.000182	1.824712	0.618229	0.000073
 212	2.0994e+01	8.4078	21.112201	0.000395	3.953544	1.339497	0.000158
 213	2.1094e+01	8.4495	21.205055	0.000233	2.331577	0.789960	0.000093
 214	2.1194e+01	8.4912	21.297910	0.000233	2.331577	0.789960	0.000093
 215	2.1293e+01	8.5185	21.439209	0.000355	3.548052	1.202113	0.000142
 216	2.1392e+01	8.5666	21.536101	0.000243	2.432950	0.824306	0.000097
 217	2.1492e+01	8.6003	21.681437	0.000365	3.649425	1.236459	0.000146
 218	2.1591e+01	8.6532	21.758143	0.000193	1.926085	0.652575	0.000077
 219	2.1691e+01	8.6869	21.955963	0.000497	4.967273	1.682958	0.000199
 220	2.1791e+01	8.7222	22.056891	0.000253	2.534323	0.858652	0.000101
 221	2.1890e+01	8.7639	22.133597	0.000193	1.926085	0.652575	0.000077
 222	2.1989e+01	8.7928	22.291045	0.000395	3.953544	1.339497	0.000158
 223	2.2089e+01	8.8409	22.347565	0.000142	1.419221	0.480845	0.000057
 224	2.2189e+01	8.8842	22.496939	0.000375	3.750798	1.270805	0.000150
 225	2.2288e+01	8.9227	22.638239	0.000355	3.548052	1.202113	0.000142
 226	2.2387e+01	8.9628	22.723019	0.000213	2.128831	0.721268	0.000085
 227	2.2487e+01	9.0030	22.860281	0.000345	3.446679	1.167766	0.000138
 228	2.2587e+01	9.0463	22.965247	0.000264	2.635696	0.892998	0.000105
 229	2.2686e+01	9.0832	23.126732	0.000405	4.054917	1.373843	0.000162
 230	2.2785e+01	9.1217	23.219586	0.000233	2.331577	0.789960	0.000093
 231	2.2885e+01	9.1570	23.344737	0.000314	3.142560	1.064728	0.000126
 232	2.2985e+01	9.2035	23.453740	0.000274	2.737069	0.927344	0.000110
 233	2.3084e+01	9.2452	23.595040	0.000355	3.548052	1.202113	0.000142
 234	2.3183e+01	9.2789	23.695968	0.000253	2.534323	0.858652	0.000101
 235	2.3283e+01	9.3206	23.809008	0.000284	2.838442	0.961690	0.000114
 236	2.3383e+01	9.3655	23.918011	0.000274	2.737069	0.927344	0.000110
 237	2.3482e+01	9.3992	24.018939	0.000253	2.534323	0.858652	0.000101
 238	2.3581e+01	9.4505	24.176387	0.000395	3.953544	1.339497	0.000158
 239	2.3681e+01	9.4794	24.301539	0.000314	3.142560	1.064728	0.000126
 240	2.3780e+01	9.5275	24.398430	0.000243	2.432950	0.824306	0.000097
 241	2.3880e+01	9.5580	24.539730	0.000355	3.548052	1.202113	0.000142
 242	2.3980e+01	9.5997	24.636621	0.000243	2.432950	0.824306	0.000097
 243	2.4079e+01	9.6463	24.781958	0.000365	3.649425	1.236459	0.000146
 244	2.4178e+01	9.6848	24.882886	0.000253	2.534323	0.858652	0.000101
 245	2.4278e+01	9.7217	25.024186	0.000355	3.548052	1.202113	0.000142
 246	2.4378e+01	9.7537	25.145300	0.000304	3.041187	1.030382	0.000122
 247	2.4477e+01	9.7938	25.262377	0.000294	2.939815	0.996036	0.000118
 248	2.4576e+01	9.8404	25.351194	0.000223	2.230204	0.755614	0.000089
 249	2.4676e+01	9.8789	25.480382	0.000324	3.243933	1.099074	0.000130
 250	2.4776e+01	9.9190	25.621682	0.000355	3.548052	1.202113	0.000142
 251	2.4875e+01	9.9607	25.746833	0.000314	3.142560	1.064728	0.000126
 252	2.4974e+01	10.0040	25.835650	0.000223	2.230204	0.755614	0.000089
 253	2.5074e+01	10.0361	25.972913	0.000345	3.446679	1.167766	0.000138
 254	2.5174e+01	10.0746	26.126324	0.000385	3.852171	1.305151	0.000154
 255	2.5273e+01	10.1099	26.243401	0.000294	2.939815	0.996036	0.000118
 256	2.5372e+01	10.1676	26.332218	0.000223	2.230204	0.755614	0.000089
 257	2.5472e+01	10.2013	26.465443	0.000335	3.345306	1.133420	0.000134
 258	2.5572e+01	10.2318	26.574446	0.000274	2.737069	0.927344	0.000110
 259	2.5671e+01	10.2719	26.659226	0.000213	2.128831	0.721268	0.000085
 260	2.5770e+01	10.3248	26.788414	0.000324	3.243933	1.099074	0.000130
 261	2.5870e+01	10.3569	26.949900	0.000405	4.054917	1.373843	0.000162
 262	2.5970e+01	10.4018	27.046791	0.000243	2.432950	0.824306	0.000097
