»»»»»»»»»»»»»»»»»»»»»»»»»»»»»»»»»»»» Hysteresis ««««««««««««««««««««««««««««««««««««
»»»  Executed Version:	5.48.1
»»»  Vision Version:	5.48.4 (R)
»»»  Vision Compiled:	9/18/24
»»»  Driver Version:	5.47.0
»»»  Windows Version:	Windows 8 or 8.1
»»»  Processor Information:	x86 (AMD or Intel) - 32 Processors
»»»  Tester Name:	PMF21124-494 (100V)
»»»  Tester S/N:	PMF21124-494
»»»  Internal Amp Type:	100V RevK 270k
»»»  Internal Amp S/N:	iAB2-596/K     
»»»  Execution Count:	1
»»»»»»»»»»»»»»»»»»»»»»»»»»»»»»»»»»»»»»»»»»««««««««««««««««««««««««««««««««««««««««««

Stored:	6/19/2025 - 19:8:4
Configured:	06/19/25 10:04:32 AM
Executed:	06/19/25 07:07:05 PM

»»»»»»»»»»»»»»»»»»»»»»»»»»»»»»»»»»» Sample Info ««««««««««««««««««««««««««««««««««««
Sample Name:	
Lot Name:	
Wafer Name:	
Die Row/Column:	0/0
Capacitor Number:	0
Sample Area (cm2):	1.00e-04
Sample Thickness (microns):	3.00e-01

Amplifier:	Internal

»»»»»»»»»»»»»»»»»»»»»»»»»»»»»»»»»»» Tester Info «««««««««««««««««««««««««««««««««««
Tester Name:	PMF21124-494 (100V)
Tester Serial Number:	PMF21124-494
Return Signal Amp. Level:	0.19 [Index: 3]

»»»»»»»»»»»»»»»»»»»»»»»»»»»»»»»» Hysteresis Info ««««««««««««««««««««««««««««««««««
Task Name:	Hyst-1168
Volts:	20.00
Field:	666.67 (kV/cm)
DCBias:	0.00
DCField:	0.00 (kV/cm)
Hysteresis Period (ms):	2.00e+02
Preset:	Enabled
Preset Delay (ms):	1.00e+03
Profile:	Standard Bipolar

»»»»»»»»»»»»»»»»»»»»»»»»»»»»»»»»»»»»»» Data «««««««««««««««««««««««««««««««««««««««
Points:	2009

Valid Data

Point	Time (ms)	Drive Voltage	Measured Polarization (uC/cm2)	Capacitance (uF)	Normalized Capacitance (uF/cm2)	Dielectric Constant	Instantaneous Current (mA)
   1	0.0000e+00	0.0048	-6.001202	0.000182	1.824712	0.618229	0.000073
   2	9.9500e-02	0.0353	-5.928534	0.000182	1.824712	0.618229	0.000073
   3	1.9900e-01	0.0690	-5.783197	0.000365	3.649425	1.236459	0.000146
   4	2.9850e-01	0.1107	-5.633823	0.000375	3.750798	1.270805	0.000150
   5	3.9800e-01	0.1620	-5.452152	0.000456	4.561781	1.545573	0.000183
   6	4.9750e-01	0.2021	-5.351223	0.000253	2.534323	0.858652	0.000101
   7	5.9700e-01	0.2342	-5.213961	0.000345	3.446679	1.167766	0.000138
   8	6.9650e-01	0.2823	-5.040364	0.000436	4.359035	1.476881	0.000174
   9	7.9600e-01	0.3160	-4.903101	0.000345	3.446679	1.167766	0.000138
  10	8.9550e-01	0.3610	-4.802173	0.000253	2.534323	0.858652	0.000101
  11	9.9500e-01	0.3962	-4.677022	0.000314	3.142560	1.064728	0.000126
  12	1.0945e+00	0.4283	-4.487276	0.000476	4.764527	1.614265	0.000191
  13	1.1940e+00	0.4797	-4.394422	0.000233	2.331577	0.789960	0.000093
  14	1.2935e+00	0.5262	-4.257160	0.000345	3.446679	1.167766	0.000138
  15	1.3930e+00	0.5567	-4.055303	0.000507	5.068646	1.717304	0.000203
  16	1.4925e+00	0.5936	-3.954374	0.000253	2.534323	0.858652	0.000101
  17	1.5920e+00	0.6337	-3.833260	0.000304	3.041187	1.030382	0.000122
  18	1.6915e+00	0.6706	-3.647552	0.000466	4.663154	1.579919	0.000187
  19	1.7910e+00	0.7171	-3.538549	0.000274	2.737069	0.927344	0.000110
  20	1.8905e+00	0.7460	-3.449732	0.000223	2.230204	0.755614	0.000089
  21	1.9900e+00	0.7877	-3.255950	0.000487	4.865900	1.648612	0.000195
  22	2.0895e+00	0.8438	-3.118687	0.000345	3.446679	1.167766	0.000138
  23	2.1890e+00	0.8807	-2.989499	0.000324	3.243933	1.099074	0.000130
  24	2.2885e+00	0.9144	-2.856274	0.000335	3.345306	1.133420	0.000134
  25	2.3880e+00	0.9497	-2.723048	0.000335	3.345306	1.133420	0.000134
  26	2.4875e+00	0.9914	-2.537340	0.000466	4.663154	1.579919	0.000187
  27	2.5870e+00	1.0363	-2.416226	0.000304	3.041187	1.030382	0.000122
  28	2.6865e+00	1.0780	-2.278963	0.000345	3.446679	1.167766	0.000138
  29	2.7860e+00	1.1085	-2.145738	0.000335	3.345306	1.133420	0.000134
  30	2.8855e+00	1.1599	-1.972141	0.000436	4.359035	1.476881	0.000174
  31	2.9850e+00	1.1935	-1.855064	0.000294	2.939815	0.996036	0.000118
  32	3.0845e+00	1.2337	-1.725876	0.000324	3.243933	1.099074	0.000130
  33	3.1840e+00	1.2689	-1.588613	0.000345	3.446679	1.167766	0.000138
  34	3.2835e+00	1.3123	-1.459425	0.000324	3.243933	1.099074	0.000130
  35	3.3830e+00	1.3556	-1.289865	0.000426	4.257662	1.442535	0.000170
  36	3.4825e+00	1.3812	-1.128379	0.000405	4.054917	1.373843	0.000162
  37	3.5820e+00	1.4326	-1.011303	0.000294	2.939815	0.996036	0.000118
  38	3.6815e+00	1.4711	-0.841743	0.000426	4.257662	1.442535	0.000170
  39	3.7810e+00	1.5128	-0.708517	0.000335	3.345306	1.133420	0.000134
  40	3.8805e+00	1.5545	-0.563180	0.000365	3.649425	1.236459	0.000146
  41	3.9800e+00	1.5946	-0.413806	0.000375	3.750798	1.270805	0.000150
  42	4.0795e+00	1.6347	-0.296729	0.000294	2.939815	0.996036	0.000118
  43	4.1790e+00	1.6636	-0.139281	0.000395	3.953544	1.339497	0.000158
  44	4.2785e+00	1.7181	-0.014130	0.000314	3.142560	1.064728	0.000126
  45	4.3780e+00	1.7534	0.195801	0.000527	5.271392	1.785996	0.000211
  46	4.4775e+00	1.7855	0.300767	0.000264	2.635696	0.892998	0.000105
  47	4.5770e+00	1.8352	0.429955	0.000324	3.243933	1.099074	0.000130
  48	4.6765e+00	1.8721	0.538958	0.000274	2.737069	0.927344	0.000110
  49	4.7760e+00	1.9042	0.744852	0.000517	5.170019	1.751650	0.000207
  50	4.8755e+00	1.9475	0.870003	0.000314	3.142560	1.064728	0.000126
  51	4.9750e+00	1.9909	1.011303	0.000355	3.548052	1.202113	0.000142
  52	5.0745e+00	2.0294	1.168751	0.000395	3.953544	1.339497	0.000158
  53	5.1740e+00	2.0743	1.257568	0.000223	2.230204	0.755614	0.000089
  54	5.2735e+00	2.1208	1.423090	0.000416	4.156290	1.408189	0.000166
  55	5.3730e+00	2.1497	1.576502	0.000385	3.852171	1.305151	0.000154
  56	5.4725e+00	2.1930	1.733950	0.000395	3.953544	1.339497	0.000158
  57	5.5720e+00	2.2235	1.863138	0.000324	3.243933	1.099074	0.000130
  58	5.6715e+00	2.2732	2.024624	0.000405	4.054917	1.373843	0.000162
  59	5.7710e+00	2.3085	2.186109	0.000405	4.054917	1.373843	0.000162
  60	5.8705e+00	2.3550	2.270889	0.000213	2.128831	0.721268	0.000085
  61	5.9700e+00	2.3871	2.456597	0.000466	4.663154	1.579919	0.000187
  62	6.0695e+00	2.4352	2.614045	0.000395	3.953544	1.339497	0.000158
  63	6.1690e+00	2.4625	2.706900	0.000233	2.331577	0.789960	0.000093
  64	6.2685e+00	2.5122	2.856274	0.000375	3.750798	1.270805	0.000150
  65	6.3680e+00	2.5315	3.037945	0.000456	4.561781	1.545573	0.000183
  66	6.4675e+00	2.5828	3.150984	0.000284	2.838442	0.961690	0.000114
  67	6.5670e+00	2.6277	3.304396	0.000385	3.852171	1.305151	0.000154
  68	6.6665e+00	2.6646	3.449732	0.000365	3.649425	1.236459	0.000146
  69	6.7660e+00	2.7063	3.603144	0.000385	3.852171	1.305151	0.000154
  70	6.8655e+00	2.7432	3.764629	0.000405	4.054917	1.373843	0.000162
  71	6.9650e+00	2.7962	3.930152	0.000416	4.156290	1.408189	0.000166
  72	7.0645e+00	2.8315	4.027043	0.000243	2.432950	0.824306	0.000097
  73	7.1640e+00	2.8700	4.180454	0.000385	3.852171	1.305151	0.000154
  74	7.2635e+00	2.9085	4.378274	0.000497	4.967273	1.682958	0.000199
  75	7.3630e+00	2.9566	4.495351	0.000294	2.939815	0.996036	0.000118
  76	7.4625e+00	2.9839	4.628576	0.000335	3.345306	1.133420	0.000134
  77	7.5620e+00	3.0111	4.786024	0.000395	3.953544	1.339497	0.000158
  78	7.6615e+00	3.0625	4.919250	0.000335	3.345306	1.133420	0.000134
  79	7.7610e+00	3.1042	5.064587	0.000365	3.649425	1.236459	0.000146
  80	7.8605e+00	3.1491	5.254332	0.000476	4.764527	1.614265	0.000191
  81	7.9600e+00	3.1828	5.391595	0.000345	3.446679	1.167766	0.000138
  82	8.0595e+00	3.2213	5.524820	0.000335	3.345306	1.133420	0.000134
  83	8.1590e+00	3.2726	5.666120	0.000355	3.548052	1.202113	0.000142
  84	8.2585e+00	3.2999	5.839717	0.000436	4.359035	1.476881	0.000174
  85	8.3580e+00	3.3512	5.993128	0.000385	3.852171	1.305151	0.000154
  86	8.4575e+00	3.3881	6.118279	0.000314	3.142560	1.064728	0.000126
  87	8.5570e+00	3.4202	6.295913	0.000446	4.460408	1.511227	0.000179
  88	8.6565e+00	3.4651	6.449324	0.000385	3.852171	1.305151	0.000154
  89	8.7560e+00	3.5101	6.590624	0.000355	3.548052	1.202113	0.000142
  90	8.8555e+00	3.5486	6.735961	0.000365	3.649425	1.236459	0.000146
  91	8.9550e+00	3.5903	6.881298	0.000365	3.649425	1.236459	0.000146
  92	9.0545e+00	3.6191	7.022598	0.000355	3.548052	1.202113	0.000142
  93	9.1540e+00	3.6657	7.159860	0.000345	3.446679	1.167766	0.000138
  94	9.2535e+00	3.7090	7.345568	0.000466	4.663154	1.579919	0.000187
  95	9.3530e+00	3.7395	7.450534	0.000264	2.635696	0.892998	0.000105
  96	9.4525e+00	3.7812	7.595871	0.000365	3.649425	1.236459	0.000146
  97	9.5520e+00	3.8261	7.745245	0.000375	3.750798	1.270805	0.000150
  98	9.6515e+00	3.8678	7.910767	0.000416	4.156290	1.408189	0.000166
  99	9.7510e+00	3.8951	8.031882	0.000304	3.041187	1.030382	0.000122
 100	9.8505e+00	3.9416	8.197404	0.000416	4.156290	1.408189	0.000166
 101	9.9500e+00	3.9865	8.395224	0.000497	4.967273	1.682958	0.000199
 102	1.0050e+01	4.0202	8.496152	0.000253	2.534323	0.858652	0.000101
 103	1.0149e+01	4.0635	8.637452	0.000355	3.548052	1.202113	0.000142
 104	1.0248e+01	4.1084	8.786826	0.000375	3.750798	1.270805	0.000150
 105	1.0348e+01	4.1357	8.952348	0.000416	4.156290	1.408189	0.000166
 106	1.0447e+01	4.1774	9.073463	0.000304	3.041187	1.030382	0.000122
 107	1.0547e+01	4.2175	9.243022	0.000426	4.257662	1.442535	0.000170
 108	1.0646e+01	4.2657	9.408545	0.000416	4.156290	1.408189	0.000166
 109	1.0746e+01	4.3074	9.578105	0.000426	4.257662	1.442535	0.000170
 110	1.0845e+01	4.3378	9.695181	0.000294	2.939815	0.996036	0.000118
 111	1.0945e+01	4.3828	9.816296	0.000304	3.041187	1.030382	0.000122
 112	1.1044e+01	4.4197	9.989892	0.000436	4.359035	1.476881	0.000174
 113	1.1144e+01	4.4598	10.139266	0.000375	3.750798	1.270805	0.000150
 114	1.1243e+01	4.4967	10.288640	0.000375	3.750798	1.270805	0.000150
 115	1.1343e+01	4.5464	10.450126	0.000405	4.054917	1.373843	0.000162
 116	1.1443e+01	4.5801	10.579314	0.000324	3.243933	1.099074	0.000130
 117	1.1542e+01	4.6138	10.728688	0.000375	3.750798	1.270805	0.000150
 118	1.1642e+01	4.6651	10.886137	0.000395	3.953544	1.339497	0.000158
 119	1.1741e+01	4.7020	11.035511	0.000375	3.750798	1.270805	0.000150
 120	1.1841e+01	4.7277	11.164699	0.000324	3.243933	1.099074	0.000130
 121	1.1940e+01	4.7694	11.346370	0.000456	4.561781	1.545573	0.000183
 122	1.2040e+01	4.8223	11.475558	0.000324	3.243933	1.099074	0.000130
 123	1.2139e+01	4.8512	11.616858	0.000355	3.548052	1.202113	0.000142
 124	1.2239e+01	4.9073	11.746046	0.000324	3.243933	1.099074	0.000130
 125	1.2338e+01	4.9314	11.923680	0.000446	4.460408	1.511227	0.000179
 126	1.2438e+01	4.9683	12.060943	0.000345	3.446679	1.167766	0.000138
 127	1.2537e+01	5.0212	12.234540	0.000436	4.359035	1.476881	0.000174
 128	1.2636e+01	5.0662	12.351617	0.000294	2.939815	0.996036	0.000118
 129	1.2736e+01	5.0999	12.517139	0.000416	4.156290	1.408189	0.000166
 130	1.2835e+01	5.1512	12.626142	0.000274	2.737069	0.927344	0.000110
 131	1.2935e+01	5.1769	12.779553	0.000385	3.852171	1.305151	0.000154
 132	1.3034e+01	5.2170	12.941039	0.000405	4.054917	1.373843	0.000162
 133	1.3134e+01	5.2667	13.134821	0.000487	4.865900	1.648612	0.000195
 134	1.3233e+01	5.2827	13.276121	0.000355	3.548052	1.202113	0.000142
 135	1.3333e+01	5.3437	13.453755	0.000446	4.460408	1.511227	0.000179
 136	1.3432e+01	5.3822	13.562758	0.000274	2.737069	0.927344	0.000110
 137	1.3532e+01	5.4223	13.724243	0.000405	4.054917	1.373843	0.000162
 138	1.3632e+01	5.4560	13.857468	0.000335	3.345306	1.133420	0.000134
 139	1.3731e+01	5.5009	14.002805	0.000365	3.649425	1.236459	0.000146
 140	1.3831e+01	5.5362	14.140068	0.000345	3.446679	1.167766	0.000138
 141	1.3930e+01	5.5763	14.333850	0.000487	4.865900	1.648612	0.000195
 142	1.4030e+01	5.6212	14.471113	0.000345	3.446679	1.167766	0.000138
 143	1.4129e+01	5.6517	14.628561	0.000395	3.953544	1.339497	0.000158
 144	1.4229e+01	5.6966	14.777935	0.000375	3.750798	1.270805	0.000150
 145	1.4328e+01	5.7399	14.923272	0.000365	3.649425	1.236459	0.000146
 146	1.4428e+01	5.7736	15.072646	0.000375	3.750798	1.270805	0.000150
 147	1.4527e+01	5.8186	15.197797	0.000314	3.142560	1.064728	0.000126
 148	1.4627e+01	5.8587	15.395617	0.000497	4.967273	1.682958	0.000199
 149	1.4726e+01	5.9036	15.520768	0.000314	3.142560	1.064728	0.000126
 150	1.4825e+01	5.9292	15.678217	0.000395	3.953544	1.339497	0.000158
 151	1.4925e+01	5.9710	15.787219	0.000274	2.737069	0.927344	0.000110
 152	1.5024e+01	6.0046	15.964853	0.000446	4.460408	1.511227	0.000179
 153	1.5124e+01	6.0592	16.102116	0.000345	3.446679	1.167766	0.000138
 154	1.5223e+01	6.1009	16.283787	0.000456	4.561781	1.545573	0.000183
 155	1.5323e+01	6.1362	16.412975	0.000324	3.243933	1.099074	0.000130
 156	1.5422e+01	6.1747	16.566387	0.000385	3.852171	1.305151	0.000154
 157	1.5522e+01	6.2068	16.647129	0.000203	2.027458	0.686921	0.000081
 158	1.5621e+01	6.2581	16.844949	0.000497	4.967273	1.682958	0.000199
 159	1.5721e+01	6.2966	17.002397	0.000395	3.953544	1.339497	0.000158
 160	1.5820e+01	6.3335	17.131586	0.000324	3.243933	1.099074	0.000130
 161	1.5920e+01	6.3816	17.289034	0.000395	3.953544	1.339497	0.000158
 162	1.6020e+01	6.4153	17.406111	0.000294	2.939815	0.996036	0.000118
 163	1.6119e+01	6.4458	17.555485	0.000375	3.750798	1.270805	0.000150
 164	1.6218e+01	6.4891	17.692747	0.000345	3.446679	1.167766	0.000138
 165	1.6318e+01	6.5308	17.850196	0.000395	3.953544	1.339497	0.000158
 166	1.6418e+01	6.5709	18.007644	0.000395	3.953544	1.339497	0.000158
 167	1.6517e+01	6.6110	18.108572	0.000253	2.534323	0.858652	0.000101
 168	1.6616e+01	6.6592	18.282169	0.000436	4.359035	1.476881	0.000174
 169	1.6716e+01	6.6977	18.467877	0.000466	4.663154	1.579919	0.000187
 170	1.6816e+01	6.7314	18.601103	0.000335	3.345306	1.133420	0.000134
 171	1.6915e+01	6.7667	18.730291	0.000324	3.243933	1.099074	0.000130
 172	1.7015e+01	6.8100	18.891777	0.000405	4.054917	1.373843	0.000162
 173	1.7114e+01	6.8485	19.020965	0.000324	3.243933	1.099074	0.000130
 174	1.7213e+01	6.8918	19.190525	0.000426	4.257662	1.442535	0.000170
 175	1.7313e+01	6.9239	19.315676	0.000314	3.142560	1.064728	0.000126
 176	1.7413e+01	6.9656	19.456976	0.000355	3.548052	1.202113	0.000142
 177	1.7512e+01	7.0089	19.570015	0.000284	2.838442	0.961690	0.000114
 178	1.7611e+01	7.0522	19.735538	0.000416	4.156290	1.408189	0.000166
 179	1.7711e+01	7.0907	19.909135	0.000436	4.359035	1.476881	0.000174
 180	1.7811e+01	7.1260	20.074657	0.000416	4.156290	1.408189	0.000166
 181	1.7910e+01	7.1693	20.187697	0.000284	2.838442	0.961690	0.000114
 182	1.8009e+01	7.2094	20.324960	0.000345	3.446679	1.167766	0.000138
 183	1.8109e+01	7.2479	20.478371	0.000385	3.852171	1.305151	0.000154
 184	1.8209e+01	7.2928	20.627745	0.000375	3.750798	1.270805	0.000150
 185	1.8308e+01	7.3249	20.765008	0.000345	3.446679	1.167766	0.000138
 186	1.8407e+01	7.3666	20.922456	0.000395	3.953544	1.339497	0.000158
 187	1.8507e+01	7.4051	21.075867	0.000385	3.852171	1.305151	0.000154
 188	1.8607e+01	7.4436	21.217167	0.000355	3.548052	1.202113	0.000142
 189	1.8706e+01	7.4854	21.374615	0.000395	3.953544	1.339497	0.000158
 190	1.8805e+01	7.5222	21.487655	0.000284	2.838442	0.961690	0.000114
 191	1.8905e+01	7.5656	21.701623	0.000537	5.372764	1.820342	0.000215
 192	1.9005e+01	7.5976	21.790440	0.000223	2.230204	0.755614	0.000089
 193	1.9104e+01	7.6426	21.980186	0.000476	4.764527	1.614265	0.000191
 194	1.9203e+01	7.6923	22.125522	0.000365	3.649425	1.236459	0.000146
 195	1.9303e+01	7.7244	22.238562	0.000284	2.838442	0.961690	0.000114
 196	1.9402e+01	7.7645	22.440419	0.000507	5.068646	1.717304	0.000203
 197	1.9502e+01	7.8094	22.561533	0.000304	3.041187	1.030382	0.000122
 198	1.9602e+01	7.8479	22.698796	0.000345	3.446679	1.167766	0.000138
 199	1.9701e+01	7.8864	22.860281	0.000405	4.054917	1.373843	0.000162
 200	1.9800e+01	7.9185	22.973321	0.000284	2.838442	0.961690	0.000114
 201	1.9900e+01	7.9682	23.122695	0.000375	3.750798	1.270805	0.000150
 202	2.0000e+01	8.0115	23.304366	0.000456	4.561781	1.545573	0.000183
 203	2.0099e+01	8.0549	23.453740	0.000375	3.750798	1.270805	0.000150
 204	2.0198e+01	8.0869	23.566780	0.000284	2.838442	0.961690	0.000114
 205	2.0298e+01	8.1174	23.740377	0.000436	4.359035	1.476881	0.000174
 206	2.0398e+01	8.1607	23.901862	0.000405	4.054917	1.373843	0.000162
 207	2.0497e+01	8.1960	24.002791	0.000253	2.534323	0.858652	0.000101
 208	2.0596e+01	8.2490	24.156202	0.000385	3.852171	1.305151	0.000154
 209	2.0696e+01	8.2859	24.289427	0.000335	3.345306	1.133420	0.000134
 210	2.0796e+01	8.3276	24.458987	0.000426	4.257662	1.442535	0.000170
 211	2.0895e+01	8.3581	24.632584	0.000436	4.359035	1.476881	0.000174
 212	2.0994e+01	8.4094	24.790032	0.000395	3.953544	1.339497	0.000158
 213	2.1094e+01	8.4447	24.931332	0.000355	3.548052	1.202113	0.000142
 214	2.1194e+01	8.4848	25.056483	0.000314	3.142560	1.064728	0.000126
 215	2.1293e+01	8.5329	25.230080	0.000436	4.359035	1.476881	0.000174
 216	2.1392e+01	8.5586	25.335045	0.000264	2.635696	0.892998	0.000105
 217	2.1492e+01	8.5939	25.500568	0.000416	4.156290	1.408189	0.000166
 218	2.1591e+01	8.6356	25.653979	0.000385	3.852171	1.305151	0.000154
 219	2.1691e+01	8.6837	25.799316	0.000365	3.649425	1.236459	0.000146
 220	2.1791e+01	8.7222	25.916393	0.000294	2.939815	0.996036	0.000118
 221	2.1890e+01	8.7591	26.098064	0.000456	4.561781	1.545573	0.000183
 222	2.1989e+01	8.8024	26.211104	0.000284	2.838442	0.961690	0.000114
 223	2.2089e+01	8.8361	26.380663	0.000426	4.257662	1.442535	0.000170
 224	2.2189e+01	8.8858	26.521963	0.000355	3.548052	1.202113	0.000142
 225	2.2288e+01	8.9195	26.663263	0.000355	3.548052	1.202113	0.000142
 226	2.2387e+01	8.9645	26.808600	0.000365	3.649425	1.236459	0.000146
 227	2.2487e+01	9.0094	26.921640	0.000284	2.838442	0.961690	0.000114
 228	2.2587e+01	9.0382	27.050828	0.000324	3.243933	1.099074	0.000130
 229	2.2686e+01	9.0832	27.228462	0.000446	4.460408	1.511227	0.000179
 230	2.2785e+01	9.1169	27.341502	0.000284	2.838442	0.961690	0.000114
 231	2.2885e+01	9.1650	27.551433	0.000527	5.271392	1.785996	0.000211
 232	2.2985e+01	9.1987	27.652361	0.000253	2.534323	0.858652	0.000101
 233	2.3084e+01	9.2388	27.781550	0.000324	3.243933	1.099074	0.000130
 234	2.3183e+01	9.2901	27.943035	0.000405	4.054917	1.373843	0.000162
 235	2.3283e+01	9.3206	28.152966	0.000527	5.271392	1.785996	0.000211
 236	2.3383e+01	9.3751	28.225635	0.000182	1.824712	0.618229	0.000073
 237	2.3482e+01	9.4008	28.387120	0.000405	4.054917	1.373843	0.000162
 238	2.3581e+01	9.4473	28.564754	0.000446	4.460408	1.511227	0.000179
 239	2.3681e+01	9.4778	28.702017	0.000345	3.446679	1.167766	0.000138
 240	2.3780e+01	9.5195	28.871576	0.000426	4.257662	1.442535	0.000170
 241	2.3880e+01	9.5596	28.956356	0.000213	2.128831	0.721268	0.000085
 242	2.3980e+01	9.6094	29.162250	0.000517	5.170019	1.751650	0.000207
 243	2.4079e+01	9.6286	29.279327	0.000294	2.939815	0.996036	0.000118
 244	2.4178e+01	9.6719	29.396404	0.000294	2.939815	0.996036	0.000118
 245	2.4278e+01	9.7088	29.602298	0.000517	5.170019	1.751650	0.000207
 246	2.4378e+01	9.7537	29.719375	0.000294	2.939815	0.996036	0.000118
 247	2.4477e+01	9.8019	29.884897	0.000416	4.156290	1.408189	0.000166
 248	2.4576e+01	9.8388	30.034271	0.000375	3.750798	1.270805	0.000150
 249	2.4676e+01	9.8805	30.163460	0.000324	3.243933	1.099074	0.000130
 250	2.4776e+01	9.9270	30.337057	0.000436	4.359035	1.476881	0.000174
 251	2.4875e+01	9.9623	30.446059	0.000274	2.737069	0.927344	0.000110
 252	2.4974e+01	9.9976	30.591396	0.000365	3.649425	1.236459	0.000146
 253	2.5074e+01	10.0393	30.789216	0.000497	4.967273	1.682958	0.000199
 254	2.5174e+01	10.0794	30.902256	0.000284	2.838442	0.961690	0.000114
 255	2.5273e+01	10.1163	31.067778	0.000416	4.156290	1.408189	0.000166
 256	2.5372e+01	10.1532	31.176781	0.000274	2.737069	0.927344	0.000110
 257	2.5472e+01	10.1997	31.354415	0.000446	4.460408	1.511227	0.000179
 258	2.5572e+01	10.2318	31.491677	0.000345	3.446679	1.167766	0.000138
 259	2.5671e+01	10.2687	31.628940	0.000345	3.446679	1.167766	0.000138
 260	2.5770e+01	10.3184	31.790425	0.000405	4.054917	1.373843	0.000162
 261	2.5870e+01	10.3666	31.899428	0.000274	2.737069	0.927344	0.000110
 262	2.5970e+01	10.3970	32.064951	0.000416	4.156290	1.408189	0.000166
