»»»»»»»»»»»»»»»»»»»»»»»»»»»»»»»»»»»» Hysteresis ««««««««««««««««««««««««««««««««««««
»»»  Executed Version:	5.48.1
»»»  Vision Version:	5.48.4 (R)
»»»  Vision Compiled:	9/18/24
»»»  Driver Version:	5.47.0
»»»  Windows Version:	Windows 8 or 8.1
»»»  Processor Information:	x86 (AMD or Intel) - 32 Processors
»»»  Tester Name:	PMF21124-494 (100V)
»»»  Tester S/N:	PMF21124-494
»»»  Internal Amp Type:	100V RevK 270k
»»»  Internal Amp S/N:	iAB2-596/K     
»»»  Execution Count:	1
»»»»»»»»»»»»»»»»»»»»»»»»»»»»»»»»»»»»»»»»»»««««««««««««««««««««««««««««««««««««««««««

Stored:	6/19/2025 - 18:59:3
Configured:	06/19/25 10:04:32 AM
Executed:	06/19/25 06:58:40 PM

»»»»»»»»»»»»»»»»»»»»»»»»»»»»»»»»»»» Sample Info ««««««««««««««««««««««««««««««««««««
Sample Name:	
Lot Name:	
Wafer Name:	
Die Row/Column:	0/0
Capacitor Number:	0
Sample Area (cm2):	1.00e-04
Sample Thickness (microns):	3.00e-01

Amplifier:	Internal

»»»»»»»»»»»»»»»»»»»»»»»»»»»»»»»»»»» Tester Info «««««««««««««««««««««««««««««««««««
Tester Name:	PMF21124-494 (100V)
Tester Serial Number:	PMF21124-494
Return Signal Amp. Level:	0.19 [Index: 3]

»»»»»»»»»»»»»»»»»»»»»»»»»»»»»»»» Hysteresis Info ««««««««««««««««««««««««««««««««««
Task Name:	Hyst-1168
Volts:	20.00
Field:	666.67 (kV/cm)
DCBias:	0.00
DCField:	0.00 (kV/cm)
Hysteresis Period (ms):	2.00e+02
Preset:	Enabled
Preset Delay (ms):	1.00e+03
Profile:	Standard Bipolar

»»»»»»»»»»»»»»»»»»»»»»»»»»»»»»»»»»»»»» Data «««««««««««««««««««««««««««««««««««««««
Points:	2009

Valid Data

Point	Time (ms)	Drive Voltage	Measured Polarization (uC/cm2)	Capacitance (uF)	Normalized Capacitance (uF/cm2)	Dielectric Constant	Instantaneous Current (mA)
   1	0.0000e+00	0.0032	-4.751709	0.000193	1.926124	0.652588	0.000077
   2	9.9500e-02	0.0369	-4.675003	0.000193	1.926124	0.652588	0.000077
   3	1.9900e-01	0.0770	-4.505443	0.000426	4.257748	1.442564	0.000170
   4	2.9850e-01	0.1283	-4.400478	0.000264	2.635749	0.893016	0.000105
   5	3.9800e-01	0.1684	-4.247067	0.000385	3.852248	1.305177	0.000154
   6	4.9750e-01	0.1925	-4.097693	0.000375	3.750873	1.270830	0.000150
   7	5.9700e-01	0.2358	-3.944282	0.000385	3.852248	1.305177	0.000154
   8	6.9650e-01	0.2727	-3.782796	0.000405	4.054998	1.373870	0.000162
   9	7.9600e-01	0.3144	-3.641496	0.000355	3.548123	1.202137	0.000142
  10	8.9550e-01	0.3674	-3.504234	0.000345	3.446748	1.167790	0.000138
  11	9.9500e-01	0.4043	-3.395231	0.000274	2.737124	0.927363	0.000110
  12	1.0945e+00	0.4380	-3.241820	0.000385	3.852248	1.305177	0.000154
  13	1.1940e+00	0.4732	-3.084372	0.000395	3.953623	1.339524	0.000158
  14	1.2935e+00	0.5118	-2.939035	0.000365	3.649498	1.236483	0.000146
  15	1.3930e+00	0.5438	-2.797735	0.000355	3.548123	1.202137	0.000142
  16	1.4925e+00	0.6048	-2.640287	0.000395	3.953623	1.339524	0.000158
  17	1.5920e+00	0.6273	-2.511098	0.000324	3.243998	1.099096	0.000130
  18	1.6915e+00	0.6770	-2.329427	0.000456	4.561873	1.545604	0.000183
  19	1.7910e+00	0.7123	-2.240610	0.000223	2.230249	0.755629	0.000089
  20	1.8905e+00	0.7524	-2.083162	0.000395	3.953623	1.339524	0.000158
  21	1.9900e+00	0.7909	-1.958011	0.000314	3.142623	1.064750	0.000126
  22	2.0895e+00	0.8326	-1.800563	0.000395	3.953623	1.339524	0.000158
  23	2.1890e+00	0.8695	-1.667337	0.000335	3.345373	1.133443	0.000134
  24	2.2885e+00	0.9128	-1.530074	0.000345	3.446748	1.167790	0.000138
  25	2.3880e+00	0.9561	-1.384738	0.000365	3.649498	1.236483	0.000146
  26	2.4875e+00	0.9962	-1.207104	0.000446	4.460498	1.511258	0.000179
  27	2.5870e+00	1.0347	-1.102138	0.000264	2.635749	0.893016	0.000105
  28	2.6865e+00	1.0716	-0.940653	0.000405	4.054998	1.373870	0.000162
  29	2.7860e+00	1.1198	-0.803390	0.000345	3.446748	1.167790	0.000138
  30	2.8855e+00	1.1583	-0.654016	0.000375	3.750873	1.270830	0.000150
  31	2.9850e+00	1.1919	-0.512716	0.000355	3.548123	1.202137	0.000142
  32	3.0845e+00	1.2256	-0.343157	0.000426	4.257748	1.442564	0.000170
  33	3.1840e+00	1.2722	-0.205894	0.000345	3.446748	1.167790	0.000138
  34	3.2835e+00	1.3042	-0.048446	0.000395	3.953623	1.339524	0.000158
  35	3.3830e+00	1.3668	0.125151	0.000436	4.359123	1.476911	0.000174
  36	3.4825e+00	1.3989	0.242228	0.000294	2.939874	0.996056	0.000118
  37	3.5820e+00	1.4262	0.351231	0.000274	2.737124	0.927363	0.000110
  38	3.6815e+00	1.4759	0.536939	0.000466	4.663248	1.579951	0.000187
  39	3.7810e+00	1.5144	0.662090	0.000314	3.142623	1.064750	0.000126
  40	3.8805e+00	1.5449	0.839724	0.000446	4.460498	1.511258	0.000179
  41	3.9800e+00	1.5930	0.964875	0.000314	3.142623	1.064750	0.000126
  42	4.0795e+00	1.6203	1.142509	0.000446	4.460498	1.511258	0.000179
  43	4.1790e+00	1.6716	1.259586	0.000294	2.939874	0.996056	0.000118
  44	4.2785e+00	1.7117	1.425109	0.000416	4.156373	1.408217	0.000166
  45	4.3780e+00	1.7582	1.582557	0.000395	3.953623	1.339524	0.000158
  46	4.4775e+00	1.7935	1.707708	0.000314	3.142623	1.064750	0.000126
  47	4.5770e+00	1.8304	1.881305	0.000436	4.359123	1.476911	0.000174
  48	4.6765e+00	1.8673	2.030679	0.000375	3.750873	1.270830	0.000150
  49	4.7760e+00	1.9122	2.180053	0.000375	3.750873	1.270830	0.000150
  50	4.8755e+00	1.9540	2.325390	0.000365	3.649498	1.236483	0.000146
  51	4.9750e+00	1.9860	2.494950	0.000426	4.257748	1.442564	0.000170
  52	5.0745e+00	2.0294	2.628175	0.000335	3.345373	1.133443	0.000134
  53	5.1740e+00	2.0727	2.769475	0.000355	3.548123	1.202137	0.000142
  54	5.2735e+00	2.1144	2.934998	0.000416	4.156373	1.408217	0.000166
  55	5.3730e+00	2.1497	3.092446	0.000395	3.953623	1.339524	0.000158
  56	5.4725e+00	2.1834	3.237783	0.000365	3.649498	1.236483	0.000146
  57	5.5720e+00	2.2235	3.362934	0.000314	3.142623	1.064750	0.000126
  58	5.6715e+00	2.2684	3.532494	0.000426	4.257748	1.442564	0.000170
  59	5.7710e+00	2.3085	3.702053	0.000426	4.257748	1.442564	0.000170
  60	5.8705e+00	2.3518	3.839316	0.000345	3.446748	1.167790	0.000138
  61	5.9700e+00	2.3823	3.972542	0.000335	3.345373	1.133443	0.000134
  62	6.0695e+00	2.4288	4.109804	0.000345	3.446748	1.167790	0.000138
  63	6.1690e+00	2.4657	4.267252	0.000395	3.953623	1.339524	0.000158
  64	6.2685e+00	2.5090	4.416626	0.000375	3.750873	1.270830	0.000150
  65	6.3680e+00	2.5555	4.630595	0.000537	5.372872	1.820378	0.000215
  66	6.4675e+00	2.5940	4.719412	0.000223	2.230249	0.755629	0.000089
  67	6.5670e+00	2.6309	4.897046	0.000446	4.460498	1.511258	0.000179
  68	6.6665e+00	2.6694	5.054494	0.000395	3.953623	1.339524	0.000158
  69	6.7660e+00	2.7128	5.215979	0.000405	4.054998	1.373870	0.000162
  70	6.8655e+00	2.7513	5.377465	0.000405	4.054998	1.373870	0.000162
  71	6.9650e+00	2.7898	5.482430	0.000264	2.635749	0.893016	0.000105
  72	7.0645e+00	2.8202	5.631804	0.000375	3.750873	1.270830	0.000150
  73	7.1640e+00	2.8780	5.765030	0.000335	3.345373	1.133443	0.000134
  74	7.2635e+00	2.9149	5.942664	0.000446	4.460498	1.511258	0.000179
  75	7.3630e+00	2.9454	6.096075	0.000385	3.852248	1.305177	0.000154
  76	7.4625e+00	2.9871	6.249486	0.000385	3.852248	1.305177	0.000154
  77	7.5620e+00	3.0192	6.390786	0.000355	3.548123	1.202137	0.000142
  78	7.6615e+00	3.0609	6.580531	0.000476	4.764623	1.614298	0.000191
  79	7.7610e+00	3.1058	6.693571	0.000284	2.838499	0.961709	0.000114
  80	7.8605e+00	3.1491	6.846982	0.000385	3.852248	1.305177	0.000154
  81	7.9600e+00	3.1828	7.020579	0.000436	4.359123	1.476911	0.000174
  82	8.0595e+00	3.2245	7.161879	0.000355	3.548123	1.202137	0.000142
  83	8.1590e+00	3.2646	7.291067	0.000324	3.243998	1.099096	0.000130
  84	8.2585e+00	3.3095	7.456590	0.000416	4.156373	1.408217	0.000166
  85	8.3580e+00	3.3480	7.638261	0.000456	4.561873	1.545604	0.000183
  86	8.4575e+00	3.3849	7.747263	0.000274	2.737124	0.927363	0.000110
  87	8.5570e+00	3.4234	7.880489	0.000335	3.345373	1.133443	0.000134
  88	8.6565e+00	3.4635	8.062160	0.000456	4.561873	1.545604	0.000183
  89	8.7560e+00	3.5020	8.239794	0.000446	4.460498	1.511258	0.000179
  90	8.8555e+00	3.5438	8.389168	0.000375	3.750873	1.270830	0.000150
  91	8.9550e+00	3.5951	8.510282	0.000304	3.041248	1.030403	0.000122
  92	9.0545e+00	3.6320	8.704065	0.000487	4.865998	1.648645	0.000195
  93	9.1540e+00	3.6593	8.837290	0.000335	3.345373	1.133443	0.000134
  94	9.2535e+00	3.6978	8.994738	0.000395	3.953623	1.339524	0.000158
  95	9.3530e+00	3.7411	9.132001	0.000345	3.446748	1.167790	0.000138
  96	9.4525e+00	3.7828	9.277338	0.000365	3.649498	1.236483	0.000146
  97	9.5520e+00	3.8261	9.450935	0.000436	4.359123	1.476911	0.000174
  98	9.6515e+00	3.8598	9.535715	0.000213	2.128874	0.721282	0.000085
  99	9.7510e+00	3.8951	9.693163	0.000395	3.953623	1.339524	0.000158
 100	9.8505e+00	3.9448	9.886945	0.000487	4.865998	1.648645	0.000195
 101	9.9500e+00	3.9865	10.032282	0.000365	3.649498	1.236483	0.000146
 102	1.0050e+01	4.0282	10.213953	0.000456	4.561873	1.545604	0.000183
 103	1.0149e+01	4.0603	10.343142	0.000324	3.243998	1.099096	0.000130
 104	1.0248e+01	4.1116	10.500590	0.000395	3.953623	1.339524	0.000158
 105	1.0348e+01	4.1341	10.662075	0.000405	4.054998	1.373870	0.000162
 106	1.0447e+01	4.1854	10.843747	0.000456	4.561873	1.545604	0.000183
 107	1.0547e+01	4.2223	10.964861	0.000304	3.041248	1.030403	0.000122
 108	1.0646e+01	4.2657	11.118272	0.000385	3.852248	1.305177	0.000154
 109	1.0746e+01	4.3009	11.279757	0.000405	4.054998	1.373870	0.000162
 110	1.0845e+01	4.3443	11.433168	0.000385	3.852248	1.305177	0.000154
 111	1.0945e+01	4.3796	11.570431	0.000345	3.446748	1.167790	0.000138
 112	1.1044e+01	4.4277	11.744028	0.000436	4.359123	1.476911	0.000174
 113	1.1144e+01	4.4630	11.881290	0.000345	3.446748	1.167790	0.000138
 114	1.1243e+01	4.5111	12.030664	0.000375	3.750873	1.270830	0.000150
 115	1.1343e+01	4.5416	12.212336	0.000456	4.561873	1.545604	0.000183
 116	1.1443e+01	4.5833	12.313264	0.000253	2.534374	0.858669	0.000101
 117	1.1542e+01	4.6202	12.482824	0.000426	4.257748	1.442564	0.000170
 118	1.1642e+01	4.6587	12.664495	0.000456	4.561873	1.545604	0.000183
 119	1.1741e+01	4.7004	12.801757	0.000345	3.446748	1.167790	0.000138
 120	1.1841e+01	4.7341	12.963243	0.000405	4.054998	1.373870	0.000162
 121	1.1940e+01	4.7838	13.088394	0.000314	3.142623	1.064750	0.000126
 122	1.2040e+01	4.8223	13.282177	0.000487	4.865998	1.648645	0.000195
 123	1.2139e+01	4.8544	13.415402	0.000335	3.345373	1.133443	0.000134
 124	1.2239e+01	4.9041	13.593036	0.000446	4.460498	1.511258	0.000179
 125	1.2338e+01	4.9426	13.746447	0.000385	3.852248	1.305177	0.000154
 126	1.2438e+01	4.9795	13.871598	0.000314	3.142623	1.064750	0.000126
 127	1.2537e+01	5.0164	14.008861	0.000345	3.446748	1.167790	0.000138
 128	1.2636e+01	5.0614	14.174384	0.000416	4.156373	1.408217	0.000166
 129	1.2736e+01	5.0934	14.295498	0.000304	3.041248	1.030403	0.000122
 130	1.2835e+01	5.1400	14.469094	0.000436	4.359123	1.476911	0.000174
 131	1.2935e+01	5.1817	14.626543	0.000395	3.953623	1.339524	0.000158
 132	1.3034e+01	5.2170	14.763805	0.000345	3.446748	1.167790	0.000138
 133	1.3134e+01	5.2667	14.917217	0.000385	3.852248	1.305177	0.000154
 134	1.3233e+01	5.2956	15.086776	0.000426	4.257748	1.442564	0.000170
 135	1.3333e+01	5.3389	15.240187	0.000385	3.852248	1.305177	0.000154
 136	1.3432e+01	5.3678	15.361301	0.000304	3.041248	1.030403	0.000122
 137	1.3532e+01	5.4223	15.534898	0.000436	4.359123	1.476911	0.000174
 138	1.3632e+01	5.4576	15.660050	0.000314	3.142623	1.064750	0.000126
 139	1.3731e+01	5.4977	15.809424	0.000375	3.750873	1.270830	0.000150
 140	1.3831e+01	5.5378	15.978983	0.000426	4.257748	1.442564	0.000170
 141	1.3930e+01	5.5779	16.100097	0.000304	3.041248	1.030403	0.000122
 142	1.4030e+01	5.6132	16.265620	0.000416	4.156373	1.408217	0.000166
 143	1.4129e+01	5.6517	16.439217	0.000436	4.359123	1.476911	0.000174
 144	1.4229e+01	5.6950	16.641074	0.000507	5.068747	1.717338	0.000203
 145	1.4328e+01	5.7303	16.766225	0.000314	3.142623	1.064750	0.000126
 146	1.4428e+01	5.7784	16.919636	0.000385	3.852248	1.305177	0.000154
 147	1.4527e+01	5.8073	17.052861	0.000335	3.345373	1.133443	0.000134
 148	1.4627e+01	5.8538	17.169938	0.000294	2.939874	0.996056	0.000118
 149	1.4726e+01	5.9004	17.351609	0.000456	4.561873	1.545604	0.000183
 150	1.4825e+01	5.9549	17.525206	0.000436	4.359123	1.476911	0.000174
 151	1.4925e+01	5.9790	17.638246	0.000284	2.838499	0.961709	0.000114
 152	1.5024e+01	6.0095	17.819917	0.000456	4.561873	1.545604	0.000183
 153	1.5124e+01	6.0512	18.009663	0.000476	4.764623	1.614298	0.000191
 154	1.5223e+01	6.0929	18.142888	0.000335	3.345373	1.133443	0.000134
 155	1.5323e+01	6.1298	18.300336	0.000395	3.953623	1.339524	0.000158
 156	1.5422e+01	6.1715	18.433562	0.000335	3.345373	1.133443	0.000134
 157	1.5522e+01	6.2132	18.570824	0.000345	3.446748	1.167790	0.000138
 158	1.5621e+01	6.2533	18.756533	0.000466	4.663248	1.579951	0.000187
 159	1.5721e+01	6.2982	18.918018	0.000405	4.054998	1.373870	0.000162
 160	1.5820e+01	6.3335	19.014909	0.000243	2.432999	0.824322	0.000097
 161	1.5920e+01	6.3784	19.180432	0.000416	4.156373	1.408217	0.000166
 162	1.6020e+01	6.4121	19.349992	0.000426	4.257748	1.442564	0.000170
 163	1.6119e+01	6.4522	19.503403	0.000385	3.852248	1.305177	0.000154
 164	1.6218e+01	6.4859	19.640665	0.000345	3.446748	1.167790	0.000138
 165	1.6318e+01	6.5244	19.786002	0.000365	3.649498	1.236483	0.000146
 166	1.6418e+01	6.5709	19.951525	0.000416	4.156373	1.408217	0.000166
 167	1.6517e+01	6.6094	20.108973	0.000395	3.953623	1.339524	0.000158
 168	1.6616e+01	6.6431	20.238161	0.000324	3.243998	1.099096	0.000130
 169	1.6716e+01	6.6897	20.399647	0.000405	4.054998	1.373870	0.000162
 170	1.6816e+01	6.7298	20.565169	0.000416	4.156373	1.408217	0.000166
 171	1.6915e+01	6.7747	20.694358	0.000324	3.243998	1.099096	0.000130
 172	1.7015e+01	6.8132	20.863917	0.000426	4.257748	1.442564	0.000170
 173	1.7114e+01	6.8404	21.037514	0.000436	4.359123	1.476911	0.000174
 174	1.7213e+01	6.8822	21.134406	0.000243	2.432999	0.824322	0.000097
 175	1.7313e+01	6.9239	21.328188	0.000487	4.865998	1.648645	0.000195
 176	1.7413e+01	6.9688	21.473525	0.000365	3.649498	1.236483	0.000146
 177	1.7512e+01	7.0185	21.635010	0.000405	4.054998	1.373870	0.000162
 178	1.7611e+01	7.0442	21.764199	0.000324	3.243998	1.099096	0.000130
 179	1.7711e+01	7.0811	21.957981	0.000487	4.865998	1.648645	0.000195
 180	1.7811e+01	7.1324	22.058910	0.000253	2.534374	0.858669	0.000101
 181	1.7910e+01	7.1629	22.244618	0.000466	4.663248	1.579951	0.000187
 182	1.8009e+01	7.2158	22.414178	0.000426	4.257748	1.442564	0.000170
 183	1.8109e+01	7.2511	22.519143	0.000264	2.635749	0.893016	0.000105
 184	1.8209e+01	7.2896	22.708889	0.000476	4.764623	1.614298	0.000191
 185	1.8308e+01	7.3201	22.858263	0.000375	3.750873	1.270830	0.000150
 186	1.8407e+01	7.3618	22.999562	0.000355	3.548123	1.202137	0.000142
 187	1.8507e+01	7.4164	23.173159	0.000436	4.359123	1.476911	0.000174
 188	1.8607e+01	7.4485	23.338682	0.000416	4.156373	1.408217	0.000166
 189	1.8706e+01	7.4870	23.455759	0.000294	2.939874	0.996056	0.000118
 190	1.8805e+01	7.5303	23.588984	0.000335	3.345373	1.133443	0.000134
 191	1.8905e+01	7.5688	23.758544	0.000426	4.257748	1.442564	0.000170
 192	1.9005e+01	7.6105	23.891769	0.000335	3.345373	1.133443	0.000134
 193	1.9104e+01	7.6506	24.012883	0.000304	3.041248	1.030403	0.000122
 194	1.9203e+01	7.6811	24.218777	0.000517	5.170122	1.751685	0.000207
 195	1.9303e+01	7.7292	24.315669	0.000243	2.432999	0.824322	0.000097
 196	1.9402e+01	7.7741	24.513488	0.000497	4.967372	1.682991	0.000199
 197	1.9502e+01	7.8110	24.666899	0.000385	3.852248	1.305177	0.000154
 198	1.9602e+01	7.8479	24.788013	0.000304	3.041248	1.030403	0.000122
 199	1.9701e+01	7.8864	24.961610	0.000436	4.359123	1.476911	0.000174
 200	1.9800e+01	7.9233	25.115021	0.000385	3.852248	1.305177	0.000154
 201	1.9900e+01	7.9666	25.236135	0.000304	3.041248	1.030403	0.000122
 202	2.0000e+01	8.0099	25.393584	0.000395	3.953623	1.339524	0.000158
 203	2.0099e+01	8.0452	25.567181	0.000436	4.359123	1.476911	0.000174
 204	2.0198e+01	8.0966	25.696369	0.000324	3.243998	1.099096	0.000130
 205	2.0298e+01	8.1319	25.890151	0.000487	4.865998	1.648645	0.000195
 206	2.0398e+01	8.1607	26.019340	0.000324	3.243998	1.099096	0.000130
 207	2.0497e+01	8.2073	26.148528	0.000324	3.243998	1.099096	0.000130
 208	2.0596e+01	8.2506	26.330199	0.000456	4.561873	1.545604	0.000183
 209	2.0696e+01	8.2843	26.459388	0.000324	3.243998	1.099096	0.000130
 210	2.0796e+01	8.3228	26.641059	0.000456	4.561873	1.545604	0.000183
 211	2.0895e+01	8.3661	26.798507	0.000395	3.953623	1.339524	0.000158
 212	2.0994e+01	8.4126	26.955955	0.000395	3.953623	1.339524	0.000158
 213	2.1094e+01	8.4383	27.101292	0.000365	3.649498	1.236483	0.000146
 214	2.1194e+01	8.4848	27.238555	0.000345	3.446748	1.167790	0.000138
 215	2.1293e+01	8.5281	27.408115	0.000426	4.257748	1.442564	0.000170
 216	2.1392e+01	8.5586	27.541340	0.000335	3.345373	1.133443	0.000134
 217	2.1492e+01	8.5987	27.735123	0.000487	4.865998	1.648645	0.000195
 218	2.1591e+01	8.6436	27.860274	0.000314	3.142623	1.064750	0.000126
 219	2.1691e+01	8.6821	28.001573	0.000355	3.548123	1.202137	0.000142
 220	2.1791e+01	8.7302	28.175170	0.000436	4.359123	1.476911	0.000174
 221	2.1890e+01	8.7752	28.312433	0.000345	3.446748	1.167790	0.000138
 222	2.1989e+01	8.7976	28.449696	0.000345	3.446748	1.167790	0.000138
 223	2.2089e+01	8.8441	28.603107	0.000385	3.852248	1.305177	0.000154
 224	2.2189e+01	8.8826	28.744406	0.000355	3.548123	1.202137	0.000142
 225	2.2288e+01	8.9195	28.922040	0.000446	4.460498	1.511258	0.000179
 226	2.2387e+01	8.9612	29.059303	0.000345	3.446748	1.167790	0.000138
 227	2.2487e+01	9.0094	29.180417	0.000304	3.041248	1.030403	0.000122
 228	2.2587e+01	9.0431	29.374200	0.000487	4.865998	1.648645	0.000195
 229	2.2686e+01	9.0832	29.539722	0.000416	4.156373	1.408217	0.000166
 230	2.2785e+01	9.1201	29.697170	0.000395	3.953623	1.339524	0.000158
 231	2.2885e+01	9.1794	29.838470	0.000355	3.548123	1.202137	0.000142
 232	2.2985e+01	9.2019	29.979770	0.000355	3.548123	1.202137	0.000142
 233	2.3084e+01	9.2308	30.153367	0.000436	4.359123	1.476911	0.000174
 234	2.3183e+01	9.2837	30.278518	0.000314	3.142623	1.064750	0.000126
 235	2.3283e+01	9.3206	30.456152	0.000446	4.460498	1.511258	0.000179
 236	2.3383e+01	9.3687	30.593415	0.000345	3.446748	1.167790	0.000138
 237	2.3482e+01	9.3992	30.775086	0.000456	4.561873	1.545604	0.000183
 238	2.3581e+01	9.4409	30.888126	0.000284	2.838499	0.961709	0.000114
 239	2.3681e+01	9.4714	31.057685	0.000426	4.257748	1.442564	0.000170
 240	2.3780e+01	9.5227	31.170725	0.000284	2.838499	0.961709	0.000114
 241	2.3880e+01	9.5612	31.356433	0.000466	4.663248	1.579951	0.000187
 242	2.3980e+01	9.5997	31.509844	0.000385	3.852248	1.305177	0.000154
 243	2.4079e+01	9.6398	31.643070	0.000335	3.345373	1.133443	0.000134
 244	2.4178e+01	9.6831	31.792444	0.000375	3.750873	1.270830	0.000150
 245	2.4278e+01	9.7168	31.937781	0.000365	3.649498	1.236483	0.000146
 246	2.4378e+01	9.7521	32.042746	0.000264	2.635749	0.893016	0.000105
 247	2.4477e+01	9.7938	32.256715	0.000537	5.372872	1.820378	0.000215
 248	2.4576e+01	9.8339	32.389940	0.000335	3.345373	1.133443	0.000134
 249	2.4676e+01	9.8757	32.515091	0.000314	3.142623	1.064750	0.000126
 250	2.4776e+01	9.9254	32.672540	0.000395	3.953623	1.339524	0.000158
 251	2.4875e+01	9.9575	32.813839	0.000355	3.548123	1.202137	0.000142
 252	2.4974e+01	9.9896	32.955139	0.000355	3.548123	1.202137	0.000142
 253	2.5074e+01	10.0377	33.169107	0.000537	5.372872	1.820378	0.000215
 254	2.5174e+01	10.0778	33.294258	0.000314	3.142623	1.064750	0.000126
 255	2.5273e+01	10.1195	33.387113	0.000233	2.331624	0.789976	0.000093
 256	2.5372e+01	10.1580	33.580895	0.000487	4.865998	1.648645	0.000195
 257	2.5472e+01	10.1949	33.750455	0.000426	4.257748	1.442564	0.000170
 258	2.5572e+01	10.2350	33.907903	0.000395	3.953623	1.339524	0.000158
 259	2.5671e+01	10.2831	34.077463	0.000426	4.257748	1.442564	0.000170
 260	2.5770e+01	10.3232	34.210688	0.000335	3.345373	1.133443	0.000134
 261	2.5870e+01	10.3553	34.279320	0.000172	1.723374	0.583895	0.000069
 262	2.5970e+01	10.3954	34.465028	0.000466	4.663248	1.579951	0.000187
