»»»»»»»»»»»»»»»»»»»»»»»»»»»»»»»»»»»» Hysteresis ««««««««««««««««««««««««««««««««««««
»»»  Executed Version:	5.48.1
»»»  Vision Version:	5.48.4 (R)
»»»  Vision Compiled:	9/18/24
»»»  Driver Version:	5.47.0
»»»  Windows Version:	Windows 8 or 8.1
»»»  Processor Information:	x86 (AMD or Intel) - 32 Processors
»»»  Tester Name:	PMF21124-494 (100V)
»»»  Tester S/N:	PMF21124-494
»»»  Internal Amp Type:	100V RevK 270k
»»»  Internal Amp S/N:	iAB2-596/K     
»»»  Execution Count:	1
»»»»»»»»»»»»»»»»»»»»»»»»»»»»»»»»»»»»»»»»»»««««««««««««««««««««««««««««««««««««««««««

Stored:	6/19/2025 - 20:21:59
Configured:	06/19/25 10:04:32 AM
Executed:	06/19/25 08:21:31 PM

»»»»»»»»»»»»»»»»»»»»»»»»»»»»»»»»»»» Sample Info ««««««««««««««««««««««««««««««««««««
Sample Name:	
Lot Name:	
Wafer Name:	
Die Row/Column:	0/0
Capacitor Number:	0
Sample Area (cm2):	1.00e-04
Sample Thickness (microns):	3.00e-01

Amplifier:	Internal

»»»»»»»»»»»»»»»»»»»»»»»»»»»»»»»»»»» Tester Info «««««««««««««««««««««««««««««««««««
Tester Name:	PMF21124-494 (100V)
Tester Serial Number:	PMF21124-494
Return Signal Amp. Level:	0.19 [Index: 3]

»»»»»»»»»»»»»»»»»»»»»»»»»»»»»»»» Hysteresis Info ««««««««««««««««««««««««««««««««««
Task Name:	Hyst-1168
Volts:	20.00
Field:	666.67 (kV/cm)
DCBias:	0.00
DCField:	0.00 (kV/cm)
Hysteresis Period (ms):	1.00e+00
Preset:	Enabled
Preset Delay (ms):	1.00e+03
Profile:	Standard Bipolar

»»»»»»»»»»»»»»»»»»»»»»»»»»»»»»»»»»»»»» Data «««««««««««««««««««««««««««««««««««««««
Points:	2001

Valid Data

Point	Time (ms)	Drive Voltage	Measured Polarization (uC/cm2)	Capacitance (uF)	Normalized Capacitance (uF/cm2)	Dielectric Constant	Instantaneous Current (mA)
   1	0.0000e+00	0.0193	-6.081913	0.001384	13.838636	4.688657	0.110507
   2	5.0000e-04	0.0305	-5.529378	0.001384	13.838636	4.688657	0.110507
   3	1.0000e-03	0.0594	-5.666504	-0.000343	-3.434406	-1.163608	-0.027425
   4	1.5000e-03	0.1011	-5.489047	0.000444	4.444526	1.505846	0.035491
   5	2.0000e-03	0.1380	-5.122035	0.000919	9.192087	3.114363	0.073402
   6	2.5000e-03	0.1765	-5.315624	-0.000485	-4.848573	-1.642741	-0.038718
   7	3.0000e-03	0.2198	-5.283359	0.000081	0.808096	0.273790	0.006453
   8	3.5000e-03	0.2583	-4.851818	0.001081	10.808278	3.661944	0.086308
   9	4.0000e-03	0.2920	-4.884082	-0.000081	-0.808096	-0.273790	-0.006453
  10	4.5000e-03	0.3321	-4.827619	0.000141	1.414167	0.479133	0.011293
  11	5.0000e-03	0.3738	-4.605799	0.000556	5.555657	1.882308	0.044364
  12	5.5000e-03	0.4219	-4.150058	0.001141	11.414350	3.867286	0.091148
  13	6.0000e-03	0.4540	-4.206522	-0.000141	-1.414167	-0.479133	-0.011293
  14	6.5000e-03	0.5005	-4.267018	-0.000152	-1.515179	-0.513357	-0.012099
  15	7.0000e-03	0.5262	-3.976635	0.000727	7.272860	2.464112	0.058077
  16	7.5000e-03	0.5647	-3.589458	0.000970	9.697147	3.285482	0.077435
  17	8.0000e-03	0.6112	-3.658020	-0.000172	-1.717203	-0.581804	-0.013713
  18	8.5000e-03	0.6465	-3.319240	0.000849	8.485003	2.874797	0.067756
  19	9.0000e-03	0.6914	-3.343439	-0.000061	-0.606072	-0.205343	-0.004840
  20	9.5000e-03	0.7331	-3.065155	0.000697	6.969824	2.361440	0.055657
  21	1.0000e-02	0.7781	-2.919963	0.000364	3.636430	1.232056	0.029038
  22	1.0500e-02	0.8133	-2.827202	0.000232	2.323275	0.787147	0.018552
  23	1.1000e-02	0.8647	-2.726375	0.000253	2.525299	0.855594	0.020165
  24	1.1500e-02	0.8968	-2.649746	0.000192	1.919227	0.650252	0.015326
  25	1.2000e-02	0.9385	-2.536819	0.000283	2.828334	0.958266	0.022585
  26	1.2500e-02	0.9690	-2.290800	0.000616	6.161729	2.087650	0.049204
  27	1.3000e-02	1.0155	-2.165774	0.000313	3.131370	1.060937	0.025005
  28	1.3500e-02	1.0492	-1.923788	0.000606	6.060717	2.053426	0.048397
  29	1.4000e-02	1.0957	-1.629372	0.000737	7.373872	2.498335	0.058883
  30	1.4500e-02	1.1342	-1.391419	0.000596	5.959705	2.019203	0.047591
  31	1.5000e-02	1.1807	-1.572908	-0.000455	-4.545537	-1.540070	-0.036298
  32	1.5500e-02	1.2144	-1.488213	0.000212	2.121251	0.718699	0.016939
  33	1.6000e-02	1.2577	-1.391419	0.000242	2.424287	0.821371	0.019359
  34	1.6500e-02	1.2898	-1.145400	0.000616	6.161729	2.087650	0.049204
  35	1.7000e-02	1.3331	-0.931646	0.000535	5.353633	1.813860	0.042751
  36	1.7500e-02	1.3780	-0.842918	0.000222	2.222263	0.752923	0.017746
  37	1.8000e-02	1.4133	-0.879215	-0.000091	-0.909107	-0.308014	-0.007260
  38	1.8500e-02	1.4502	-0.613031	0.000667	6.666788	2.258769	0.053237
  39	1.9000e-02	1.4984	-0.395244	0.000545	5.454645	1.848084	0.043557
  40	1.9500e-02	1.5288	-0.145192	0.000626	6.262741	2.121874	0.050010
  41	2.0000e-02	1.5770	0.008066	0.000384	3.838454	1.300503	0.030652
  42	2.0500e-02	1.6219	0.096794	0.000222	2.222263	0.752923	0.017746
  43	2.1000e-02	1.6572	0.040331	-0.000141	-1.414167	-0.479133	-0.011293
  44	2.1500e-02	1.6925	0.262151	0.000556	5.555657	1.882308	0.044364
  45	2.2000e-02	1.7358	0.475906	0.000535	5.353633	1.813860	0.042751
  46	2.2500e-02	1.7807	0.786454	0.000778	7.777920	2.635231	0.062110
  47	2.3000e-02	1.8160	0.738057	-0.000121	-1.212143	-0.410685	-0.009679
  48	2.3500e-02	1.8513	0.959877	0.000556	5.555657	1.882308	0.044364
  49	2.4000e-02	1.8882	1.266393	0.000768	7.676908	2.601007	0.061303
  50	2.4500e-02	1.9363	1.072804	-0.000485	-4.848573	-1.642741	-0.038718
  51	2.5000e-02	1.9764	1.302691	0.000576	5.757681	1.950755	0.045977
  52	2.5500e-02	2.0133	1.637438	0.000838	8.383991	2.840573	0.066949
  53	2.6000e-02	2.0422	1.625339	-0.000030	-0.303036	-0.102671	-0.002420
  54	2.6500e-02	2.0903	1.843126	0.000545	5.454645	1.848084	0.043557
  55	2.7000e-02	2.1384	2.060913	0.000545	5.454645	1.848084	0.043557
  56	2.7500e-02	2.1721	2.363396	0.000758	7.575896	2.566783	0.060496
  57	2.8000e-02	2.2074	2.419859	0.000141	1.414167	0.479133	0.011293
  58	2.8500e-02	2.2588	2.319032	-0.000253	-2.525299	-0.855594	-0.020165
  59	2.9000e-02	2.3005	2.536819	0.000545	5.454645	1.848084	0.043557
  60	2.9500e-02	2.3390	2.984493	0.001121	11.212326	3.798839	0.089535
  61	3.0000e-02	2.3839	2.928030	-0.000141	-1.414167	-0.479133	-0.011293
  62	3.0500e-02	2.4096	3.012725	0.000212	2.121251	0.718699	0.016939
  63	3.1000e-02	2.4593	3.141784	0.000323	3.232382	1.095161	0.025812
  64	3.1500e-02	2.4994	3.274876	0.000333	3.333394	1.129385	0.026618
  65	3.2000e-02	2.5299	3.714484	0.001101	11.010302	3.730391	0.087922
  66	3.2500e-02	2.5748	3.839510	0.000313	3.131370	1.060937	0.025005
  67	3.3000e-02	2.6165	3.738682	-0.000253	-2.525299	-0.855594	-0.020165
  68	3.3500e-02	2.6550	4.061330	0.000808	8.080956	2.737902	0.064530
  69	3.4000e-02	2.6983	4.166191	0.000263	2.626311	0.889818	0.020972
  70	3.4500e-02	2.7288	4.242820	0.000192	1.919227	0.650252	0.015326
  71	3.5000e-02	2.7769	4.351713	0.000273	2.727322	0.924042	0.021779
  72	3.5500e-02	2.8122	4.710659	0.000899	8.990063	3.045916	0.071789
  73	3.6000e-02	2.8571	4.803420	0.000232	2.323275	0.787147	0.018552
  74	3.6500e-02	2.8940	5.081704	0.000697	6.969824	2.361440	0.055657
  75	3.7000e-02	2.9325	4.819553	-0.000657	-6.565776	-2.224545	-0.052430
  76	3.7500e-02	2.9742	5.295458	0.001192	11.919409	4.038405	0.095181
  77	3.8000e-02	3.0127	5.323690	0.000071	0.707084	0.239566	0.005646
  78	3.8500e-02	3.0577	5.666504	0.000859	8.586015	2.909021	0.068563
  79	3.9000e-02	3.0881	5.678603	0.000030	0.303036	0.102671	0.002420
  80	3.9500e-02	3.1363	5.884291	0.000515	5.151609	1.745412	0.041138
  81	4.0000e-02	3.1732	5.973019	0.000222	2.222263	0.752923	0.017746
  82	4.0500e-02	3.2133	6.190806	0.000545	5.454645	1.848084	0.043557
  83	4.1000e-02	3.2630	6.344064	0.000384	3.838454	1.300503	0.030652
  84	4.1500e-02	3.2967	6.448925	0.000263	2.626311	0.889818	0.020972
  85	4.2000e-02	3.3304	6.654613	0.000515	5.151609	1.745412	0.041138
  86	4.2500e-02	3.3801	6.932896	0.000697	6.969824	2.361440	0.055657
  87	4.3000e-02	3.4250	7.045823	0.000283	2.828334	0.958266	0.022585
  88	4.3500e-02	3.4571	7.170849	0.000313	3.131370	1.060937	0.025005
  89	4.4000e-02	3.4908	7.114386	-0.000141	-1.414167	-0.479133	-0.011293
  90	4.4500e-02	3.5309	7.428968	0.000788	7.878932	2.669454	0.062916
  91	4.5000e-02	3.5710	7.525762	0.000242	2.424287	0.821371	0.019359
  92	4.5500e-02	3.6143	7.848410	0.000808	8.080956	2.737902	0.064530
  93	4.6000e-02	3.6673	7.908906	0.000152	1.515179	0.513357	0.012099
  94	4.6500e-02	3.6978	7.973436	0.000162	1.616191	0.547580	0.012906
  95	4.7000e-02	3.7330	8.162992	0.000475	4.747561	1.608517	0.037911
  96	4.7500e-02	3.7732	8.376746	0.000535	5.353633	1.813860	0.042751
  97	4.8000e-02	3.8197	8.417077	0.000101	1.010119	0.342238	0.008066
  98	4.8500e-02	3.8598	8.489673	0.000182	1.818215	0.616028	0.014519
  99	4.9000e-02	3.8855	8.646963	0.000394	3.939466	1.334727	0.031458
 100	4.9500e-02	3.9288	8.949446	0.000758	7.575896	2.566783	0.060496
 101	5.0000e-02	3.9769	9.038174	0.000222	2.222263	0.752923	0.017746
 102	5.0500e-02	4.0170	9.042207	0.000010	0.101012	0.034224	0.000807
 103	5.1000e-02	4.0555	9.130935	0.000222	2.222263	0.752923	0.017746
 104	5.1500e-02	4.0908	9.590708	0.001152	11.515362	3.901510	0.091955
 105	5.2000e-02	4.1421	9.606841	0.000040	0.404048	0.136895	0.003226
 106	5.2500e-02	4.1838	10.050482	0.001111	11.111314	3.764615	0.088728
 107	5.3000e-02	4.2111	10.163408	0.000283	2.828334	0.958266	0.022585
 108	5.3500e-02	4.2464	10.086780	-0.000192	-1.919227	-0.650252	-0.015326
 109	5.4000e-02	4.2881	10.320699	0.000586	5.858693	1.984979	0.046784
 110	5.4500e-02	4.3330	10.502189	0.000455	4.545537	1.540070	0.036298
 111	5.5000e-02	4.3763	10.603016	0.000253	2.525299	0.855594	0.020165
 112	5.5500e-02	4.4197	10.635281	0.000081	0.808096	0.273790	0.006453
 113	5.6000e-02	4.4534	11.066823	0.001081	10.808278	3.661944	0.086308
 114	5.6500e-02	4.4951	11.091021	0.000061	0.606072	0.205343	0.004840
 115	5.7000e-02	4.5416	11.385437	0.000737	7.373872	2.498335	0.058883
 116	5.7500e-02	4.5689	11.546761	0.000404	4.040478	1.368951	0.032265
 117	5.8000e-02	4.6106	11.522563	-0.000061	-0.606072	-0.205343	-0.004840
 118	5.8500e-02	4.6523	11.486265	-0.000091	-0.909107	-0.308014	-0.007260
 119	5.9000e-02	4.6940	11.901674	0.001040	10.404230	3.525049	0.083082
 120	5.9500e-02	4.7357	11.982336	0.000202	2.020239	0.684475	0.016132
 121	6.0000e-02	4.7742	12.131561	0.000374	3.737442	1.266280	0.029845
 122	6.0500e-02	4.8143	12.413877	0.000707	7.070836	2.395664	0.056463
 123	6.1000e-02	4.8528	12.599400	0.000465	4.646549	1.574294	0.037105
 124	6.1500e-02	4.8881	12.772823	0.000434	4.343514	1.471622	0.034685
 125	6.2000e-02	4.9330	12.784923	0.000030	0.303036	0.102671	0.002420
 126	6.2500e-02	4.9715	13.022875	0.000596	5.959705	2.019203	0.047591
 127	6.3000e-02	5.0180	13.087405	0.000162	1.616191	0.547580	0.012906
 128	6.3500e-02	5.0614	13.139835	0.000131	1.313155	0.444909	0.010486
 129	6.4000e-02	5.1015	13.595575	0.001141	11.414350	3.867286	0.091148
 130	6.4500e-02	5.1480	13.623807	0.000071	0.707084	0.239566	0.005646
 131	6.5000e-02	5.1769	13.639939	0.000040	0.404048	0.136895	0.003226
 132	6.5500e-02	5.2089	14.123911	0.001212	12.121433	4.106853	0.096794
 133	6.6000e-02	5.2603	14.067448	-0.000141	-1.414167	-0.479133	-0.011293
 134	6.6500e-02	5.2859	14.349765	0.000707	7.070836	2.395664	0.056463
 135	6.7000e-02	5.3357	14.228772	-0.000303	-3.030358	-1.026713	-0.024199
 136	6.7500e-02	5.3774	14.204573	-0.000061	-0.606072	-0.205343	-0.004840
 137	6.8000e-02	5.4095	14.704678	0.001253	12.525481	4.243748	0.100021
 138	6.8500e-02	5.4528	14.676446	-0.000071	-0.707084	-0.239566	-0.005646
 139	6.9000e-02	5.4977	14.809538	0.000333	3.333394	1.129385	0.026618
 140	6.9500e-02	5.5282	15.273344	0.001162	11.616374	3.935734	0.092761
 141	7.0000e-02	5.5699	15.281411	0.000020	0.202024	0.068448	0.001613
 142	7.0500e-02	5.6180	15.341907	0.000152	1.515179	0.513357	0.012099
 143	7.1000e-02	5.6613	15.591959	0.000626	6.262741	2.121874	0.050010
 144	7.1500e-02	5.6966	15.963004	0.000929	9.293099	3.148587	0.074209
 145	7.2000e-02	5.7399	15.938806	-0.000061	-0.606072	-0.205343	-0.004840
 146	7.2500e-02	5.7849	15.958971	0.000051	0.505060	0.171119	0.004033
 147	7.3000e-02	5.8121	16.342116	0.000960	9.596135	3.251258	0.076629
 148	7.3500e-02	5.8635	16.342116	0.000000	0.000000	0.000000	0.000000
 149	7.4000e-02	5.9020	16.616366	0.000687	6.868812	2.327217	0.054850
 150	7.4500e-02	5.9405	16.813988	0.000495	4.949585	1.676965	0.039524
 151	7.5000e-02	5.9790	16.874485	0.000152	1.515179	0.513357	0.012099
 152	7.5500e-02	6.0111	16.858352	-0.000040	-0.404048	-0.136895	-0.003226
 153	7.6000e-02	6.0592	17.205199	0.000869	8.687027	2.943244	0.069369
 154	7.6500e-02	6.0881	17.322158	0.000293	2.929346	0.992489	0.023392
 155	7.7000e-02	6.1314	17.483482	0.000404	4.040478	1.368951	0.032265
 156	7.7500e-02	6.1763	17.483482	0.000000	0.000000	0.000000	0.000000
 157	7.8000e-02	6.2164	17.697237	0.000535	5.353633	1.813860	0.042751
 158	7.8500e-02	6.2645	17.910991	0.000535	5.353633	1.813860	0.042751
 159	7.9000e-02	6.2854	18.064249	0.000384	3.838454	1.300503	0.030652
 160	7.9500e-02	6.3287	18.189275	0.000313	3.131370	1.060937	0.025005
 161	8.0000e-02	6.3768	18.378830	0.000475	4.747561	1.608517	0.037911
 162	8.0500e-02	6.4169	18.665180	0.000717	7.171848	2.429888	0.057270
 163	8.1000e-02	6.4635	19.266112	0.001505	15.050780	5.099342	0.120186
 164	8.1500e-02	6.4939	19.020093	-0.000616	-6.161729	-2.087650	-0.049204
 165	8.2000e-02	6.5340	19.128987	0.000273	2.727322	0.924042	0.021779
 166	8.2500e-02	6.5677	19.124954	-0.000010	-0.101012	-0.034224	-0.000807
 167	8.3000e-02	6.6126	19.411304	0.000717	7.171848	2.429888	0.057270
 168	8.3500e-02	6.6544	19.681521	0.000677	6.767800	2.292993	0.054044
 169	8.4000e-02	6.6945	19.709753	0.000071	0.707084	0.239566	0.005646
 170	8.4500e-02	6.7330	19.778316	0.000172	1.717203	0.581804	0.013713
 171	8.5000e-02	6.7683	19.971904	0.000485	4.848573	1.642741	0.038718
 172	8.5500e-02	6.8132	20.294552	0.000808	8.080956	2.737902	0.064530
 173	8.6000e-02	6.8501	20.278420	-0.000040	-0.404048	-0.136895	-0.003226
 174	8.6500e-02	6.8950	20.391347	0.000283	2.828334	0.958266	0.022585
 175	8.7000e-02	6.9319	20.778524	0.000970	9.697147	3.285482	0.077435
 176	8.7500e-02	6.9656	21.004378	0.000566	5.656669	1.916531	0.045171
 177	8.8000e-02	7.0105	21.012444	0.000020	0.202024	0.068448	0.001613
 178	8.8500e-02	7.0538	21.234264	0.000556	5.555657	1.882308	0.044364
 179	8.9000e-02	7.0987	21.286694	0.000131	1.313155	0.444909	0.010486
 180	8.9500e-02	7.1372	21.500449	0.000535	5.353633	1.813860	0.042751
 181	9.0000e-02	7.1757	21.560945	0.000152	1.515179	0.513357	0.012099
 182	9.0500e-02	7.2190	21.637574	0.000192	1.919227	0.650252	0.015326
 183	9.1000e-02	7.2543	21.718236	0.000202	2.020239	0.684475	0.016132
 184	9.1500e-02	7.2848	22.020718	0.000758	7.575896	2.566783	0.060496
 185	9.2000e-02	7.3265	22.246572	0.000566	5.656669	1.916531	0.045171
 186	9.2500e-02	7.3763	22.488558	0.000606	6.060717	2.053426	0.048397
 187	9.3000e-02	7.4212	22.440161	-0.000121	-1.212143	-0.410685	-0.009679
 188	9.3500e-02	7.4581	22.714411	0.000687	6.868812	2.327217	0.054850
 189	9.4000e-02	7.4934	22.722478	0.000020	0.202024	0.068448	0.001613
 190	9.4500e-02	7.5222	22.787007	0.000162	1.616191	0.547580	0.012906
 191	9.5000e-02	7.5768	23.024960	0.000596	5.959705	2.019203	0.047591
 192	9.5500e-02	7.6105	23.214516	0.000475	4.747561	1.608517	0.037911
 193	9.6000e-02	7.6554	23.508932	0.000737	7.373872	2.498335	0.058883
 194	9.6500e-02	7.6891	23.307277	-0.000505	-5.050597	-1.711189	-0.040331
 195	9.7000e-02	7.7372	23.750918	0.001111	11.111314	3.764615	0.088728
 196	9.7500e-02	7.7837	23.996937	0.000616	6.161729	2.087650	0.049204
 197	9.8000e-02	7.8078	24.065499	0.000172	1.717203	0.581804	0.013713
 198	9.8500e-02	7.8575	24.206658	0.000354	3.535418	1.197832	0.028232
 199	9.9000e-02	7.8864	24.295386	0.000222	2.222263	0.752923	0.017746
 200	9.9500e-02	7.9361	24.493008	0.000495	4.949585	1.676965	0.039524
 201	1.0000e-01	7.9682	24.783391	0.000727	7.272860	2.464112	0.058077
 202	1.0050e-01	8.0131	24.771292	-0.000030	-0.303036	-0.102671	-0.002420
 203	1.0100e-01	8.0581	24.968913	0.000495	4.949585	1.676965	0.039524
 204	1.0150e-01	8.0918	25.118138	0.000374	3.737442	1.266280	0.029845
 205	1.0200e-01	8.1286	25.352058	0.000586	5.858693	1.984979	0.046784
 206	1.0250e-01	8.1784	25.537580	0.000465	4.646549	1.574294	0.037105
 207	1.0300e-01	8.2105	25.702937	0.000414	4.141490	1.403175	0.033071
 208	1.0350e-01	8.2586	25.759401	0.000141	1.414167	0.479133	0.011293
 209	1.0400e-01	8.2907	25.981221	0.000556	5.555657	1.882308	0.044364
 210	1.0450e-01	8.3324	26.295803	0.000788	7.878932	2.669454	0.062916
 211	1.0500e-01	8.3725	26.219174	-0.000192	-1.919227	-0.650252	-0.015326
 212	1.0550e-01	8.4158	26.199009	-0.000051	-0.505060	-0.171119	-0.004033
 213	1.0600e-01	8.4495	26.598285	0.001000	10.000182	3.388154	0.079855
 214	1.0650e-01	8.4896	26.626517	0.000071	0.707084	0.239566	0.005646
 215	1.0700e-01	8.5265	26.864470	0.000596	5.959705	2.019203	0.047591
 216	1.0750e-01	8.5714	27.134687	0.000677	6.767800	2.292993	0.054044
 217	1.0800e-01	8.6163	27.175018	0.000101	1.010119	0.342238	0.008066
 218	1.0850e-01	8.6564	27.473468	0.000747	7.474884	2.532559	0.059690
 219	1.0900e-01	8.6982	27.618659	0.000364	3.636430	1.232056	0.029038
 220	1.0950e-01	8.7334	27.606560	-0.000030	-0.303036	-0.102671	-0.002420
 221	1.1000e-01	8.7768	27.876778	0.000677	6.767800	2.292993	0.054044
 222	1.1050e-01	8.8088	27.953406	0.000192	1.919227	0.650252	0.015326
 223	1.1100e-01	8.8602	28.070366	0.000293	2.929346	0.992489	0.023392
 224	1.1150e-01	8.8971	28.393014	0.000808	8.080956	2.737902	0.064530
 225	1.1200e-01	8.9292	28.393014	0.000000	0.000000	0.000000	0.000000
 226	1.1250e-01	8.9709	28.542239	0.000374	3.737442	1.266280	0.029845
 227	1.1300e-01	9.0158	28.554338	0.000030	0.303036	0.102671	0.002420
 228	1.1350e-01	9.0543	28.864887	0.000778	7.777920	2.635231	0.062110
 229	1.1400e-01	9.0896	29.042343	0.000444	4.444526	1.505846	0.035491
 230	1.1450e-01	9.1329	29.260130	0.000545	5.454645	1.848084	0.043557
 231	1.1500e-01	9.1730	29.570679	0.000778	7.777920	2.635231	0.062110
 232	1.1550e-01	9.2179	29.606977	0.000091	0.909107	0.308014	0.007260
 233	1.1600e-01	9.2580	29.538414	-0.000172	-1.717203	-0.581804	-0.013713
 234	1.1650e-01	9.3046	29.598911	0.000152	1.515179	0.513357	0.012099
 235	1.1700e-01	9.3334	29.986088	0.000970	9.697147	3.285482	0.077435
 236	1.1750e-01	9.3783	30.199842	0.000535	5.353633	1.813860	0.042751
 237	1.1800e-01	9.4185	30.252273	0.000131	1.313155	0.444909	0.010486
 238	1.1850e-01	9.4537	30.437795	0.000465	4.646549	1.574294	0.037105
 239	1.1900e-01	9.4971	30.550722	0.000283	2.828334	0.958266	0.022585
 240	1.1950e-01	9.5484	30.647516	0.000242	2.424287	0.821371	0.019359
 241	1.2000e-01	9.5757	30.861271	0.000535	5.353633	1.813860	0.042751
 242	1.2050e-01	9.6158	31.095190	0.000586	5.858693	1.984979	0.046784
 243	1.2100e-01	9.6559	31.353309	0.000646	6.464764	2.190321	0.051624
 244	1.2150e-01	9.6880	31.454136	0.000253	2.525299	0.855594	0.020165
 245	1.2200e-01	9.7361	31.841313	0.000970	9.697147	3.285482	0.077435
 246	1.2250e-01	9.7810	31.684023	-0.000394	-3.939466	-1.334727	-0.031458
 247	1.2300e-01	9.8083	32.055068	0.000929	9.293099	3.148587	0.074209
 248	1.2350e-01	9.8548	32.159928	0.000263	2.626311	0.889818	0.020972
 249	1.2400e-01	9.8965	32.099432	-0.000152	-1.515179	-0.513357	-0.012099
 250	1.2450e-01	9.9350	32.180094	0.000202	2.020239	0.684475	0.016132
 251	1.2500e-01	9.9735	32.345451	0.000414	4.141490	1.403175	0.033071
 252	1.2550e-01	10.0152	32.643900	0.000747	7.474884	2.532559	0.059690
 253	1.2600e-01	10.0521	32.655999	0.000030	0.303036	0.102671	0.002420
 254	1.2650e-01	10.1019	32.518874	-0.000343	-3.434406	-1.163608	-0.027425
 255	1.2700e-01	10.1404	32.998813	0.001202	12.020421	4.072629	0.095988
 256	1.2750e-01	10.1676	33.373891	0.000939	9.394111	3.182811	0.075016
 257	1.2800e-01	10.2109	33.502950	0.000323	3.232382	1.095161	0.025812
 258	1.2850e-01	10.2559	33.478751	-0.000061	-0.606072	-0.205343	-0.004840
 259	1.2900e-01	10.2960	33.619910	0.000354	3.535418	1.197832	0.028232
