»»»»»»»»»»»»»»»»»»»»»»»»»»»»»»»»»»»» Hysteresis ««««««««««««««««««««««««««««««««««««
»»»  Executed Version:	5.48.1
»»»  Vision Version:	5.48.4 (R)
»»»  Vision Compiled:	9/18/24
»»»  Driver Version:	5.47.0
»»»  Windows Version:	Windows 8 or 8.1
»»»  Processor Information:	x86 (AMD or Intel) - 32 Processors
»»»  Tester Name:	PMF21124-494 (100V)
»»»  Tester S/N:	PMF21124-494
»»»  Internal Amp Type:	100V RevK 270k
»»»  Internal Amp S/N:	iAB2-596/K     
»»»  Execution Count:	1
»»»»»»»»»»»»»»»»»»»»»»»»»»»»»»»»»»»»»»»»»»««««««««««««««««««««««««««««««««««««««««««

Stored:	10/2/2025 - 13:44:11
Configured:	10/02/25 12:40:15 PM
Executed:	10/02/25 01:40:05 PM

»»»»»»»»»»»»»»»»»»»»»»»»»»»»»»»»»»» Sample Info ««««««««««««««««««««««««««««««««««««
Sample Name:	Int. Ref. Ferroelectric
Lot Name:	N/A
Wafer Name:	N/A
Die Row/Column:	0/0
Capacitor Number:	0
Sample Area (cm2):	1.00e-04
Sample Thickness (microns):	3.00e-01

Amplifier:	Internal

»»»»»»»»»»»»»»»»»»»»»»»»»»»»»»»»»»» Tester Info «««««««««««««««««««««««««««««««««««
Tester Name:	PMF21124-494 (100V)
Tester Serial Number:	PMF21124-494
Return Signal Amp. Level:	0.02 [Index: 2]

»»»»»»»»»»»»»»»»»»»»»»»»»»»»»»»» Hysteresis Info ««««««««««««««««««««««««««««««««««
Task Name:	Hyst-1
Volts:	10.00
Field:	333.33 (kV/cm)
DCBias:	0.00
DCField:	0.00 (kV/cm)
Hysteresis Period (ms):	5.00e-01
Preset:	Enabled
Preset Delay (ms):	1.00e+03
Profile:	Standard Monopolar

»»»»»»»»»»»»»»»»»»»»»»»»»»»»»»»»»»»»»» Data «««««««««««««««««««««««««««««««««««««««
Points:	1001

Valid Data

Point	Time (ms)	Drive Voltage	Measured Polarization (uC/cm2)	Capacitance (uF)	Normalized Capacitance (uF/cm2)	Dielectric Constant	Instantaneous Current (mA)
   1	0.0000e+00	-0.0036	-12.670185	0.002550	25.499233	8.639374	0.101944
   2	5.0000e-04	0.0161	-12.160465	0.002550	25.499233	8.639374	0.101944
   3	1.0000e-03	0.0394	-12.233282	-0.000364	-3.642748	-1.234196	-0.014563
   4	1.5000e-03	0.0571	-12.451733	-0.001093	-10.928243	-3.702589	-0.043690
   5	2.0000e-03	0.0758	-12.306099	0.000729	7.285495	2.468393	0.029127
   6	2.5000e-03	0.0964	-12.342508	-0.000182	-1.821374	-0.617098	-0.007282
   7	3.0000e-03	0.1150	-12.051239	0.001457	14.570990	4.936785	0.058254
   8	3.5000e-03	0.1356	-12.087648	-0.000182	-1.821374	-0.617098	-0.007282
   9	4.0000e-03	0.1570	-12.087648	0.000000	0.000000	0.000000	0.000000
  10	4.5000e-03	0.1750	-11.978422	0.000546	5.464121	1.851294	0.021845
  11	5.0000e-03	0.1948	-11.978422	0.000000	0.000000	0.000000	0.000000
  12	5.5000e-03	0.2174	-11.759970	0.001093	10.928243	3.702589	0.043690
  13	6.0000e-03	0.2400	-11.614336	0.000729	7.285495	2.468393	0.029127
  14	6.5000e-03	0.2572	-12.014830	-0.002004	-20.035112	-6.788080	-0.080099
  15	7.0000e-03	0.2742	-11.687153	0.001639	16.392364	5.553883	0.065535
  16	7.5000e-03	0.2956	-11.759970	-0.000364	-3.642748	-1.234196	-0.014563
  17	8.0000e-03	0.3162	-11.614336	0.000729	7.285495	2.468393	0.029127
  18	8.5000e-03	0.3340	-11.359476	0.001275	12.749616	4.319687	0.050972
  19	9.0000e-03	0.3585	-11.213842	0.000729	7.285495	2.468393	0.029127
  20	9.5000e-03	0.3777	-11.323067	-0.000546	-5.464121	-1.851294	-0.021845
  21	1.0000e-02	0.3972	-11.068207	0.001275	12.749616	4.319687	0.050972
  22	1.0500e-02	0.4156	-11.323067	-0.001275	-12.749616	-4.319687	-0.050972
  23	1.1000e-02	0.4347	-11.432293	-0.000546	-5.464121	-1.851294	-0.021845
  24	1.1500e-02	0.4608	-11.213842	0.001093	10.928243	3.702589	0.043690
  25	1.2000e-02	0.4784	-11.323067	-0.000546	-5.464121	-1.851294	-0.021845
  26	1.2500e-02	0.4947	-10.922573	0.002004	20.035112	6.788080	0.080099
  27	1.3000e-02	0.5164	-10.958982	-0.000182	-1.821374	-0.617098	-0.007282
  28	1.3500e-02	0.5364	-10.922573	0.000182	1.821374	0.617098	0.007282
  29	1.4000e-02	0.5580	-10.849756	0.000364	3.642748	1.234196	0.014563
  30	1.4500e-02	0.5757	-10.558487	0.001457	14.570990	4.936785	0.058254
  31	1.5000e-02	0.5947	-10.995390	-0.002186	-21.856485	-7.405178	-0.087381
  32	1.5500e-02	0.6160	-10.485670	0.002550	25.499233	8.639374	0.101944
  33	1.6000e-02	0.6356	-10.594896	-0.000546	-5.464121	-1.851294	-0.021845
  34	1.6500e-02	0.6557	-10.813347	-0.001093	-10.928243	-3.702589	-0.043690
  35	1.7000e-02	0.6750	-10.340036	0.002368	23.677859	8.022276	0.094662
  36	1.7500e-02	0.6950	-10.485670	-0.000729	-7.285495	-2.468393	-0.029127
  37	1.8000e-02	0.7163	-10.303627	0.000911	9.106869	3.085491	0.036409
  38	1.8500e-02	0.7369	-10.376444	-0.000364	-3.642748	-1.234196	-0.014563
  39	1.9000e-02	0.7565	-10.012359	0.001821	18.213738	6.170981	0.072817
  40	1.9500e-02	0.7744	-10.376444	-0.001821	-18.213738	-6.170981	-0.072817
  41	2.0000e-02	0.7965	-10.085176	0.001457	14.570990	4.936785	0.058254
  42	2.0500e-02	0.8163	-10.267219	-0.000911	-9.106869	-3.085491	-0.036409
  43	2.1000e-02	0.8363	-10.121584	0.000729	7.285495	2.468393	0.029127
  44	2.1500e-02	0.8543	-10.012359	0.000546	5.464121	1.851294	0.021845
  45	2.2000e-02	0.8754	-9.975950	0.000182	1.821374	0.617098	0.007282
  46	2.2500e-02	0.8937	-9.903133	0.000364	3.642748	1.234196	0.014563
  47	2.3000e-02	0.9155	-9.830316	0.000364	3.642748	1.234196	0.014563
  48	2.3500e-02	0.9341	-9.793907	0.000182	1.821374	0.617098	0.007282
  49	2.4000e-02	0.9574	-9.903133	-0.000546	-5.464121	-1.851294	-0.021845
  50	2.4500e-02	0.9760	-9.502639	0.002004	20.035112	6.788080	0.080099
  51	2.5000e-02	0.9954	-9.684681	-0.000911	-9.106869	-3.085491	-0.036409
  52	2.5500e-02	1.0147	-9.721090	-0.000182	-1.821374	-0.617098	-0.007282
  53	2.6000e-02	1.0336	-9.429821	0.001457	14.570990	4.936785	0.058254
  54	2.6500e-02	1.0550	-9.247779	0.000911	9.106869	3.085491	0.036409
  55	2.7000e-02	1.0772	-9.320596	-0.000364	-3.642748	-1.234196	-0.014563
  56	2.7500e-02	1.0979	-9.466230	-0.000729	-7.285495	-2.468393	-0.029127
  57	2.8000e-02	1.1142	-9.174961	0.001457	14.570990	4.936785	0.058254
  58	2.8500e-02	1.1333	-9.174961	0.000000	0.000000	0.000000	0.000000
  59	2.9000e-02	1.1567	-8.847284	0.001639	16.392364	5.553883	0.065535
  60	2.9500e-02	1.1784	-9.029327	-0.000911	-9.106869	-3.085491	-0.036409
  61	3.0000e-02	1.1973	-8.956510	0.000364	3.642748	1.234196	0.014563
  62	3.0500e-02	1.2190	-8.883693	0.000364	3.642748	1.234196	0.014563
  63	3.1000e-02	1.2350	-8.956510	-0.000364	-3.642748	-1.234196	-0.014563
  64	3.1500e-02	1.2566	-8.556016	0.002004	20.035112	6.788080	0.080099
  65	3.2000e-02	1.2781	-8.847284	-0.001457	-14.570990	-4.936785	-0.058254
  66	3.2500e-02	1.2957	-8.665241	0.000911	9.106869	3.085491	0.036409
  67	3.3000e-02	1.3153	-8.665241	0.000000	0.000000	0.000000	0.000000
  68	3.3500e-02	1.3367	-8.592424	0.000364	3.642748	1.234196	0.014563
  69	3.4000e-02	1.3541	-8.592424	0.000000	0.000000	0.000000	0.000000
  70	3.4500e-02	1.3723	-8.410381	0.000911	9.106869	3.085491	0.036409
  71	3.5000e-02	1.3935	-8.483198	-0.000364	-3.642748	-1.234196	-0.014563
  72	3.5500e-02	1.4151	-8.301156	0.000911	9.106869	3.085491	0.036409
  73	3.6000e-02	1.4337	-8.410381	-0.000546	-5.464121	-1.851294	-0.021845
  74	3.6500e-02	1.4548	-8.264747	0.000729	7.285495	2.468393	0.029127
  75	3.7000e-02	1.4705	-8.337564	-0.000364	-3.642748	-1.234196	-0.014563
  76	3.7500e-02	1.4963	-8.046296	0.001457	14.570990	4.936785	0.058254
  77	3.8000e-02	1.5157	-8.082704	-0.000182	-1.821374	-0.617098	-0.007282
  78	3.8500e-02	1.5353	-8.264747	-0.000911	-9.106869	-3.085491	-0.036409
  79	3.9000e-02	1.5564	-7.755027	0.002550	25.499233	8.639374	0.101944
  80	3.9500e-02	1.5752	-7.937070	-0.000911	-9.106869	-3.085491	-0.036409
  81	4.0000e-02	1.5962	-7.791435	0.000729	7.285495	2.468393	0.029127
  82	4.0500e-02	1.6132	-7.718618	0.000364	3.642748	1.234196	0.014563
  83	4.1000e-02	1.6357	-7.682210	0.000182	1.821374	0.617098	0.007282
  84	4.1500e-02	1.6583	-7.500167	0.000911	9.106869	3.085491	0.036409
  85	4.2000e-02	1.6731	-7.536575	-0.000182	-1.821374	-0.617098	-0.007282
  86	4.2500e-02	1.6939	-7.864253	-0.001639	-16.392364	-5.553883	-0.065535
  87	4.3000e-02	1.7152	-7.281715	0.002914	29.141980	9.873570	0.116507
  88	4.3500e-02	1.7368	-7.609393	-0.001639	-16.392364	-5.553883	-0.065535
  89	4.4000e-02	1.7548	-7.136081	0.002368	23.677859	8.022276	0.094662
  90	4.4500e-02	1.7757	-7.208898	-0.000364	-3.642748	-1.234196	-0.014563
  91	4.5000e-02	1.7970	-7.245307	-0.000182	-1.821374	-0.617098	-0.007282
  92	4.5500e-02	1.8152	-7.063264	0.000911	9.106869	3.085491	0.036409
  93	4.6000e-02	1.8372	-7.026855	0.000182	1.821374	0.617098	0.007282
  94	4.6500e-02	1.8533	-7.026855	0.000000	0.000000	0.000000	0.000000
  95	4.7000e-02	1.8740	-7.318124	-0.001457	-14.570990	-4.936785	-0.058254
  96	4.7500e-02	1.8974	-6.808404	0.002550	25.499233	8.639374	0.101944
  97	4.8000e-02	1.9164	-6.844812	-0.000182	-1.821374	-0.617098	-0.007282
  98	4.8500e-02	1.9334	-6.881221	-0.000182	-1.821374	-0.617098	-0.007282
  99	4.9000e-02	1.9525	-6.699178	0.000911	9.106869	3.085491	0.036409
 100	4.9500e-02	1.9740	-6.444318	0.001275	12.749616	4.319687	0.050972
 101	5.0000e-02	1.9961	-6.553544	-0.000546	-5.464121	-1.851294	-0.021845
 102	5.0500e-02	2.0157	-6.444318	0.000546	5.464121	1.851294	0.021845
 103	5.1000e-02	2.0350	-6.262275	0.000911	9.106869	3.085491	0.036409
 104	5.1500e-02	2.0547	-6.444318	-0.000911	-9.106869	-3.085491	-0.036409
 105	5.2000e-02	2.0779	-6.407910	0.000182	1.821374	0.617098	0.007282
 106	5.2500e-02	2.0959	-6.153050	0.001275	12.749616	4.319687	0.050972
 107	5.3000e-02	2.1158	-6.189458	-0.000182	-1.821374	-0.617098	-0.007282
 108	5.3500e-02	2.1350	-6.298684	-0.000546	-5.464121	-1.851294	-0.021845
 109	5.4000e-02	2.1547	-6.007415	0.001457	14.570990	4.936785	0.058254
 110	5.4500e-02	2.1750	-5.788964	0.001093	10.928243	3.702589	0.043690
 111	5.5000e-02	2.1984	-6.007415	-0.001093	-10.928243	-3.702589	-0.043690
 112	5.5500e-02	2.2188	-6.080232	-0.000364	-3.642748	-1.234196	-0.014563
 113	5.6000e-02	2.2375	-6.007415	0.000364	3.642748	1.234196	0.014563
 114	5.6500e-02	2.2580	-5.971007	0.000182	1.821374	0.617098	0.007282
 115	5.7000e-02	2.2760	-5.825372	0.000729	7.285495	2.468393	0.029127
 116	5.7500e-02	2.2945	-5.643329	0.000911	9.106869	3.085491	0.036409
 117	5.8000e-02	2.3141	-5.643329	0.000000	0.000000	0.000000	0.000000
 118	5.8500e-02	2.3319	-5.497695	0.000729	7.285495	2.468393	0.029127
 119	5.9000e-02	2.3519	-5.643329	-0.000729	-7.285495	-2.468393	-0.029127
 120	5.9500e-02	2.3773	-5.279244	0.001821	18.213738	6.170981	0.072817
 121	6.0000e-02	2.3953	-5.206427	0.000364	3.642748	1.234196	0.014563
 122	6.0500e-02	2.4158	-5.206427	0.000000	0.000000	0.000000	0.000000
 123	6.1000e-02	2.4338	-5.170018	0.000182	1.821374	0.617098	0.007282
 124	6.1500e-02	2.4573	-5.170018	0.000000	0.000000	0.000000	0.000000
 125	6.2000e-02	2.4756	-5.242835	-0.000364	-3.642748	-1.234196	-0.014563
 126	6.2500e-02	2.5011	-4.915158	0.001639	16.392364	5.553883	0.065535
 127	6.3000e-02	2.5159	-5.279244	-0.001821	-18.213738	-6.170981	-0.072817
 128	6.3500e-02	2.5369	-4.878749	0.002004	20.035112	6.788080	0.080099
 129	6.4000e-02	2.5542	-4.878749	0.000000	0.000000	0.000000	0.000000
 130	6.4500e-02	2.5777	-4.769524	0.000546	5.464121	1.851294	0.021845
 131	6.5000e-02	2.5954	-4.915158	-0.000729	-7.285495	-2.468393	-0.029127
 132	6.5500e-02	2.6147	-4.441846	0.002368	23.677859	8.022276	0.094662
 133	6.6000e-02	2.6358	-4.441846	0.000000	0.000000	0.000000	0.000000
 134	6.6500e-02	2.6576	-4.878749	-0.002186	-21.856485	-7.405178	-0.087381
 135	6.7000e-02	2.6746	-4.696706	0.000911	9.106869	3.085491	0.036409
 136	6.7500e-02	2.6964	-4.369029	0.001639	16.392364	5.553883	0.065535
 137	6.8000e-02	2.7142	-4.369029	0.000000	0.000000	0.000000	0.000000
 138	6.8500e-02	2.7354	-4.478255	-0.000546	-5.464121	-1.851294	-0.021845
 139	6.9000e-02	2.7521	-4.478255	0.000000	0.000000	0.000000	0.000000
 140	6.9500e-02	2.7748	-4.150578	0.001639	16.392364	5.553883	0.065535
 141	7.0000e-02	2.7984	-4.223395	-0.000364	-3.642748	-1.234196	-0.014563
 142	7.0500e-02	2.8141	-4.223395	0.000000	0.000000	0.000000	0.000000
 143	7.1000e-02	2.8345	-4.150578	0.000364	3.642748	1.234196	0.014563
 144	7.1500e-02	2.8533	-4.041352	0.000546	5.464121	1.851294	0.021845
 145	7.2000e-02	2.8754	-3.932126	0.000546	5.464121	1.851294	0.021845
 146	7.2500e-02	2.8963	-4.004943	-0.000364	-3.642748	-1.234196	-0.014563
 147	7.3000e-02	2.9169	-4.041352	-0.000182	-1.821374	-0.617098	-0.007282
 148	7.3500e-02	2.9355	-3.859309	0.000911	9.106869	3.085491	0.036409
 149	7.4000e-02	2.9556	-3.895718	-0.000182	-1.821374	-0.617098	-0.007282
 150	7.4500e-02	2.9761	-3.677266	0.001093	10.928243	3.702589	0.043690
 151	7.5000e-02	2.9939	-3.495223	0.000911	9.106869	3.085491	0.036409
 152	7.5500e-02	3.0148	-3.568041	-0.000364	-3.642748	-1.234196	-0.014563
 153	7.6000e-02	3.0310	-3.640858	-0.000364	-3.642748	-1.234196	-0.014563
 154	7.6500e-02	3.0553	-3.313181	0.001639	16.392364	5.553883	0.065535
 155	7.7000e-02	3.0733	-3.531632	-0.001093	-10.928243	-3.702589	-0.043690
 156	7.7500e-02	3.0948	-3.131138	0.002004	20.035112	6.788080	0.080099
 157	7.8000e-02	3.1166	-3.422406	-0.001457	-14.570990	-4.936785	-0.058254
 158	7.8500e-02	3.1337	-3.131138	0.001457	14.570990	4.936785	0.058254
 159	7.9000e-02	3.1559	-3.313181	-0.000911	-9.106869	-3.085491	-0.036409
 160	7.9500e-02	3.1744	-3.058320	0.001275	12.749616	4.319687	0.050972
 161	8.0000e-02	3.1955	-3.131138	-0.000364	-3.642748	-1.234196	-0.014563
 162	8.0500e-02	3.2147	-3.240363	-0.000546	-5.464121	-1.851294	-0.021845
 163	8.1000e-02	3.2356	-2.839869	0.002004	20.035112	6.788080	0.080099
 164	8.1500e-02	3.2574	-2.949095	-0.000546	-5.464121	-1.851294	-0.021845
 165	8.2000e-02	3.2755	-3.058320	-0.000546	-5.464121	-1.851294	-0.021845
 166	8.2500e-02	3.2955	-2.803460	0.001275	12.749616	4.319687	0.050972
 167	8.3000e-02	3.3148	-2.803460	0.000000	0.000000	0.000000	0.000000
 168	8.3500e-02	3.3374	-2.767052	0.000182	1.821374	0.617098	0.007282
 169	8.4000e-02	3.3554	-2.548600	0.001093	10.928243	3.702589	0.043690
 170	8.4500e-02	3.3755	-2.767052	-0.001093	-10.928243	-3.702589	-0.043690
 171	8.5000e-02	3.3934	-2.439375	0.001639	16.392364	5.553883	0.065535
 172	8.5500e-02	3.4143	-2.402966	0.000182	1.821374	0.617098	0.007282
 173	8.6000e-02	3.4357	-2.475783	-0.000364	-3.642748	-1.234196	-0.014563
 174	8.6500e-02	3.4587	-2.439375	0.000182	1.821374	0.617098	0.007282
 175	8.7000e-02	3.4760	-2.293740	0.000729	7.285495	2.468393	0.029127
 176	8.7500e-02	3.4943	-2.439375	-0.000729	-7.285495	-2.468393	-0.029127
 177	8.8000e-02	3.5144	-2.184515	0.001275	12.749616	4.319687	0.050972
 178	8.8500e-02	3.5353	-2.184515	0.000000	0.000000	0.000000	0.000000
 179	8.9000e-02	3.5565	-2.220923	-0.000182	-1.821374	-0.617098	-0.007282
 180	8.9500e-02	3.5757	-2.148106	0.000364	3.642748	1.234196	0.014563
 181	9.0000e-02	3.5939	-2.220923	-0.000364	-3.642748	-1.234196	-0.014563
 182	9.0500e-02	3.6150	-2.002472	0.001093	10.928243	3.702589	0.043690
 183	9.1000e-02	3.6328	-1.674795	0.001639	16.392364	5.553883	0.065535
 184	9.1500e-02	3.6549	-1.856837	-0.000911	-9.106869	-3.085491	-0.036409
 185	9.2000e-02	3.6783	-1.966063	-0.000546	-5.464121	-1.851294	-0.021845
 186	9.2500e-02	3.6976	-1.784020	0.000911	9.106869	3.085491	0.036409
 187	9.3000e-02	3.7149	-1.529160	0.001275	12.749616	4.319687	0.050972
 188	9.3500e-02	3.7332	-1.419935	0.000546	5.464121	1.851294	0.021845
 189	9.4000e-02	3.7531	-1.601977	-0.000911	-9.106869	-3.085491	-0.036409
 190	9.4500e-02	3.7746	-1.492752	0.000546	5.464121	1.851294	0.021845
 191	9.5000e-02	3.7953	-1.747612	-0.001275	-12.749616	-4.319687	-0.050972
 192	9.5500e-02	3.8159	-1.492752	0.001275	12.749616	4.319687	0.050972
 193	9.6000e-02	3.8351	-1.201483	0.001457	14.570990	4.936785	0.058254
 194	9.6500e-02	3.8554	-1.419935	-0.001093	-10.928243	-3.702589	-0.043690
 195	9.7000e-02	3.8763	-1.274300	0.000729	7.285495	2.468393	0.029127
 196	9.7500e-02	3.8943	-1.310709	-0.000182	-1.821374	-0.617098	-0.007282
 197	9.8000e-02	3.9162	-1.019440	0.001457	14.570990	4.936785	0.058254
 198	9.8500e-02	3.9343	-1.128666	-0.000546	-5.464121	-1.851294	-0.021845
 199	9.9000e-02	3.9551	-1.092257	0.000182	1.821374	0.617098	0.007282
 200	9.9500e-02	3.9748	-1.019440	0.000364	3.642748	1.234196	0.014563
 201	1.0000e-01	3.9929	-0.910214	0.000546	5.464121	1.851294	0.021845
 202	1.0050e-01	4.0149	-0.983032	-0.000364	-3.642748	-1.234196	-0.014563
 203	1.0100e-01	4.0326	-0.655354	0.001639	16.392364	5.553883	0.065535
 204	1.0150e-01	4.0558	-0.800989	-0.000729	-7.285495	-2.468393	-0.029127
 205	1.0200e-01	4.0767	-0.473312	0.001639	16.392364	5.553883	0.065535
 206	1.0250e-01	4.0962	-0.655354	-0.000911	-9.106869	-3.085491	-0.036409
 207	1.0300e-01	4.1167	-0.837397	-0.000911	-9.106869	-3.085491	-0.036409
 208	1.0350e-01	4.1337	-0.728172	0.000546	5.464121	1.851294	0.021845
 209	1.0400e-01	4.1536	-0.473312	0.001275	12.749616	4.319687	0.050972
 210	1.0450e-01	4.1774	-0.400494	0.000364	3.642748	1.234196	0.014563
 211	1.0500e-01	4.1962	-0.145634	0.001275	12.749616	4.319687	0.050972
 212	1.0550e-01	4.2145	-0.364086	-0.001093	-10.928243	-3.702589	-0.043690
 213	1.0600e-01	4.2352	-0.473312	-0.000546	-5.464121	-1.851294	-0.021845
 214	1.0650e-01	4.2554	-0.072817	0.002004	20.035112	6.788080	0.080099
 215	1.0700e-01	4.2758	-0.182043	-0.000546	-5.464121	-1.851294	-0.021845
 216	1.0750e-01	4.2966	-0.145634	0.000182	1.821374	0.617098	0.007282
 217	1.0800e-01	4.3121	-0.218451	-0.000364	-3.642748	-1.234196	-0.014563
 218	1.0850e-01	4.3341	0.000000	0.001093	10.928243	3.702589	0.043690
 219	1.0900e-01	4.3549	-0.072817	-0.000364	-3.642748	-1.234196	-0.014563
 220	1.0950e-01	4.3747	-0.036409	0.000182	1.821374	0.617098	0.007282
 221	1.1000e-01	4.3965	-0.145634	-0.000546	-5.464121	-1.851294	-0.021845
 222	1.1050e-01	4.4172	0.182043	0.001639	16.392364	5.553883	0.065535
 223	1.1100e-01	4.4348	0.291269	0.000546	5.464121	1.851294	0.021845
 224	1.1150e-01	4.4545	0.364086	0.000364	3.642748	1.234196	0.014563
 225	1.1200e-01	4.4788	0.291269	-0.000364	-3.642748	-1.234196	-0.014563
 226	1.1250e-01	4.4971	0.509720	0.001093	10.928243	3.702589	0.043690
 227	1.1300e-01	4.5166	0.291269	-0.001093	-10.928243	-3.702589	-0.043690
 228	1.1350e-01	4.5307	0.655354	0.001821	18.213738	6.170981	0.072817
 229	1.1400e-01	4.5538	0.436903	-0.001093	-10.928243	-3.702589	-0.043690
 230	1.1450e-01	4.5746	0.618946	0.000911	9.106869	3.085491	0.036409
 231	1.1500e-01	4.5941	0.582537	-0.000182	-1.821374	-0.617098	-0.007282
 232	1.1550e-01	4.6164	0.910214	0.001639	16.392364	5.553883	0.065535
 233	1.1600e-01	4.6341	0.800989	-0.000546	-5.464121	-1.851294	-0.021845
 234	1.1650e-01	4.6555	0.946623	0.000729	7.285495	2.468393	0.029127
 235	1.1700e-01	4.6753	0.618946	-0.001639	-16.392364	-5.553883	-0.065535
 236	1.1750e-01	4.6979	0.800989	0.000911	9.106869	3.085491	0.036409
 237	1.1800e-01	4.7131	1.055849	0.001275	12.749616	4.319687	0.050972
 238	1.1850e-01	4.7372	0.983032	-0.000364	-3.642748	-1.234196	-0.014563
 239	1.1900e-01	4.7572	0.983032	0.000000	0.000000	0.000000	0.000000
 240	1.1950e-01	4.7754	1.092257	0.000546	5.464121	1.851294	0.021845
 241	1.2000e-01	4.7931	1.092257	0.000000	0.000000	0.000000	0.000000
 242	1.2050e-01	4.8157	1.092257	0.000000	0.000000	0.000000	0.000000
 243	1.2100e-01	4.8351	1.310709	0.001093	10.928243	3.702589	0.043690
 244	1.2150e-01	4.8553	1.383526	0.000364	3.642748	1.234196	0.014563
 245	1.2200e-01	4.8745	1.383526	0.000000	0.000000	0.000000	0.000000
 246	1.2250e-01	4.8956	1.383526	0.000000	0.000000	0.000000	0.000000
 247	1.2300e-01	4.9155	1.347117	-0.000182	-1.821374	-0.617098	-0.007282
 248	1.2350e-01	4.9347	1.310709	-0.000182	-1.821374	-0.617098	-0.007282
 249	1.2400e-01	4.9548	1.529160	0.001093	10.928243	3.702589	0.043690
 250	1.2450e-01	4.9786	1.347117	-0.000911	-9.106869	-3.085491	-0.036409
 251	1.2500e-01	4.9976	1.492752	0.000729	7.285495	2.468393	0.029127
 252	1.2550e-01	5.0165	1.929655	0.002186	21.856485	7.405178	0.087381
 253	1.2600e-01	5.0342	1.638386	-0.001457	-14.570990	-4.936785	-0.058254
 254	1.2650e-01	5.0545	1.747612	0.000546	5.464121	1.851294	0.021845
 255	1.2700e-01	5.0732	1.711203	-0.000182	-1.821374	-0.617098	-0.007282
 256	1.2750e-01	5.0961	1.638386	-0.000364	-3.642748	-1.234196	-0.014563
 257	1.2800e-01	5.1157	1.820429	0.000911	9.106869	3.085491	0.036409
 258	1.2850e-01	5.1352	2.038880	0.001093	10.928243	3.702589	0.043690
