»»»»»»»»»»»»»»»»»»»»»»»»»»»»»»»»»»»» Hysteresis ««««««««««««««««««««««««««««««««««««
»»»  Executed Version:	5.48.1
»»»  Vision Version:	5.48.4 (R)
»»»  Vision Compiled:	9/18/24
»»»  Driver Version:	5.47.0
»»»  Windows Version:	Windows 8 or 8.1
»»»  Processor Information:	x86 (AMD or Intel) - 32 Processors
»»»  Tester Name:	PMF21124-494 (100V)
»»»  Tester S/N:	PMF21124-494
»»»  Internal Amp Type:	100V RevK 270k
»»»  Internal Amp S/N:	iAB2-596/K     
»»»  Execution Count:	1
»»»»»»»»»»»»»»»»»»»»»»»»»»»»»»»»»»»»»»»»»»««««««««««««««««««««««««««««««««««««««««««

Stored:	10/2/2025 - 14:44:40
Configured:	10/02/25 12:40:15 PM
Executed:	10/02/25 02:44:02 PM

»»»»»»»»»»»»»»»»»»»»»»»»»»»»»»»»»»» Sample Info ««««««««««««««««««««««««««««««««««««
Sample Name:	Int. Ref. Ferroelectric
Lot Name:	N/A
Wafer Name:	N/A
Die Row/Column:	0/0
Capacitor Number:	0
Sample Area (cm2):	1.00e-04
Sample Thickness (microns):	3.00e-01

Amplifier:	Internal

»»»»»»»»»»»»»»»»»»»»»»»»»»»»»»»»»»» Tester Info «««««««««««««««««««««««««««««««««««
Tester Name:	PMF21124-494 (100V)
Tester Serial Number:	PMF21124-494
Return Signal Amp. Level:	0.02 [Index: 2]

»»»»»»»»»»»»»»»»»»»»»»»»»»»»»»»» Hysteresis Info ««««««««««««««««««««««««««««««««««
Task Name:	Hyst-1
Volts:	20.00
Field:	666.67 (kV/cm)
DCBias:	0.00
DCField:	0.00 (kV/cm)
Hysteresis Period (ms):	5.00e-01
Preset:	Enabled
Preset Delay (ms):	1.00e+03
Profile:	Standard Monopolar

»»»»»»»»»»»»»»»»»»»»»»»»»»»»»»»»»»»»»» Data «««««««««««««««««««««««««««««««««««««««
Points:	1001

Valid Data

Point	Time (ms)	Drive Voltage	Measured Polarization (uC/cm2)	Capacitance (uF)	Normalized Capacitance (uF/cm2)	Dielectric Constant	Instantaneous Current (mA)
   1	0.0000e+00	0.0209	-20.370599	0.001539	15.386566	5.213110	0.123789
   2	5.0000e-04	0.0401	-19.751653	0.001539	15.386566	5.213110	0.123789
   3	1.0000e-03	0.1171	-20.042922	-0.000724	-7.240737	-2.453228	-0.058254
   4	1.5000e-03	0.1636	-19.933696	0.000272	2.715276	0.919961	0.021845
   5	2.0000e-03	0.2021	-19.933696	0.000000	0.000000	0.000000	0.000000
   6	2.5000e-03	0.2454	-19.606019	0.000815	8.145829	2.759882	0.065535
   7	3.0000e-03	0.2743	-19.715244	-0.000272	-2.715276	-0.919961	-0.021845
   8	3.5000e-03	0.3305	-19.205524	0.001267	12.671289	4.293149	0.101944
   9	4.0000e-03	0.3481	-19.096299	0.000272	2.715276	0.919961	0.021845
  10	4.5000e-03	0.3898	-19.132707	-0.000091	-0.905092	-0.306654	-0.007282
  11	5.0000e-03	0.4396	-19.351159	-0.000543	-5.430553	-1.839921	-0.043690
  12	5.5000e-03	0.4813	-18.768621	0.001448	14.481474	4.906456	0.116507
  13	6.0000e-03	0.5390	-18.659396	0.000272	2.715276	0.919961	0.021845
  14	6.5000e-03	0.5583	-18.987073	-0.000815	-8.145829	-2.759882	-0.065535
  15	7.0000e-03	0.5871	-18.477353	0.001267	12.671289	4.293149	0.101944
  16	7.5000e-03	0.6385	-18.404536	0.000181	1.810184	0.613307	0.014563
  17	8.0000e-03	0.6770	-18.513761	-0.000272	-2.715276	-0.919961	-0.021845
  18	8.5000e-03	0.7171	-18.222493	0.000724	7.240737	2.453228	0.058254
  19	9.0000e-03	0.7460	-18.295310	-0.000181	-1.810184	-0.613307	-0.014563
  20	9.5000e-03	0.7813	-17.967633	0.000815	8.145829	2.759882	0.065535
  21	1.0000e-02	0.8374	-18.258901	-0.000724	-7.240737	-2.453228	-0.058254
  22	1.0500e-02	0.8936	-17.567138	0.001720	17.196750	5.826417	0.138353
  23	1.1000e-02	0.9289	-17.676364	-0.000272	-2.715276	-0.919961	-0.021845
  24	1.1500e-02	0.9625	-17.894816	-0.000543	-5.430553	-1.839921	-0.043690
  25	1.2000e-02	0.9866	-17.530730	0.000905	9.050921	3.066535	0.072817
  26	1.2500e-02	1.0299	-17.312278	0.000543	5.430553	1.839921	0.043690
  27	1.3000e-02	1.0813	-17.421504	-0.000272	-2.715276	-0.919961	-0.021845
  28	1.3500e-02	1.1069	-16.802558	0.001539	15.386566	5.213110	0.123789
  29	1.4000e-02	1.1695	-17.057418	-0.000634	-6.335645	-2.146575	-0.050972
  30	1.4500e-02	1.2000	-17.130235	-0.000181	-1.810184	-0.613307	-0.014563
  31	1.5000e-02	1.2337	-17.130235	0.000000	0.000000	0.000000	0.000000
  32	1.5500e-02	1.2738	-16.365655	0.001901	19.006934	6.439724	0.152916
  33	1.6000e-02	1.2962	-16.802558	-0.001086	-10.861105	-3.679842	-0.087381
  34	1.6500e-02	1.3700	-16.474881	0.000815	8.145829	2.759882	0.065535
  35	1.7000e-02	1.4117	-16.329247	0.000362	3.620368	1.226614	0.029127
  36	1.7500e-02	1.4422	-16.620515	-0.000724	-7.240737	-2.453228	-0.058254
  37	1.8000e-02	1.4775	-16.256430	0.000905	9.050921	3.066535	0.072817
  38	1.8500e-02	1.5288	-16.256430	0.000000	0.000000	0.000000	0.000000
  39	1.9000e-02	1.5401	-16.292838	-0.000091	-0.905092	-0.306654	-0.007282
  40	1.9500e-02	1.5978	-15.673892	0.001539	15.386566	5.213110	0.123789
  41	2.0000e-02	1.6331	-16.037978	-0.000905	-9.050921	-3.066535	-0.072817
  42	2.0500e-02	1.6780	-15.637484	0.000996	9.956013	3.373189	0.080099
  43	2.1000e-02	1.7213	-15.491849	0.000362	3.620368	1.226614	0.029127
  44	2.1500e-02	1.7502	-15.419032	0.000181	1.810184	0.613307	0.014563
  45	2.2000e-02	1.7919	-15.564667	-0.000362	-3.620368	-1.226614	-0.029127
  46	2.2500e-02	1.8176	-15.273398	0.000724	7.240737	2.453228	0.058254
  47	2.3000e-02	1.8882	-15.309807	-0.000091	-0.905092	-0.306654	-0.007282
  48	2.3500e-02	1.9026	-14.763678	0.001358	13.576381	4.599803	0.109226
  49	2.4000e-02	1.9604	-14.982129	-0.000543	-5.430553	-1.839921	-0.043690
  50	2.4500e-02	1.9828	-14.836495	0.000362	3.620368	1.226614	0.029127
  51	2.5000e-02	2.0727	-14.399592	0.001086	10.861105	3.679842	0.087381
  52	2.5500e-02	2.0903	-14.436001	-0.000091	-0.905092	-0.306654	-0.007282
  53	2.6000e-02	2.1384	-14.763678	-0.000815	-8.145829	-2.759882	-0.065535
  54	2.6500e-02	2.1417	-14.472409	0.000724	7.240737	2.453228	0.058254
  55	2.7000e-02	2.1946	-14.436001	0.000091	0.905092	0.306654	0.007282
  56	2.7500e-02	2.2363	-13.853464	0.001448	14.481474	4.906456	0.116507
  57	2.8000e-02	2.2684	-14.035506	-0.000453	-4.525460	-1.533268	-0.036409
  58	2.8500e-02	2.3117	-13.707829	0.000815	8.145829	2.759882	0.065535
  59	2.9000e-02	2.3566	-13.999098	-0.000724	-7.240737	-2.453228	-0.058254
  60	2.9500e-02	2.3871	-13.562195	0.001086	10.861105	3.679842	0.087381
  61	3.0000e-02	2.4400	-13.307335	0.000634	6.335645	2.146575	0.050972
  62	3.0500e-02	2.4914	-13.926281	-0.001539	-15.386566	-5.213110	-0.123789
  63	3.1000e-02	2.5363	-13.343743	0.001448	14.481474	4.906456	0.116507
  64	3.1500e-02	2.5668	-13.525786	-0.000453	-4.525460	-1.533268	-0.036409
  65	3.2000e-02	2.5989	-13.088883	0.001086	10.861105	3.679842	0.087381
  66	3.2500e-02	2.6486	-13.052475	0.000091	0.905092	0.306654	0.007282
  67	3.3000e-02	2.6951	-13.088883	-0.000091	-0.905092	-0.306654	-0.007282
  68	3.3500e-02	2.7208	-12.870432	0.000543	5.430553	1.839921	0.043690
  69	3.4000e-02	2.7513	-12.615572	0.000634	6.335645	2.146575	0.050972
  70	3.4500e-02	2.8090	-12.943249	-0.000815	-8.145829	-2.759882	-0.065535
  71	3.5000e-02	2.8459	-12.797615	0.000362	3.620368	1.226614	0.029127
  72	3.5500e-02	2.8956	-12.542755	0.000634	6.335645	2.146575	0.050972
  73	3.6000e-02	2.9470	-12.251486	0.000724	7.240737	2.453228	0.058254
  74	3.6500e-02	2.9582	-12.469938	-0.000543	-5.430553	-1.839921	-0.043690
  75	3.7000e-02	3.0047	-12.360712	0.000272	2.715276	0.919961	0.021845
  76	3.7500e-02	3.0593	-11.923809	0.001086	10.861105	3.679842	0.087381
  77	3.8000e-02	3.0657	-12.215078	-0.000724	-7.240737	-2.453228	-0.058254
  78	3.8500e-02	3.1122	-12.215078	0.000000	0.000000	0.000000	0.000000
  79	3.9000e-02	3.1668	-11.850992	0.000905	9.050921	3.066535	0.072817
  80	3.9500e-02	3.2133	-11.850992	0.000000	0.000000	0.000000	0.000000
  81	4.0000e-02	3.2309	-11.668949	0.000453	4.525460	1.533268	0.036409
  82	4.0500e-02	3.2758	-11.596132	0.000181	1.810184	0.613307	0.014563
  83	4.1000e-02	3.3047	-11.741766	-0.000362	-3.620368	-1.226614	-0.029127
  84	4.1500e-02	3.3609	-10.977186	0.001901	19.006934	6.439724	0.152916
  85	4.2000e-02	3.4122	-11.523315	-0.001358	-13.576381	-4.599803	-0.109226
  86	4.2500e-02	3.4459	-11.195637	0.000815	8.145829	2.759882	0.065535
  87	4.3000e-02	3.4716	-10.940777	0.000634	6.335645	2.146575	0.050972
  88	4.3500e-02	3.5165	-10.977186	-0.000091	-0.905092	-0.306654	-0.007282
  89	4.4000e-02	3.5823	-10.904369	0.000181	1.810184	0.613307	0.014563
  90	4.4500e-02	3.5983	-11.086412	-0.000453	-4.525460	-1.533268	-0.036409
  91	4.5000e-02	3.6416	-10.540283	0.001358	13.576381	4.599803	0.109226
  92	4.5500e-02	3.6801	-10.613100	-0.000181	-1.810184	-0.613307	-0.014563
  93	4.6000e-02	3.7250	-10.576692	0.000091	0.905092	0.306654	0.007282
  94	4.6500e-02	3.7555	-10.066972	0.001267	12.671289	4.293149	0.101944
  95	4.7000e-02	3.7908	-10.212606	-0.000362	-3.620368	-1.226614	-0.029127
  96	4.7500e-02	3.8421	-10.030563	0.000453	4.525460	1.533268	0.036409
  97	4.8000e-02	3.8806	-10.066972	-0.000091	-0.905092	-0.306654	-0.007282
  98	4.8500e-02	3.9256	-9.957746	0.000272	2.715276	0.919961	0.021845
  99	4.9000e-02	3.9576	-10.358240	-0.000996	-9.956013	-3.373189	-0.080099
 100	4.9500e-02	4.0186	-9.557251	0.001991	19.912026	6.746377	0.160198
 101	5.0000e-02	4.0443	-9.702886	-0.000362	-3.620368	-1.226614	-0.029127
 102	5.0500e-02	4.0812	-9.921337	-0.000543	-5.430553	-1.839921	-0.043690
 103	5.1000e-02	4.1261	-9.630069	0.000724	7.240737	2.453228	0.058254
 104	5.1500e-02	4.1485	-9.302391	0.000815	8.145829	2.759882	0.065535
 105	5.2000e-02	4.1983	-9.375209	-0.000181	-1.810184	-0.613307	-0.014563
 106	5.2500e-02	4.2223	-9.229574	0.000362	3.620368	1.226614	0.029127
 107	5.3000e-02	4.2689	-9.156757	0.000181	1.810184	0.613307	0.014563
 108	5.3500e-02	4.3282	-9.156757	0.000000	0.000000	0.000000	0.000000
 109	5.4000e-02	4.3763	-9.011123	0.000362	3.620368	1.226614	0.029127
 110	5.4500e-02	4.4132	-9.083940	-0.000181	-1.810184	-0.613307	-0.014563
 111	5.5000e-02	4.4485	-8.938306	0.000362	3.620368	1.226614	0.029127
 112	5.5500e-02	4.5063	-8.501403	0.001086	10.861105	3.679842	0.087381
 113	5.6000e-02	4.5400	-8.756263	-0.000634	-6.335645	-2.146575	-0.050972
 114	5.6500e-02	4.5560	-8.464994	0.000724	7.240737	2.453228	0.058254
 115	5.7000e-02	4.5913	-8.137317	0.000815	8.145829	2.759882	0.065535
 116	5.7500e-02	4.6491	-8.319360	-0.000453	-4.525460	-1.533268	-0.036409
 117	5.8000e-02	4.6892	-8.464994	-0.000362	-3.620368	-1.226614	-0.029127
 118	5.8500e-02	4.7084	-8.210134	0.000634	6.335645	2.146575	0.050972
 119	5.9000e-02	4.7726	-7.991683	0.000543	5.430553	1.839921	0.043690
 120	5.9500e-02	4.8191	-7.882457	0.000272	2.715276	0.919961	0.021845
 121	6.0000e-02	4.8512	-7.700414	0.000453	4.525460	1.533268	0.036409
 122	6.0500e-02	4.8865	-7.846048	-0.000362	-3.620368	-1.226614	-0.029127
 123	6.1000e-02	4.9170	-7.955274	-0.000272	-2.715276	-0.919961	-0.021845
 124	6.1500e-02	4.9619	-7.336328	0.001539	15.386566	5.213110	0.123789
 125	6.2000e-02	5.0020	-7.518371	-0.000453	-4.525460	-1.533268	-0.036409
 126	6.2500e-02	5.0325	-7.263511	0.000634	6.335645	2.146575	0.050972
 127	6.3000e-02	5.0886	-7.190694	0.000181	1.810184	0.613307	0.014563
 128	6.3500e-02	5.1223	-7.299920	-0.000272	-2.715276	-0.919961	-0.021845
 129	6.4000e-02	5.1608	-7.081468	0.000543	5.430553	1.839921	0.043690
 130	6.4500e-02	5.1737	-6.972242	0.000272	2.715276	0.919961	0.021845
 131	6.5000e-02	5.2523	-6.972242	0.000000	0.000000	0.000000	0.000000
 132	6.5500e-02	5.2763	-7.190694	-0.000543	-5.430553	-1.839921	-0.043690
 133	6.6000e-02	5.3164	-6.899425	0.000724	7.240737	2.453228	0.058254
 134	6.6500e-02	5.3405	-6.863017	0.000091	0.905092	0.306654	0.007282
 135	6.7000e-02	5.3950	-6.316888	0.001358	13.576381	4.599803	0.109226
 136	6.7500e-02	5.4351	-6.462522	-0.000362	-3.620368	-1.226614	-0.029127
 137	6.8000e-02	5.4640	-6.753791	-0.000724	-7.240737	-2.453228	-0.058254
 138	6.8500e-02	5.5186	-6.535340	0.000543	5.430553	1.839921	0.043690
 139	6.9000e-02	5.5747	-6.134845	0.000996	9.956013	3.373189	0.080099
 140	6.9500e-02	5.6068	-6.244071	-0.000272	-2.715276	-0.919961	-0.021845
 141	7.0000e-02	5.6309	-6.207662	0.000091	0.905092	0.306654	0.007282
 142	7.0500e-02	5.6742	-6.062028	0.000362	3.620368	1.226614	0.029127
 143	7.1000e-02	5.7159	-5.843577	0.000543	5.430553	1.839921	0.043690
 144	7.1500e-02	5.7512	-5.879985	-0.000091	-0.905092	-0.306654	-0.007282
 145	7.2000e-02	5.7993	-5.406674	0.001177	11.766197	3.986496	0.094662
 146	7.2500e-02	5.8506	-5.916394	-0.001267	-12.671289	-4.293149	-0.101944
 147	7.3000e-02	5.8988	-5.443082	0.001177	11.766197	3.986496	0.094662
 148	7.3500e-02	5.9212	-5.370265	0.000181	1.810184	0.613307	0.014563
 149	7.4000e-02	5.9613	-5.443082	-0.000181	-1.810184	-0.613307	-0.014563
 150	7.4500e-02	6.0239	-5.006179	0.001086	10.861105	3.679842	0.087381
 151	7.5000e-02	6.0512	-5.297448	-0.000724	-7.240737	-2.453228	-0.058254
 152	7.5500e-02	6.0656	-4.969771	0.000815	8.145829	2.759882	0.065535
 153	7.6000e-02	6.0993	-4.933362	0.000091	0.905092	0.306654	0.007282
 154	7.6500e-02	6.1506	-4.933362	0.000000	0.000000	0.000000	0.000000
 155	7.7000e-02	6.1972	-4.460051	0.001177	11.766197	3.986496	0.094662
 156	7.7500e-02	6.2453	-4.933362	-0.001177	-11.766197	-3.986496	-0.094662
 157	7.8000e-02	6.2822	-4.860545	0.000181	1.810184	0.613307	0.014563
 158	7.8500e-02	6.3094	-4.714911	0.000362	3.620368	1.226614	0.029127
 159	7.9000e-02	6.3592	-4.532868	0.000453	4.525460	1.533268	0.036409
 160	7.9500e-02	6.3929	-4.168782	0.000905	9.050921	3.066535	0.072817
 161	8.0000e-02	6.4618	-4.350825	-0.000453	-4.525460	-1.533268	-0.036409
 162	8.0500e-02	6.4747	-4.605685	-0.000634	-6.335645	-2.146575	-0.050972
 163	8.1000e-02	6.5036	-3.731879	0.002172	21.722210	7.359684	0.174761
 164	8.1500e-02	6.5501	-4.059556	-0.000815	-8.145829	-2.759882	-0.065535
 165	8.2000e-02	6.6143	-3.877513	0.000453	4.525460	1.533268	0.036409
 166	8.2500e-02	6.6126	-3.768288	-0.000272	-2.715276	-0.919961	0.021845
 167	8.3000e-02	6.6768	-4.095965	-0.000815	-8.145829	-2.759882	-0.065535
 168	8.3500e-02	6.7298	-3.659062	0.001086	10.861105	3.679842	0.087381
 169	8.4000e-02	6.7763	-3.841105	-0.000453	-4.525460	-1.533268	-0.036409
 170	8.4500e-02	6.7875	-3.367793	0.001177	11.766197	3.986496	0.094662
 171	8.5000e-02	6.8388	-3.367793	0.000000	0.000000	0.000000	0.000000
 172	8.5500e-02	6.9110	-3.294976	0.000181	1.810184	0.613307	0.014563
 173	8.6000e-02	6.9239	-3.149342	0.000362	3.620368	1.226614	0.029127
 174	8.6500e-02	6.9688	-3.185750	-0.000091	-0.905092	-0.306654	-0.007282
 175	8.7000e-02	7.0265	-3.294976	-0.000272	-2.715276	-0.919961	-0.021845
 176	8.7500e-02	7.0362	-3.112933	0.000453	4.525460	1.533268	0.036409
 177	8.8000e-02	7.0763	-2.930890	0.000453	4.525460	1.533268	0.036409
 178	8.8500e-02	7.1196	-2.858073	0.000181	1.810184	0.613307	0.014563
 179	8.9000e-02	7.1517	-2.858073	0.000000	0.000000	0.000000	0.000000
 180	8.9500e-02	7.1854	-2.676030	0.000453	4.525460	1.533268	0.036409
 181	9.0000e-02	7.2495	-2.676030	0.000000	0.000000	0.000000	0.000000
 182	9.0500e-02	7.2912	-2.239127	0.001086	10.861105	3.679842	0.087381
 183	9.1000e-02	7.3281	-2.129902	0.000272	2.715276	0.919961	0.021845
 184	9.1500e-02	7.3602	-2.384762	-0.000634	-6.335645	-2.146575	-0.050972
 185	9.2000e-02	7.4132	-2.311945	0.000181	1.810184	0.613307	0.014563
 186	9.2500e-02	7.4436	-2.057085	0.000634	6.335645	2.146575	0.050972
 187	9.3000e-02	7.4998	-2.020676	0.000091	0.905092	0.306654	0.007282
 188	9.3500e-02	7.4886	-2.311945	0.000724	7.240737	2.453228	-0.058254
 189	9.4000e-02	7.5559	-2.020676	0.000724	7.240737	2.453228	0.058254
 190	9.4500e-02	7.6025	-1.984267	0.000091	0.905092	0.306654	0.007282
 191	9.5000e-02	7.6506	-2.020676	-0.000091	-0.905092	-0.306654	-0.007282
 192	9.5500e-02	7.6811	-1.802225	0.000543	5.430553	1.839921	0.043690
 193	9.6000e-02	7.7148	-1.583773	0.000543	5.430553	1.839921	0.043690
 194	9.6500e-02	7.7468	-1.692999	-0.000272	-2.715276	-0.919961	-0.021845
 195	9.7000e-02	7.8238	-1.365322	0.000815	8.145829	2.759882	0.065535
 196	9.7500e-02	7.8351	-1.438139	-0.000181	-1.810184	-0.613307	-0.014563
 197	9.8000e-02	7.8784	-1.110462	0.000815	8.145829	2.759882	0.065535
 198	9.8500e-02	7.9217	-1.474547	-0.000905	-9.050921	-3.066535	-0.072817
 199	9.9000e-02	7.9634	-1.074053	0.000996	9.956013	3.373189	0.080099
 200	9.9500e-02	7.9907	-1.001236	0.000181	1.810184	0.613307	0.014563
 201	1.0000e-01	8.0308	-0.928419	0.000181	1.810184	0.613307	0.014563
 202	1.0050e-01	8.0934	-0.964827	-0.000091	-0.905092	-0.306654	-0.007282
 203	1.0100e-01	8.1094	-1.146870	-0.000453	-4.525460	-1.533268	-0.036409
 204	1.0150e-01	8.1720	-0.892010	0.000634	6.335645	2.146575	0.050972
 205	1.0200e-01	8.2008	-0.637150	0.000634	6.335645	2.146575	0.050972
 206	1.0250e-01	8.2474	-0.673559	-0.000091	-0.905092	-0.306654	-0.007282
 207	1.0300e-01	8.2730	-0.236656	0.001086	10.861105	3.679842	0.087381
 208	1.0350e-01	8.3083	-0.709967	-0.001177	-11.766197	-3.986496	-0.094662
 209	1.0400e-01	8.3404	-0.709967	0.000000	0.000000	0.000000	0.000000
 210	1.0450e-01	8.3885	0.054613	0.001901	19.006934	6.439724	0.152916
 211	1.0500e-01	8.4318	-0.127430	-0.000453	-4.525460	-1.533268	-0.036409
 212	1.0550e-01	8.5105	-0.236656	-0.000272	-2.715276	-0.919961	-0.021845
 213	1.0600e-01	8.5425	-0.091021	0.000362	3.620368	1.226614	0.029127
 214	1.0650e-01	8.5425	0.091021	-0.000453	-4.525460	-1.533268	0.036409
 215	1.0700e-01	8.5923	0.127430	0.000091	0.905092	0.306654	0.007282
 216	1.0750e-01	8.6436	0.345881	0.000543	5.430553	1.839921	0.043690
 217	1.0800e-01	8.6661	0.491516	0.000362	3.620368	1.226614	0.029127
 218	1.0850e-01	8.7399	0.273064	-0.000543	-5.430553	-1.839921	-0.043690
 219	1.0900e-01	8.7575	0.382290	0.000272	2.715276	0.919961	0.021845
 220	1.0950e-01	8.8072	0.709967	0.000815	8.145829	2.759882	0.065535
 221	1.1000e-01	8.8506	0.527924	-0.000453	-4.525460	-1.533268	-0.036409
 222	1.1050e-01	8.8746	0.345881	-0.000453	-4.525460	-1.533268	-0.036409
 223	1.1100e-01	8.9548	1.219687	0.002172	21.722210	7.359684	0.174761
 224	1.1150e-01	8.9677	0.855602	-0.000905	-9.050921	-3.066535	-0.072817
 225	1.1200e-01	8.9901	1.110462	0.000634	6.335645	2.146575	0.050972
 226	1.1250e-01	9.0511	1.001236	-0.000272	-2.715276	-0.919961	-0.021845
 227	1.1300e-01	9.0784	0.819193	-0.000453	-4.525460	-1.533268	-0.036409
 228	1.1350e-01	9.1008	1.401730	0.001448	14.481474	4.906456	0.116507
 229	1.1400e-01	9.1730	1.292504	-0.000272	-2.715276	-0.919961	-0.021845
 230	1.1450e-01	9.2019	1.547365	0.000634	6.335645	2.146575	0.050972
 231	1.1500e-01	9.2452	1.510956	-0.000091	-0.905092	-0.306654	-0.007282
 232	1.1550e-01	9.2757	1.328913	-0.000453	-4.525460	-1.533268	-0.036409
 233	1.1600e-01	9.3206	1.911450	0.001448	14.481474	4.906456	0.116507
 234	1.1650e-01	9.3783	1.765816	-0.000362	-3.620368	-1.226614	-0.029127
 235	1.1700e-01	9.4104	1.911450	0.000362	3.620368	1.226614	0.029127
 236	1.1750e-01	9.4120	1.583773	-0.000815	-8.145829	-2.759882	-0.065535
 237	1.1800e-01	9.4922	2.093493	0.001267	12.671289	4.293149	0.101944
 238	1.1850e-01	9.5243	1.947859	-0.000362	-3.620368	-1.226614	-0.029127
 239	1.1900e-01	9.5725	2.057085	0.000272	2.715276	0.919961	0.021845
 240	1.1950e-01	9.6013	1.838633	-0.000543	-5.430553	-1.839921	-0.043690
 241	1.2000e-01	9.6318	2.239127	0.000996	9.956013	3.373189	0.080099
 242	1.2050e-01	9.6912	2.239127	0.000000	0.000000	0.000000	0.000000
 243	1.2100e-01	9.7361	2.639622	0.000996	9.956013	3.373189	0.080099
 244	1.2150e-01	9.7521	2.275536	-0.000905	-9.050921	-3.066535	-0.072817
 245	1.2200e-01	9.8051	2.712439	0.001086	10.861105	3.679842	0.087381
 246	1.2250e-01	9.8484	2.785256	0.000181	1.810184	0.613307	0.014563
 247	1.2300e-01	9.9013	2.858073	0.000181	1.810184	0.613307	0.014563
 248	1.2350e-01	9.9158	2.603213	-0.000634	-6.335645	-2.146575	-0.050972
 249	1.2400e-01	9.9527	2.712439	0.000272	2.715276	0.919961	0.021845
 250	1.2450e-01	10.0329	2.930890	0.000543	5.430553	1.839921	0.043690
 251	1.2500e-01	10.0313	2.748848	0.000453	4.525460	1.533268	-0.036409
 252	1.2550e-01	10.0842	3.331385	0.001448	14.481474	4.906456	0.116507
 253	1.2600e-01	10.1339	3.112933	-0.000543	-5.430553	-1.839921	-0.043690
 254	1.2650e-01	10.1789	3.040116	-0.000181	-1.810184	-0.613307	-0.014563
 255	1.2700e-01	10.2061	3.185750	0.000362	3.620368	1.226614	0.029127
 256	1.2750e-01	10.2430	3.477019	0.000724	7.240737	2.453228	0.058254
 257	1.2800e-01	10.2847	3.586245	0.000272	2.715276	0.919961	0.021845
 258	1.2850e-01	10.3184	3.549836	-0.000091	-0.905092	-0.306654	-0.007282
