»»»»»»»»»»»»»»»»»»»»»»»»»»»»»»»»»»»» Hysteresis ««««««««««««««««««««««««««««««««««««
»»»  Executed Version:	5.48.1
»»»  Vision Version:	5.48.4 (R)
»»»  Vision Compiled:	9/18/24
»»»  Driver Version:	5.47.0
»»»  Windows Version:	Windows 8 or 8.1
»»»  Processor Information:	x86 (AMD or Intel) - 32 Processors
»»»  Tester Name:	PMF21124-494 (100V)
»»»  Tester S/N:	PMF21124-494
»»»  Internal Amp Type:	100V RevK 270k
»»»  Internal Amp S/N:	iAB2-596/K     
»»»  Execution Count:	1
»»»»»»»»»»»»»»»»»»»»»»»»»»»»»»»»»»»»»»»»»»««««««««««««««««««««««««««««««««««««««««««

Stored:	10/2/2025 - 17:12:2
Configured:	10/02/25 12:40:15 PM
Executed:	10/02/25 05:10:20 PM

»»»»»»»»»»»»»»»»»»»»»»»»»»»»»»»»»»» Sample Info ««««««««««««««««««««««««««««««««««««
Sample Name:	Int. Ref. Ferroelectric
Lot Name:	N/A
Wafer Name:	N/A
Die Row/Column:	0/0
Capacitor Number:	0
Sample Area (cm2):	1.00e-04
Sample Thickness (microns):	3.00e-01

Amplifier:	Internal

»»»»»»»»»»»»»»»»»»»»»»»»»»»»»»»»»»» Tester Info «««««««««««««««««««««««««««««««««««
Tester Name:	PMF21124-494 (100V)
Tester Serial Number:	PMF21124-494
Return Signal Amp. Level:	0.02 [Index: 2]

»»»»»»»»»»»»»»»»»»»»»»»»»»»»»»»» Hysteresis Info ««««««««««««««««««««««««««««««««««
Task Name:	Hyst-1
Volts:	20.00
Field:	666.67 (kV/cm)
DCBias:	0.00
DCField:	0.00 (kV/cm)
Hysteresis Period (ms):	5.00e-01
Preset:	Enabled
Preset Delay (ms):	1.00e+03
Profile:	Standard Monopolar

»»»»»»»»»»»»»»»»»»»»»»»»»»»»»»»»»»»»»» Data «««««««««««««««««««««««««««««««««««««««
Points:	1001

Valid Data

Point	Time (ms)	Drive Voltage	Measured Polarization (uC/cm2)	Capacitance (uF)	Normalized Capacitance (uF/cm2)	Dielectric Constant	Instantaneous Current (mA)
   1	0.0000e+00	0.0305	-56.360477	-0.001622	-16.217656	-5.494691	-0.131071
   2	5.0000e-04	0.0674	-57.015832	-0.001622	-16.217656	-5.494691	-0.131071
   3	1.0000e-03	0.1444	-56.578929	0.001081	10.811771	3.663127	0.087381
   4	1.5000e-03	0.1861	-56.688154	-0.000270	-2.702943	-0.915782	-0.021845
   5	2.0000e-03	0.2246	-56.360477	0.000811	8.108828	2.747345	0.065535
   6	2.5000e-03	0.2342	-56.542520	-0.000450	-4.504905	-1.526303	-0.036409
   7	3.0000e-03	0.2775	-56.214843	0.000811	8.108828	2.747345	0.065535
   8	3.5000e-03	0.3032	-56.142026	0.000180	1.801962	0.610521	0.014563
   9	4.0000e-03	0.3674	-55.668714	0.001171	11.712752	3.968388	0.094662
  10	4.5000e-03	0.3962	-55.559488	0.000270	2.702943	0.915782	0.021845
  11	5.0000e-03	0.4347	-55.158994	0.000991	9.910790	3.357867	0.080099
  12	5.5000e-03	0.4861	-55.195403	-0.000090	-0.900981	-0.305261	-0.007282
  13	6.0000e-03	0.5262	-54.649274	0.001351	13.514714	4.578909	0.109226
  14	6.5000e-03	0.5920	-54.212371	0.001081	10.811771	3.663127	0.087381
  15	7.0000e-03	0.6224	-54.030328	0.000450	4.504905	1.526303	0.036409
  16	7.5000e-03	0.6401	-53.374974	0.001622	16.217656	5.494691	0.131071
  17	8.0000e-03	0.7235	-53.374974	0.000000	0.000000	0.000000	0.000000
  18	8.5000e-03	0.7267	-53.047297	0.000811	8.108828	2.747345	0.065535
  19	9.0000e-03	0.7668	-52.428351	0.001532	15.316675	5.189430	0.123789
  20	9.5000e-03	0.8310	-52.646802	-0.000541	-5.405885	-1.831564	-0.043690
  21	1.0000e-02	0.8535	-52.137082	0.001261	12.613733	4.273648	0.101944
  22	1.0500e-02	0.8920	-51.627362	0.001261	12.613733	4.273648	0.101944
  23	1.1000e-02	0.9385	-51.226868	0.000991	9.910790	3.357867	0.080099
  24	1.1500e-02	0.9786	-51.044825	0.000450	4.504905	1.526303	0.036409
  25	1.2000e-02	0.9898	-50.535105	0.001261	12.613733	4.273648	0.101944
  26	1.2500e-02	1.0604	-49.988976	0.001351	13.514714	4.578909	0.109226
  27	1.3000e-02	1.0780	-49.952568	0.000090	0.900981	0.305261	0.007282
  28	1.3500e-02	1.1246	-49.588482	0.000901	9.009809	3.052606	0.072817
  29	1.4000e-02	1.1695	-49.479256	0.000270	2.702943	0.915782	0.021845
  30	1.4500e-02	1.2288	-48.860310	0.001532	15.316675	5.189430	0.123789
  31	1.5000e-02	1.2272	-48.532633	-0.000811	-8.108828	-2.747345	0.065535
  32	1.5500e-02	1.2657	-48.095730	0.001081	10.811771	3.663127	0.087381
  33	1.6000e-02	1.3058	-47.622419	0.001171	11.712752	3.968388	0.094662
  34	1.6500e-02	1.3845	-47.513193	0.000270	2.702943	0.915782	0.021845
  35	1.7000e-02	1.4021	-47.149107	0.000901	9.009809	3.052606	0.072817
  36	1.7500e-02	1.4390	-46.967064	0.000450	4.504905	1.526303	0.036409
  37	1.8000e-02	1.4823	-46.238893	0.001802	18.019618	6.105212	0.145634
  38	1.8500e-02	1.5080	-46.202484	0.000090	0.900981	0.305261	0.007282
  39	1.9000e-02	1.5657	-45.729173	0.001171	11.712752	3.968388	0.094662
  40	1.9500e-02	1.6090	-45.365087	0.000901	9.009809	3.052606	0.072817
  41	2.0000e-02	1.6748	-45.037410	0.000811	8.108828	2.747345	0.065535
  42	2.0500e-02	1.6893	-44.709733	0.000811	8.108828	2.747345	0.065535
  43	2.1000e-02	1.7197	-44.746141	-0.000090	-0.900981	-0.305261	-0.007282
  44	2.1500e-02	1.7550	-44.200012	0.001351	13.514714	4.578909	0.109226
  45	2.2000e-02	1.8112	-43.399024	0.001982	19.821580	6.715733	0.160198
  46	2.2500e-02	1.8272	-43.180572	0.000541	5.405885	1.831564	0.043690
  47	2.3000e-02	1.9122	-43.216981	-0.000090	-0.900981	-0.305261	-0.007282
  48	2.3500e-02	1.9347	-42.488809	0.001802	18.019618	6.105212	0.145634
  49	2.4000e-02	1.9636	-42.343175	0.000360	3.603924	1.221042	0.029127
  50	2.4500e-02	2.0181	-41.979089	0.000901	9.009809	3.052606	0.072817
  51	2.5000e-02	2.0598	-41.833455	0.000360	3.603924	1.221042	0.029127
  52	2.5500e-02	2.0823	-41.542186	0.000721	7.207847	2.442085	0.058254
  53	2.6000e-02	2.1256	-41.214509	0.000811	8.108828	2.747345	0.065535
  54	2.6500e-02	2.1609	-41.178101	0.000090	0.900981	0.305261	0.007282
  55	2.7000e-02	2.2138	-40.522746	0.001622	16.217656	5.494691	0.131071
  56	2.7500e-02	2.2459	-40.231478	0.000721	7.207847	2.442085	0.058254
  57	2.8000e-02	2.3149	-39.758166	0.001171	11.712752	3.968388	0.094662
  58	2.8500e-02	2.3582	-39.503306	0.000631	6.306866	2.136824	0.050972
  59	2.9000e-02	2.3582	-39.175629	-0.000811	-8.108828	-2.747345	0.065535
  60	2.9500e-02	2.4063	-38.920769	0.000631	6.306866	2.136824	0.050972
  61	3.0000e-02	2.4497	-38.702317	0.000541	5.405885	1.831564	0.043690
  62	3.0500e-02	2.4753	-38.629500	0.000180	1.801962	0.610521	0.014563
  63	3.1000e-02	2.5235	-37.646469	0.002433	24.326484	8.242036	0.196606
  64	3.1500e-02	2.5588	-37.755694	-0.000270	-2.702943	-0.915782	-0.021845
  65	3.2000e-02	2.6053	-37.646469	0.000270	2.702943	0.915782	0.021845
  66	3.2500e-02	2.6454	-37.063931	0.001442	14.415694	4.884169	0.116507
  67	3.3000e-02	2.6775	-36.845480	0.000541	5.405885	1.831564	0.043690
  68	3.3500e-02	2.7464	-36.444986	0.000991	9.910790	3.357867	0.080099
  69	3.4000e-02	2.7593	-36.299351	0.000360	3.603924	1.221042	0.029127
  70	3.4500e-02	2.8299	-36.044491	0.000631	6.306866	2.136824	0.050972
  71	3.5000e-02	2.8234	-35.643997	-0.000991	-9.910790	-3.357867	0.080099
  72	3.5500e-02	2.8764	-35.389137	0.000631	6.306866	2.136824	0.050972
  73	3.6000e-02	2.9823	-34.551740	0.002072	20.722561	7.020994	0.167479
  74	3.6500e-02	2.9726	-34.843008	0.000721	7.207847	2.442085	-0.058254
  75	3.7000e-02	2.9983	-34.588148	0.000631	6.306866	2.136824	0.050972
  76	3.7500e-02	3.0480	-33.859977	0.001802	18.019618	6.105212	0.145634
  77	3.8000e-02	3.0833	-33.823568	0.000090	0.900981	0.305261	0.007282
  78	3.8500e-02	3.1218	-33.605117	0.000541	5.405885	1.831564	0.043690
  79	3.9000e-02	3.1395	-33.459482	0.000360	3.603924	1.221042	0.029127
  80	3.9500e-02	3.1892	-32.913354	0.001351	13.514714	4.578909	0.109226
  81	4.0000e-02	3.2277	-32.257999	0.001622	16.217656	5.494691	0.131071
  82	4.0500e-02	3.2774	-32.476451	-0.000541	-5.405885	-1.831564	-0.043690
  83	4.1000e-02	3.3384	-32.476451	0.000000	0.000000	0.000000	0.000000
  84	4.1500e-02	3.3705	-31.311376	0.002883	28.831389	9.768339	0.233015
  85	4.2000e-02	3.4315	-31.493419	-0.000450	-4.504905	-1.526303	-0.036409
  86	4.2500e-02	3.4700	-31.493419	0.000000	0.000000	0.000000	0.000000
  87	4.3000e-02	3.5020	-31.056516	0.001081	10.811771	3.663127	0.087381
  88	4.3500e-02	3.5309	-30.510387	0.001351	13.514714	4.578909	0.109226
  89	4.4000e-02	3.5678	-30.619613	-0.000270	-2.702943	-0.915782	-0.021845
  90	4.4500e-02	3.6063	-30.255527	0.000901	9.009809	3.052606	0.072817
  91	4.5000e-02	3.6352	-29.672990	0.001442	14.415694	4.884169	0.116507
  92	4.5500e-02	3.6849	-29.345313	0.000811	8.108828	2.747345	0.065535
  93	4.6000e-02	3.7539	-29.163270	0.000450	4.504905	1.526303	0.036409
  94	4.6500e-02	3.7844	-28.726367	0.001081	10.811771	3.663127	0.087381
  95	4.7000e-02	3.8197	-28.835593	-0.000270	-2.702943	-0.915782	-0.021845
  96	4.7500e-02	3.8421	-28.180239	0.001622	16.217656	5.494691	0.131071
  97	4.8000e-02	3.8806	-27.998196	0.000450	4.504905	1.526303	0.036409
  98	4.8500e-02	3.9256	-27.670518	0.000811	8.108828	2.747345	0.065535
  99	4.9000e-02	3.9913	-27.561293	0.000270	2.702943	0.915782	0.021845
 100	4.9500e-02	4.0106	-27.197207	0.000901	9.009809	3.052606	0.072817
 101	5.0000e-02	4.0491	-26.942347	0.000631	6.306866	2.136824	0.050972
 102	5.0500e-02	4.1165	-26.760304	0.000450	4.504905	1.526303	0.036409
 103	5.1000e-02	4.1213	-26.505444	0.000631	6.306866	2.136824	0.050972
 104	5.1500e-02	4.1983	-25.922907	0.001442	14.415694	4.884169	0.116507
 105	5.2000e-02	4.1999	-26.323401	-0.000991	-9.910790	-3.357867	-0.080099
 106	5.2500e-02	4.2272	-25.886498	0.001081	10.811771	3.663127	0.087381
 107	5.3000e-02	4.2817	-25.231144	0.001622	16.217656	5.494691	0.131071
 108	5.3500e-02	4.3234	-24.830649	0.000991	9.910790	3.357867	0.080099
 109	5.4000e-02	4.3667	-24.903467	-0.000180	-1.801962	-0.610521	-0.014563
 110	5.4500e-02	4.3988	-24.102478	0.001982	19.821580	6.715733	0.160198
 111	5.5000e-02	4.4389	-24.284521	-0.000450	-4.504905	-1.526303	-0.036409
 112	5.5500e-02	4.5175	-24.102478	0.000450	4.504905	1.526303	0.036409
 113	5.6000e-02	4.5416	-23.228672	0.002162	21.623542	7.326254	0.174761
 114	5.6500e-02	4.5801	-23.483532	-0.000631	-6.306866	-2.136824	-0.050972
 115	5.7000e-02	4.6266	-23.155855	0.000811	8.108828	2.747345	0.065535
 116	5.7500e-02	4.6507	-23.010221	0.000360	3.603924	1.221042	0.029127
 117	5.8000e-02	4.7213	-22.682543	0.000811	8.108828	2.747345	0.065535
 118	5.8500e-02	4.7533	-22.573318	0.000270	2.702943	0.915782	0.021845
 119	5.9000e-02	4.7694	-21.881555	0.001712	17.118637	5.799951	0.138353
 120	5.9500e-02	4.7870	-21.845146	0.000090	0.900981	0.305261	0.007282
 121	6.0000e-02	4.8111	-21.735920	0.000270	2.702943	0.915782	0.021845
 122	6.0500e-02	4.8705	-21.335426	0.000991	9.910790	3.357867	0.080099
 123	6.1000e-02	4.9378	-21.007749	0.000811	8.108828	2.747345	0.065535
 124	6.1500e-02	4.9587	-20.643663	0.000901	9.009809	3.052606	0.072817
 125	6.2000e-02	5.0180	-20.425212	0.000541	5.405885	1.831564	0.043690
 126	6.2500e-02	5.0405	-19.988309	0.001081	10.811771	3.663127	0.087381
 127	6.3000e-02	5.0806	-20.097534	-0.000270	-2.702943	-0.915782	-0.021845
 128	6.3500e-02	5.1351	-19.951900	0.000360	3.603924	1.221042	0.029127
 129	6.4000e-02	5.1801	-19.150911	0.001982	19.821580	6.715733	0.160198
 130	6.4500e-02	5.2089	-19.041686	0.000270	2.702943	0.915782	0.021845
 131	6.5000e-02	5.2555	-19.114503	-0.000180	-1.801962	-0.610521	-0.014563
 132	6.5500e-02	5.2892	-18.750417	0.000901	9.009809	3.052606	0.072817
 133	6.6000e-02	5.3052	-18.932460	-0.000450	-4.504905	-1.526303	-0.036409
 134	6.6500e-02	5.3982	-18.131471	0.001982	19.821580	6.715733	0.160198
 135	6.7000e-02	5.4111	-17.767386	0.000901	9.009809	3.052606	0.072817
 136	6.7500e-02	5.4592	-17.658160	0.000270	2.702943	0.915782	0.021845
 137	6.8000e-02	5.4752	-17.548934	0.000270	2.702943	0.915782	0.021845
 138	6.8500e-02	5.5137	-17.002805	0.001351	13.514714	4.578909	0.109226
 139	6.9000e-02	5.5635	-17.002805	0.000000	0.000000	0.000000	0.000000
 140	6.9500e-02	5.6148	-16.711537	0.000721	7.207847	2.442085	0.058254
 141	7.0000e-02	5.6453	-16.274634	0.001081	10.811771	3.663127	0.087381
 142	7.0500e-02	5.6790	-16.274634	0.000000	0.000000	0.000000	0.000000
 143	7.1000e-02	5.7239	-15.983365	0.000721	7.207847	2.442085	0.058254
 144	7.1500e-02	5.7656	-15.619280	0.000901	9.009809	3.052606	0.072817
 145	7.2000e-02	5.7897	-15.437237	0.000450	4.504905	1.526303	0.036409
 146	7.2500e-02	5.8490	-15.328011	0.000270	2.702943	0.915782	0.021845
 147	7.3000e-02	5.8715	-15.182377	0.000360	3.603924	1.221042	0.029127
 148	7.3500e-02	5.9228	-14.745474	0.001081	10.811771	3.663127	0.087381
 149	7.4000e-02	5.9565	-14.636248	0.000270	2.702943	0.915782	0.021845
 150	7.4500e-02	6.0079	-14.017302	0.001532	15.316675	5.189430	0.123789
 151	7.5000e-02	6.0351	-13.980894	0.000090	0.900981	0.305261	0.007282
 152	7.5500e-02	6.1057	-13.908076	0.000180	1.801962	0.610521	0.014563
 153	7.6000e-02	6.1153	-13.507582	0.000991	9.910790	3.357867	0.080099
 154	7.6500e-02	6.1554	-13.252722	0.000631	6.306866	2.136824	0.050972
 155	7.7000e-02	6.2004	-12.925045	0.000811	8.108828	2.747345	0.065535
 156	7.7500e-02	6.2437	-12.560959	0.000901	9.009809	3.052606	0.072817
 157	7.8000e-02	6.2870	-12.925045	-0.000901	-9.009809	-3.052606	-0.072817
 158	7.8500e-02	6.3367	-12.306099	0.001532	15.316675	5.189430	0.123789
 159	7.9000e-02	6.3576	-11.978422	0.000811	8.108828	2.747345	0.065535
 160	7.9500e-02	6.4121	-11.577927	0.000991	9.910790	3.357867	0.080099
 161	8.0000e-02	6.4458	-11.650745	-0.000180	-1.801962	-0.610521	-0.014563
 162	8.0500e-02	6.4923	-11.250250	0.000991	9.910790	3.357867	0.080099
 163	8.1000e-02	6.4891	-11.177433	-0.000180	-1.801962	-0.610521	0.014563
 164	8.1500e-02	6.5677	-10.631304	0.001351	13.514714	4.578909	0.109226
 165	8.2000e-02	6.5998	-10.522079	0.000270	2.702943	0.915782	0.021845
 166	8.2500e-02	6.6271	-10.230810	0.000721	7.207847	2.442085	0.058254
 167	8.3000e-02	6.6624	-10.194402	0.000090	0.900981	0.305261	0.007282
 168	8.3500e-02	6.7282	-9.866724	0.000811	8.108828	2.747345	0.065535
 169	8.4000e-02	6.7875	-9.539047	0.000811	8.108828	2.747345	0.065535
 170	8.4500e-02	6.7859	-9.102144	-0.001081	-10.811771	-3.663127	0.087381
 171	8.5000e-02	6.8340	-8.810876	0.000721	7.207847	2.442085	0.058254
 172	8.5500e-02	6.8709	-8.701650	0.000270	2.702943	0.915782	0.021845
 173	8.6000e-02	6.9383	-8.920101	-0.000541	-5.405885	-1.831564	-0.043690
 174	8.6500e-02	6.9784	-8.228338	0.001712	17.118637	5.799951	0.138353
 175	8.7000e-02	7.0137	-8.119113	0.000270	2.702943	0.915782	0.021845
 176	8.7500e-02	7.0522	-7.791435	0.000811	8.108828	2.747345	0.065535
 177	8.8000e-02	7.1100	-7.755027	0.000090	0.900981	0.305261	0.007282
 178	8.8500e-02	7.1324	-7.390941	0.000901	9.009809	3.052606	0.072817
 179	8.9000e-02	7.1661	-7.172490	0.000541	5.405885	1.831564	0.043690
 180	8.9500e-02	7.2190	-6.990447	0.000450	4.504905	1.526303	0.036409
 181	9.0000e-02	7.2463	-6.553544	0.001081	10.811771	3.663127	0.087381
 182	9.0500e-02	7.2704	-6.480727	0.000180	1.801962	0.610521	0.014563
 183	9.1000e-02	7.3169	-6.225867	0.000631	6.306866	2.136824	0.050972
 184	9.1500e-02	7.3650	-6.007415	0.000541	5.405885	1.831564	0.043690
 185	9.2000e-02	7.4051	-6.043824	-0.000090	-0.900981	-0.305261	-0.007282
 186	9.2500e-02	7.4420	-5.643329	0.000991	9.910790	3.357867	0.080099
 187	9.3000e-02	7.5142	-5.461287	0.000450	4.504905	1.526303	0.036409
 188	9.3500e-02	7.5206	-5.133609	0.000811	8.108828	2.747345	0.065535
 189	9.4000e-02	7.5463	-4.878749	0.000631	6.306866	2.136824	0.050972
 190	9.4500e-02	7.6394	-4.915158	-0.000090	-0.900981	-0.305261	-0.007282
 191	9.5000e-02	7.6378	-4.332621	-0.001442	-14.415694	-4.884169	0.116507
 192	9.5500e-02	7.6714	-4.259804	0.000180	1.801962	0.610521	0.014563
 193	9.6000e-02	7.7164	-4.004943	0.000631	6.306866	2.136824	0.050972
 194	9.6500e-02	7.7372	-3.859309	0.000360	3.603924	1.221042	0.029127
 195	9.7000e-02	7.8158	-3.604449	0.000631	6.306866	2.136824	0.050972
 196	9.7500e-02	7.8431	-3.094729	0.001261	12.613733	4.273648	0.101944
 197	9.8000e-02	7.8960	-3.167546	-0.000180	-1.801962	-0.610521	-0.014563
 198	9.8500e-02	7.9137	-2.949095	0.000541	5.405885	1.831564	0.043690
 199	9.9000e-02	7.9698	-2.148106	0.001982	19.821580	6.715733	0.160198
 200	9.9500e-02	8.0484	-2.548600	-0.000991	-9.910790	-3.357867	-0.080099
 201	1.0000e-01	8.0549	-1.966063	0.001442	14.415694	4.884169	0.116507
 202	1.0050e-01	8.0853	-2.184515	-0.000541	-5.405885	-1.831564	-0.043690
 203	1.0100e-01	8.1222	-1.529160	0.001622	16.217656	5.494691	0.131071
 204	1.0150e-01	8.1671	-1.601977	-0.000180	-1.801962	-0.610521	-0.014563
 205	1.0200e-01	8.2008	-1.274300	0.000811	8.108828	2.747345	0.065535
 206	1.0250e-01	8.2329	-0.946623	0.000811	8.108828	2.747345	0.065535
 207	1.0300e-01	8.2875	-0.509720	0.001081	10.811771	3.663127	0.087381
 208	1.0350e-01	8.3436	-0.582537	-0.000180	-1.801962	-0.610521	-0.014563
 209	1.0400e-01	8.3500	-0.254860	0.000811	8.108828	2.747345	0.065535
 210	1.0450e-01	8.3998	-0.364086	-0.000270	-2.702943	-0.915782	-0.021845
 211	1.0500e-01	8.4415	0.436903	0.001982	19.821580	6.715733	0.160198
 212	1.0550e-01	8.4880	0.218451	-0.000541	-5.405885	-1.831564	-0.043690
 213	1.0600e-01	8.5040	0.400494	0.000450	4.504905	1.526303	0.036409
 214	1.0650e-01	8.5586	0.582537	0.000450	4.504905	1.526303	0.036409
 215	1.0700e-01	8.5842	1.274300	0.001712	17.118637	5.799951	0.138353
 216	1.0750e-01	8.6468	1.092257	-0.000450	-4.504905	-1.526303	-0.036409
 217	1.0800e-01	8.6949	1.529160	0.001081	10.811771	3.663127	0.087381
 218	1.0850e-01	8.7367	1.638386	0.000270	2.702943	0.915782	0.021845
 219	1.0900e-01	8.7527	1.966063	0.000811	8.108828	2.747345	0.065535
 220	1.0950e-01	8.8121	2.330149	0.000901	9.009809	3.052606	0.072817
 221	1.1000e-01	8.8586	1.966063	-0.000901	-9.009809	-3.052606	-0.072817
 222	1.1050e-01	8.8826	2.512192	0.001351	13.514714	4.578909	0.109226
 223	1.1100e-01	8.9308	2.439375	-0.000180	-1.801962	-0.610521	-0.014563
 224	1.1150e-01	8.9773	2.949095	0.001261	12.613733	4.273648	0.101944
 225	1.1200e-01	9.0286	3.240363	0.000721	7.207847	2.442085	0.058254
 226	1.1250e-01	9.0639	3.276772	0.000090	0.900981	0.305261	0.007282
 227	1.1300e-01	9.0687	3.604449	0.000811	8.108828	2.747345	0.065535
 228	1.1350e-01	9.1457	3.786492	0.000450	4.504905	1.526303	0.036409
 229	1.1400e-01	9.1794	3.713675	-0.000180	-1.801962	-0.610521	-0.014563
 230	1.1450e-01	9.2227	4.878749	0.002883	28.831389	9.768339	0.233015
 231	1.1500e-01	9.2548	4.332621	-0.001351	-13.514714	-4.578909	-0.109226
 232	1.1550e-01	9.2805	5.024384	0.001712	17.118637	5.799951	0.138353
 233	1.1600e-01	9.3142	4.951566	-0.000180	-1.801962	-0.610521	-0.014563
 234	1.1650e-01	9.3687	5.060792	0.000270	2.702943	0.915782	0.021845
 235	1.1700e-01	9.4136	5.534104	0.001171	11.712752	3.968388	0.094662
 236	1.1750e-01	9.4666	5.315652	-0.000541	-5.405885	-1.831564	-0.043690
 237	1.1800e-01	9.4618	5.716147	-0.000991	-9.910790	-3.357867	0.080099
 238	1.1850e-01	9.5179	6.116641	0.000991	9.910790	3.357867	0.080099
 239	1.1900e-01	9.5548	6.080232	-0.000090	-0.900981	-0.305261	-0.007282
 240	1.1950e-01	9.6061	6.298684	0.000541	5.405885	1.831564	0.043690
 241	1.2000e-01	9.6414	6.517135	0.000541	5.405885	1.831564	0.043690
 242	1.2050e-01	9.6719	6.844812	0.000811	8.108828	2.747345	0.065535
 243	1.2100e-01	9.7217	6.954038	0.000270	2.702943	0.915782	0.021845
 244	1.2150e-01	9.7329	7.245307	0.000721	7.207847	2.442085	0.058254
 245	1.2200e-01	9.8147	7.536575	0.000721	7.207847	2.442085	0.058254
 246	1.2250e-01	9.8548	7.609393	0.000180	1.801962	0.610521	0.014563
 247	1.2300e-01	9.9093	8.009887	0.000991	9.910790	3.357867	0.080099
 248	1.2350e-01	9.9318	8.337564	0.000811	8.108828	2.747345	0.065535
 249	1.2400e-01	9.9575	8.373973	0.000090	0.900981	0.305261	0.007282
 250	1.2450e-01	10.0072	8.592424	0.000541	5.405885	1.831564	0.043690
 251	1.2500e-01	10.0200	8.847284	0.000631	6.306866	2.136824	0.050972
 252	1.2550e-01	10.1002	8.774467	-0.000180	-1.801962	-0.610521	-0.014563
 253	1.2600e-01	10.1323	9.174961	0.000991	9.910790	3.357867	0.080099
 254	1.2650e-01	10.1644	9.284187	0.000270	2.702943	0.915782	0.021845
 255	1.2700e-01	10.1933	9.684681	0.000991	9.910790	3.357867	0.080099
 256	1.2750e-01	10.2302	9.757499	0.000180	1.801962	0.610521	0.014563
 257	1.2800e-01	10.2751	10.085176	0.000811	8.108828	2.747345	0.065535
 258	1.2850e-01	10.3425	10.230810	0.000360	3.603924	1.221042	0.029127
 259	1.2900e-01	10.3682	10.412853	0.000450	4.504905	1.526303	0.036409
 260	1.2950e-01	10.4291	10.558487	0.000360	3.603924	1.221042	0.029127
