»»»»»»»»»»»»»»»»»»»»»»»»»»»»»»»»»»»» Hysteresis ««««««««««««««««««««««««««««««««««««
»»»  Executed Version:	5.48.1
»»»  Vision Version:	5.48.4 (R)
»»»  Vision Compiled:	9/18/24
»»»  Driver Version:	5.47.0
»»»  Windows Version:	Windows 8 or 8.1
»»»  Processor Information:	x86 (AMD or Intel) - 32 Processors
»»»  Tester Name:	PMF21124-494 (100V)
»»»  Tester S/N:	PMF21124-494
»»»  Internal Amp Type:	100V RevK 270k
»»»  Internal Amp S/N:	iAB2-596/K     
»»»  Execution Count:	1
»»»»»»»»»»»»»»»»»»»»»»»»»»»»»»»»»»»»»»»»»»««««««««««««««««««««««««««««««««««««««««««

Stored:	10/2/2025 - 17:24:54
Configured:	10/02/25 12:40:15 PM
Executed:	10/02/25 05:24:12 PM

»»»»»»»»»»»»»»»»»»»»»»»»»»»»»»»»»»» Sample Info ««««««««««««««««««««««««««««««««««««
Sample Name:	Int. Ref. Ferroelectric
Lot Name:	N/A
Wafer Name:	N/A
Die Row/Column:	0/0
Capacitor Number:	0
Sample Area (cm2):	1.00e-04
Sample Thickness (microns):	3.00e-01

Amplifier:	Internal

»»»»»»»»»»»»»»»»»»»»»»»»»»»»»»»»»»» Tester Info «««««««««««««««««««««««««««««««««««
Tester Name:	PMF21124-494 (100V)
Tester Serial Number:	PMF21124-494
Return Signal Amp. Level:	1.9 [Index: 2]

»»»»»»»»»»»»»»»»»»»»»»»»»»»»»»»» Hysteresis Info ««««««««««««««««««««««««««««««««««
Task Name:	Hyst-1
Volts:	20.00
Field:	666.67 (kV/cm)
DCBias:	0.00
DCField:	0.00 (kV/cm)
Hysteresis Period (ms):	1.00e+02
Preset:	Enabled
Preset Delay (ms):	1.00e+03
Profile:	Standard Monopolar

»»»»»»»»»»»»»»»»»»»»»»»»»»»»»»»»»»»»»» Data «««««««««««««««««««««««««««««««««««««««
Points:	2001

Valid Data

Point	Time (ms)	Drive Voltage	Measured Polarization (uC/cm2)	Capacitance (uF)	Normalized Capacitance (uF/cm2)	Dielectric Constant	Instantaneous Current (mA)
   1	0.0000e+00	0.0209	-15.224428	0.000084	0.841924	0.285252	0.000037
   2	5.0000e-02	0.0321	-15.205690	0.000084	0.841924	0.285252	0.000037
   3	1.0000e-01	0.0770	-15.166993	0.000174	1.738757	0.589107	0.000077
   4	1.5000e-01	0.0866	-15.130332	0.000165	1.647243	0.558101	0.000073
   5	2.0000e-01	0.0963	-15.086339	0.000198	1.976692	0.669721	0.000088
   6	2.5000e-01	0.0995	-15.044382	0.000189	1.885178	0.638716	0.000084
   7	3.0000e-01	0.1444	-15.002426	0.000189	1.885178	0.638716	0.000084
   8	3.5000e-01	0.1684	-14.959655	0.000192	1.921784	0.651118	0.000086
   9	4.0000e-01	0.1781	-14.918514	0.000185	1.848573	0.626313	0.000082
  10	4.5000e-01	0.1957	-14.877372	0.000185	1.848573	0.626313	0.000082
  11	5.0000e-01	0.2326	-14.838674	0.000174	1.738757	0.589107	0.000077
  12	5.5000e-01	0.2406	-14.791423	0.000212	2.123113	0.719330	0.000095
  13	6.0000e-01	0.2519	-14.750688	0.000183	1.830270	0.620112	0.000081
  14	6.5000e-01	0.2807	-14.711991	0.000174	1.738757	0.589107	0.000077
  15	7.0000e-01	0.3000	-14.667998	0.000198	1.976692	0.669721	0.000088
  16	7.5000e-01	0.3208	-14.626856	0.000185	1.848573	0.626313	0.000082
  17	8.0000e-01	0.3321	-14.588159	0.000174	1.738757	0.589107	0.000077
  18	8.5000e-01	0.3449	-14.542944	0.000203	2.031600	0.688325	0.000090
  19	9.0000e-01	0.3914	-14.505876	0.000167	1.665546	0.564302	0.000074
  20	9.5000e-01	0.4011	-14.465141	0.000183	1.830270	0.620112	0.000081
  21	1.0000e+00	0.4171	-14.425629	0.000178	1.775362	0.601509	0.000079
  22	1.0500e+00	0.4460	-14.386524	0.000176	1.757059	0.595308	0.000078
  23	1.1000e+00	0.4636	-14.347827	0.000174	1.738757	0.589107	0.000077
  24	1.1500e+00	0.4732	-14.302612	0.000203	2.031600	0.688325	0.000090
  25	1.2000e+00	0.4989	-14.265136	0.000168	1.683848	0.570503	0.000075
  26	1.2500e+00	0.5486	-14.226031	0.000176	1.757059	0.595308	0.000078
  27	1.3000e+00	0.5438	-14.187334	-0.000174	-1.738757	-0.589107	0.000077
  28	1.3500e+00	0.5519	-14.147414	0.000179	1.793665	0.607710	0.000080
  29	1.4000e+00	0.6032	-14.110346	0.000167	1.665546	0.564302	0.000074
  30	1.4500e+00	0.6208	-14.070834	0.000178	1.775362	0.601509	0.000079
  31	1.5000e+00	0.6032	-14.032951	-0.000170	-1.702151	-0.576704	0.000076
  32	1.5500e+00	0.6321	-13.994253	0.000174	1.738757	0.589107	0.000077
  33	1.6000e+00	0.6417	-13.948631	0.000205	2.049903	0.694526	0.000091
  34	1.6500e+00	0.6642	-13.909526	0.000176	1.757059	0.595308	0.000078
  35	1.7000e+00	0.6978	-13.868385	0.000185	1.848573	0.626313	0.000082
  36	1.7500e+00	0.7347	-13.830909	0.000168	1.683848	0.570503	0.000075
  37	1.8000e+00	0.7347	-13.796285	-0.000156	-1.555730	-0.527095	0.000069
  38	1.8500e+00	0.7716	-13.754329	0.000189	1.885178	0.638716	0.000084
  39	1.9000e+00	0.8021	-13.717260	0.000167	1.665546	0.564302	0.000074
  40	1.9500e+00	0.7861	-13.680192	-0.000167	-1.665546	-0.564302	0.000074
  41	2.0000e+00	0.8021	-13.642309	0.000170	1.702151	0.576704	0.000076
  42	2.0500e+00	0.8406	-13.602390	0.000179	1.793665	0.607710	0.000080
  43	2.1000e+00	0.8470	-13.561248	0.000185	1.848573	0.626313	0.000082
  44	2.1500e+00	0.8631	-13.521736	0.000178	1.775362	0.601509	0.000079
  45	2.2000e+00	0.9128	-13.483038	0.000174	1.738757	0.589107	0.000077
  46	2.2500e+00	0.9433	-13.450858	0.000145	1.445913	0.489889	0.000064
  47	2.3000e+00	0.9433	-13.407273	-0.000196	-1.958389	-0.663520	0.000087
  48	2.3500e+00	0.9593	-13.375093	0.000145	1.445913	0.489889	0.000064
  49	2.4000e+00	0.9722	-13.331507	0.000196	1.958389	0.663520	0.000087
  50	2.4500e+00	1.0107	-13.293624	0.000170	1.702151	0.576704	0.000076
  51	2.5000e+00	1.0171	-13.254112	0.000178	1.775362	0.601509	0.000079
  52	2.5500e+00	1.0395	-13.217451	0.000165	1.647243	0.558101	0.000073
  53	2.6000e+00	1.0700	-13.181198	0.000163	1.628940	0.551900	0.000073
  54	2.6500e+00	1.0764	-13.141685	0.000178	1.775362	0.601509	0.000079
  55	2.7000e+00	1.0909	-13.104617	0.000167	1.665546	0.564302	0.000074
  56	2.7500e+00	1.1149	-13.066327	0.000172	1.720454	0.582906	0.000077
  57	2.8000e+00	1.1422	-13.027629	0.000174	1.738757	0.589107	0.000077
  58	2.8500e+00	1.1550	-12.992191	0.000159	1.592335	0.539498	0.000071
  59	2.9000e+00	1.1887	-12.954308	0.000170	1.702151	0.576704	0.000076
  60	2.9500e+00	1.2160	-12.918462	0.000161	1.610638	0.545699	0.000072
  61	3.0000e+00	1.2128	-12.877320	-0.000185	-1.848573	-0.626313	0.000082
  62	3.0500e+00	1.2369	-12.842289	0.000157	1.574032	0.533297	0.000070
  63	3.1000e+00	1.2609	-12.809294	0.000148	1.482519	0.502291	0.000066
  64	3.1500e+00	1.2641	-12.769782	0.000178	1.775362	0.601509	0.000079
  65	3.2000e+00	1.3299	-12.733121	0.000165	1.647243	0.558101	0.000073
  66	3.2500e+00	1.3235	-12.694423	-0.000174	-1.738757	-0.589107	0.000077
  67	3.3000e+00	1.3427	-12.661021	0.000150	1.500821	0.508492	0.000067
  68	3.3500e+00	1.3748	-12.623138	0.000170	1.702151	0.576704	0.000076
  69	3.4000e+00	1.3716	-12.586070	-0.000167	-1.665546	-0.564302	0.000074
  70	3.4500e+00	1.4117	-12.548187	0.000170	1.702151	0.576704	0.000076
  71	3.5000e+00	1.4374	-12.507860	0.000181	1.811967	0.613911	0.000081
  72	3.5500e+00	1.4518	-12.476495	0.000141	1.409308	0.477486	0.000063
  73	3.6000e+00	1.4807	-12.439427	0.000167	1.665546	0.564302	0.000074
  74	3.6500e+00	1.4951	-12.403173	0.000163	1.628940	0.551900	0.000073
  75	3.7000e+00	1.5128	-12.369364	0.000152	1.519124	0.514693	0.000068
  76	3.7500e+00	1.5353	-12.325778	0.000196	1.958389	0.663520	0.000087
  77	3.8000e+00	1.5545	-12.289525	0.000163	1.628940	0.551900	0.000073
  78	3.8500e+00	1.5465	-12.255308	-0.000154	-1.537427	-0.520894	0.000068
  79	3.9000e+00	1.6010	-12.223535	0.000143	1.427611	0.483688	0.000064
  80	3.9500e+00	1.6123	-12.184838	0.000174	1.738757	0.589107	0.000077
  81	4.0000e+00	1.6058	-12.147770	-0.000167	-1.665546	-0.564302	0.000074
  82	4.0500e+00	1.6540	-12.115182	0.000146	1.464216	0.496090	0.000065
  83	4.1000e+00	1.6668	-12.082187	0.000148	1.482519	0.502291	0.000066
  84	4.1500e+00	1.6860	-12.045119	0.000167	1.665546	0.564302	0.000074
  85	4.2000e+00	1.7069	-12.005200	0.000179	1.793665	0.607710	0.000080
  86	4.2500e+00	1.7278	-11.970983	0.000154	1.537427	0.520894	0.000068
  87	4.3000e+00	1.7197	-11.933507	-0.000168	-1.683848	-0.570503	0.000075
  88	4.3500e+00	1.7823	-11.902142	0.000141	1.409308	0.477486	0.000063
  89	4.4000e+00	1.7887	-11.868333	0.000152	1.519124	0.514693	0.000068
  90	4.4500e+00	1.8160	-11.832079	0.000163	1.628940	0.551900	0.000073
  91	4.5000e+00	1.8336	-11.797455	0.000156	1.555730	0.527095	0.000069
  92	4.5500e+00	1.8417	-11.759572	0.000170	1.702151	0.576704	0.000076
  93	4.6000e+00	1.8770	-11.724541	0.000157	1.574032	0.533297	0.000070
  94	4.6500e+00	1.8898	-11.693583	0.000139	1.391005	0.471285	0.000062
  95	4.7000e+00	1.9026	-11.660995	0.000146	1.464216	0.496090	0.000065
  96	4.7500e+00	1.9171	-11.627186	0.000152	1.519124	0.514693	0.000068
  97	4.8000e+00	1.9395	-11.588488	0.000174	1.738757	0.589107	0.000077
  98	4.8500e+00	1.9764	-11.555086	0.000150	1.500821	0.508492	0.000067
  99	4.9000e+00	2.0021	-11.521684	0.000150	1.500821	0.508492	0.000067
 100	4.9500e+00	1.9973	-11.483801	-0.000170	-1.702151	-0.576704	0.000076
 101	5.0000e+00	2.0229	-11.454880	0.000130	1.299492	0.440280	0.000058
 102	5.0500e+00	2.0486	-11.419034	0.000161	1.610638	0.545699	0.000072
 103	5.1000e+00	2.0646	-11.384817	0.000154	1.537427	0.520894	0.000068
 104	5.1500e+00	2.0999	-11.351822	0.000148	1.482519	0.502291	0.000066
 105	5.2000e+00	2.1112	-11.316383	0.000159	1.592335	0.539498	0.000071
 106	5.2500e+00	2.1144	-11.280945	0.000159	1.592335	0.539498	0.000071
 107	5.3000e+00	2.1481	-11.250394	0.000137	1.372703	0.465084	0.000061
 108	5.3500e+00	2.1545	-11.216584	0.000152	1.519124	0.514693	0.000068
 109	5.4000e+00	2.1946	-11.181146	0.000159	1.592335	0.539498	0.000071
 110	5.4500e+00	2.1962	-11.144892	0.000163	1.628940	0.551900	0.000073
 111	5.5000e+00	2.2251	-11.114342	0.000137	1.372703	0.465084	0.000061
 112	5.5500e+00	2.2203	-11.082976	-0.000141	-1.409308	-0.477486	0.000063
 113	5.6000e+00	2.2620	-11.040613	0.000190	1.903481	0.644917	0.000085
 114	5.6500e+00	2.2780	-11.011284	0.000132	1.317794	0.446481	0.000059
 115	5.7000e+00	2.3021	-10.978289	0.000148	1.482519	0.502291	0.000066
 116	5.7500e+00	2.3213	-10.947738	0.000137	1.372703	0.465084	0.000061
 117	5.8000e+00	2.3454	-10.912300	0.000159	1.592335	0.539498	0.000071
 118	5.8500e+00	2.3566	-10.876861	0.000159	1.592335	0.539498	0.000071
 119	5.9000e+00	2.3823	-10.843866	0.000148	1.482519	0.502291	0.000066
 120	5.9500e+00	2.4063	-10.815759	0.000126	1.262886	0.427877	0.000056
 121	6.0000e+00	2.4015	-10.775025	-0.000183	-1.830270	-0.620112	0.000081
 122	6.0500e+00	2.4449	-10.744474	0.000137	1.372703	0.465084	0.000061
 123	6.1000e+00	2.4769	-10.710665	0.000152	1.519124	0.514693	0.000068
 124	6.1500e+00	2.4673	-10.680929	-0.000134	-1.336097	-0.452682	0.000059
 125	6.2000e+00	2.4898	-10.649564	0.000141	1.409308	0.477486	0.000063
 126	6.2500e+00	2.5202	-10.614940	0.000156	1.555730	0.527095	0.000069
 127	6.3000e+00	2.5427	-10.585204	0.000134	1.336097	0.452682	0.000059
 128	6.3500e+00	2.5636	-10.553838	0.000141	1.409308	0.477486	0.000063
 129	6.4000e+00	2.5780	-10.514326	0.000178	1.775362	0.601509	0.000079
 130	6.4500e+00	2.5989	-10.484590	0.000134	1.336097	0.452682	0.000059
 131	6.5000e+00	2.6325	-10.448744	0.000161	1.610638	0.545699	0.000072
 132	6.5500e+00	2.6390	-10.415749	0.000148	1.482519	0.502291	0.000066
 133	6.6000e+00	2.6855	-10.385606	0.000135	1.354400	0.458883	0.000060
 134	6.6500e+00	2.6887	-10.354648	0.000139	1.391005	0.471285	0.000062
 135	6.7000e+00	2.7079	-10.318394	0.000163	1.628940	0.551900	0.000073
 136	6.7500e+00	2.7497	-10.287436	0.000139	1.391005	0.471285	0.000062
 137	6.8000e+00	2.7481	-10.256071	-0.000141	-1.409308	-0.477486	0.000063
 138	6.8500e+00	2.7721	-10.219410	0.000165	1.647243	0.558101	0.000073
 139	6.9000e+00	2.7817	-10.187230	0.000145	1.445913	0.489889	0.000064
 140	6.9500e+00	2.8170	-10.158309	0.000130	1.299492	0.440280	0.000058
 141	7.0000e+00	2.8202	-10.124906	0.000150	1.500821	0.508492	0.000067
 142	7.0500e+00	2.8603	-10.094763	0.000135	1.354400	0.458883	0.000060
 143	7.1000e+00	2.8587	-10.060546	-0.000154	-1.537427	-0.520894	0.000068
 144	7.1500e+00	2.8924	-10.032032	0.000128	1.281189	0.434079	0.000057
 145	7.2000e+00	2.9101	-9.998223	0.000152	1.519124	0.514693	0.000068
 146	7.2500e+00	2.9341	-9.967265	0.000139	1.391005	0.471285	0.000062
 147	7.3000e+00	2.9502	-9.935900	0.000141	1.409308	0.477486	0.000063
 148	7.3500e+00	2.9534	-9.903312	0.000146	1.464216	0.496090	0.000065
 149	7.4000e+00	2.9726	-9.877650	0.000115	1.153070	0.390671	0.000051
 150	7.4500e+00	2.9999	-9.845469	0.000145	1.445913	0.489889	0.000064
 151	7.5000e+00	3.0320	-9.814104	0.000141	1.409308	0.477486	0.000063
 152	7.5500e+00	3.0272	-9.786405	-0.000124	-1.244584	-0.421676	0.000055
 153	7.6000e+00	3.0721	-9.755447	0.000139	1.391005	0.471285	0.000062
 154	7.6500e+00	3.0801	-9.725711	0.000134	1.336097	0.452682	0.000059
 155	7.7000e+00	3.1010	-9.692716	0.000148	1.482519	0.502291	0.000066
 156	7.7500e+00	3.1315	-9.667868	0.000112	1.116465	0.378268	0.000050
 157	7.8000e+00	3.1603	-9.636503	0.000141	1.409308	0.477486	0.000063
 158	7.8500e+00	3.1668	-9.609211	0.000123	1.226281	0.415475	0.000055
 159	7.9000e+00	3.1892	-9.582326	0.000121	1.207978	0.409274	0.000054
 160	7.9500e+00	3.2149	-9.554627	0.000124	1.244584	0.421676	0.000055
 161	8.0000e+00	3.2229	-9.525298	0.000132	1.317794	0.446481	0.000059
 162	8.0500e+00	3.2534	-9.499228	0.000117	1.171373	0.396872	0.000052
 163	8.1000e+00	3.2758	-9.466641	0.000146	1.464216	0.496090	0.000065
 164	8.1500e+00	3.2855	-9.439349	0.000123	1.226281	0.415475	0.000055
 165	8.2000e+00	3.3047	-9.405947	0.000150	1.500821	0.508492	0.000067
 166	8.2500e+00	3.3304	-9.378248	0.000124	1.244584	0.421676	0.000055
 167	8.3000e+00	3.3304	-9.354214	-0.000108	-1.079859	-0.365866	0.000048
 168	8.3500e+00	3.3545	-9.326108	0.000126	1.262886	0.427877	0.000056
 169	8.4000e+00	3.3865	-9.293928	0.000145	1.445913	0.489889	0.000064
 170	8.4500e+00	3.4058	-9.263377	0.000137	1.372703	0.465084	0.000061
 171	8.5000e+00	3.4266	-9.232419	0.000139	1.391005	0.471285	0.000062
 172	8.5500e+00	3.4395	-9.202683	0.000134	1.336097	0.452682	0.000059
 173	8.6000e+00	3.4507	-9.175391	0.000123	1.226281	0.415475	0.000055
 174	8.6500e+00	3.4667	-9.149321	0.000117	1.171373	0.396872	0.000052
 175	8.7000e+00	3.4972	-9.118770	0.000137	1.372703	0.465084	0.000061
 176	8.7500e+00	3.5454	-9.089442	0.000132	1.317794	0.446481	0.000059
 177	8.8000e+00	3.5454	-9.065001	-0.000110	-1.098162	-0.372067	0.000049
 178	8.8500e+00	3.5790	-9.033228	0.000143	1.427611	0.483688	0.000064
 179	8.9000e+00	3.5806	-9.004307	0.000130	1.299492	0.440280	0.000058
 180	8.9500e+00	3.6063	-8.976200	0.000126	1.262886	0.427877	0.000056
 181	9.0000e+00	3.6448	-8.947279	0.000130	1.299492	0.440280	0.000058
 182	9.0500e+00	3.6400	-8.919173	-0.000126	-1.262886	-0.427877	0.000056
 183	9.1000e+00	3.6480	-8.890251	0.000130	1.299492	0.440280	0.000058
 184	9.1500e+00	3.6913	-8.860515	0.000134	1.336097	0.452682	0.000059
 185	9.2000e+00	3.7202	-8.829557	0.000139	1.391005	0.471285	0.000062
 186	9.2500e+00	3.7347	-8.799414	0.000135	1.354400	0.458883	0.000060
 187	9.3000e+00	3.7555	-8.769678	0.000134	1.336097	0.452682	0.000059
 188	9.3500e+00	3.7523	-8.743201	-0.000119	-1.189676	-0.403073	0.000053
 189	9.4000e+00	3.7603	-8.709391	0.000152	1.519124	0.514693	0.000068
 190	9.4500e+00	3.7844	-8.680470	0.000130	1.299492	0.440280	0.000058
 191	9.5000e+00	3.8068	-8.651548	0.000130	1.299492	0.440280	0.000058
 192	9.5500e+00	3.8646	-8.619368	0.000145	1.445913	0.489889	0.000064
 193	9.6000e+00	3.8710	-8.588818	0.000137	1.372703	0.465084	0.000061
 194	9.6500e+00	3.8903	-8.560711	0.000126	1.262886	0.427877	0.000056
 195	9.7000e+00	3.9015	-8.529753	0.000139	1.391005	0.471285	0.000062
 196	9.7500e+00	3.9480	-8.499610	0.000135	1.354400	0.458883	0.000060
 197	9.8000e+00	3.9689	-8.471910	0.000124	1.244584	0.421676	0.000055
 198	9.8500e+00	3.9576	-8.439730	-0.000145	-1.445913	-0.489889	0.000064
 199	9.9000e+00	3.9721	-8.411624	0.000126	1.262886	0.427877	0.000056
 200	9.9500e+00	4.0026	-8.383924	0.000124	1.244584	0.421676	0.000055
 201	1.0000e+01	4.0106	-8.349708	0.000154	1.537427	0.520894	0.000068
 202	1.0050e+01	4.0459	-8.322416	0.000123	1.226281	0.415475	0.000055
 203	1.0100e+01	4.0603	-8.290236	0.000145	1.445913	0.489889	0.000064
 204	1.0150e+01	4.0940	-8.261722	0.000128	1.281189	0.434079	0.000057
 205	1.0200e+01	4.1133	-8.231171	0.000137	1.372703	0.465084	0.000061
 206	1.0250e+01	4.1357	-8.203472	0.000124	1.244584	0.421676	0.000055
 207	1.0300e+01	4.1646	-8.172514	0.000139	1.391005	0.471285	0.000062
 208	1.0350e+01	4.1566	-8.143185	-0.000132	-1.317794	-0.446481	0.000059
 209	1.0400e+01	4.2031	-8.111412	0.000143	1.427611	0.483688	0.000064
 210	1.0450e+01	4.2031	-8.084120	-0.000123	-1.226281	-0.415475	0.000055
 211	1.0500e+01	4.2320	-8.055199	0.000130	1.299492	0.440280	0.000058
 212	1.0550e+01	4.2336	-8.028722	0.000119	1.189676	0.403073	0.000053
 213	1.0600e+01	4.2977	-7.996542	0.000145	1.445913	0.489889	0.000064
 214	1.0650e+01	4.2897	-7.963547	-0.000148	-1.482519	-0.502291	0.000066
 215	1.0700e+01	4.2993	-7.940328	0.000104	1.043254	0.353464	0.000046
 216	1.0750e+01	4.3250	-7.904075	0.000163	1.628940	0.551900	0.000073
 217	1.0800e+01	4.3411	-7.873932	0.000135	1.354400	0.458883	0.000060
 218	1.0850e+01	4.3523	-7.843788	0.000135	1.354400	0.458883	0.000060
 219	1.0900e+01	4.4004	-7.814052	0.000134	1.336097	0.452682	0.000059
 220	1.0950e+01	4.4213	-7.787168	0.000121	1.207978	0.409274	0.000054
 221	1.1000e+01	4.4116	-7.757024	-0.000135	-1.354400	-0.458883	0.000060
 222	1.1050e+01	4.4389	-7.729732	0.000123	1.226281	0.415475	0.000055
 223	1.1100e+01	4.4774	-7.698367	0.000141	1.409308	0.477486	0.000063
 224	1.1150e+01	4.4822	-7.667002	0.000141	1.409308	0.477486	0.000063
 225	1.1200e+01	4.4935	-7.637673	0.000132	1.317794	0.446481	0.000059
 226	1.1250e+01	4.5159	-7.612418	0.000113	1.134767	0.384470	0.000051
 227	1.1300e+01	4.5480	-7.582274	0.000135	1.354400	0.458883	0.000060
 228	1.1350e+01	4.5271	-7.550502	-0.000143	-1.427611	-0.483688	0.000064
 229	1.1400e+01	4.5592	-7.523210	0.000123	1.226281	0.415475	0.000055
 230	1.1450e+01	4.6250	-7.492252	0.000139	1.391005	0.471285	0.000062
 231	1.1500e+01	4.6202	-7.464960	-0.000123	-1.226281	-0.415475	0.000055
 232	1.1550e+01	4.6475	-7.438890	0.000117	1.171373	0.396872	0.000052
 233	1.1600e+01	4.6426	-7.403044	-0.000161	-1.610638	-0.545699	0.000072
 234	1.1650e+01	4.6844	-7.371271	0.000143	1.427611	0.483688	0.000064
 235	1.1700e+01	4.7148	-7.346016	0.000113	1.134767	0.384470	0.000051
 236	1.1750e+01	4.7197	-7.316687	0.000132	1.317794	0.446481	0.000059
 237	1.1800e+01	4.7517	-7.289802	0.000121	1.207978	0.409274	0.000054
 238	1.1850e+01	4.7854	-7.256400	0.000150	1.500821	0.508492	0.000067
 239	1.1900e+01	4.7806	-7.228701	-0.000124	-1.244584	-0.421676	0.000055
 240	1.1950e+01	4.8191	-7.196521	0.000145	1.445913	0.489889	0.000064
 241	1.2000e+01	4.8207	-7.168414	0.000126	1.262886	0.427877	0.000056
 242	1.2050e+01	4.8336	-7.144788	0.000106	1.061557	0.359665	0.000047
 243	1.2100e+01	4.8769	-7.113016	0.000143	1.427611	0.483688	0.000064
 244	1.2150e+01	4.8705	-7.084094	-0.000130	-1.299492	-0.440280	0.000058
 245	1.2200e+01	4.9073	-7.049878	0.000154	1.537427	0.520894	0.000068
 246	1.2250e+01	4.9234	-7.022586	0.000123	1.226281	0.415475	0.000055
 247	1.2300e+01	4.9603	-7.001811	0.000093	0.933438	0.316257	0.000042
 248	1.2350e+01	4.9555	-6.969224	-0.000146	-1.464216	-0.496090	0.000065
 249	1.2400e+01	4.9747	-6.940302	0.000130	1.299492	0.440280	0.000058
 250	1.2450e+01	5.0212	-6.911381	0.000130	1.299492	0.440280	0.000058
 251	1.2500e+01	5.0068	-6.878386	-0.000148	-1.482519	-0.502291	0.000066
 252	1.2550e+01	5.0357	-6.853538	0.000112	1.116465	0.378268	0.000050
 253	1.2600e+01	5.0694	-6.822173	0.000141	1.409308	0.477486	0.000063
 254	1.2650e+01	5.0678	-6.792844	-0.000132	-1.317794	-0.446481	0.000059
 255	1.2700e+01	5.0966	-6.764330	0.000128	1.281189	0.434079	0.000057
 256	1.2750e+01	5.1335	-6.732965	0.000141	1.409308	0.477486	0.000063
 257	1.2800e+01	5.1416	-6.705266	0.000124	1.244584	0.421676	0.000055
 258	1.2850e+01	5.1496	-6.671864	0.000150	1.500821	0.508492	0.000067
 259	1.2900e+01	5.1769	-6.644979	0.000121	1.207978	0.409274	0.000054
 260	1.2950e+01	5.1753	-6.615243	-0.000134	-1.336097	-0.452682	0.000059
 261	1.3000e+01	5.2122	-6.583063	0.000145	1.445913	0.489889	0.000064
