»»»»»»»»»»»»»»»»»»»»»»»»»»»»»»»»»»»» Hysteresis ««««««««««««««««««««««««««««««««««««
»»»  Executed Version:	5.48.1
»»»  Vision Version:	5.48.4 (R)
»»»  Vision Compiled:	9/18/24
»»»  Driver Version:	5.47.0
»»»  Windows Version:	Windows 8 or 8.1
»»»  Processor Information:	x86 (AMD or Intel) - 32 Processors
»»»  Tester Name:	PMF21124-494 (100V)
»»»  Tester S/N:	PMF21124-494
»»»  Internal Amp Type:	100V RevK 270k
»»»  Internal Amp S/N:	iAB2-596/K     
»»»  Execution Count:	1
»»»»»»»»»»»»»»»»»»»»»»»»»»»»»»»»»»»»»»»»»»««««««««««««««««««««««««««««««««««««««««««

Stored:	10/2/2025 - 18:45:6
Configured:	10/02/25 12:40:15 PM
Executed:	10/02/25 06:44:22 PM

»»»»»»»»»»»»»»»»»»»»»»»»»»»»»»»»»»» Sample Info ««««««««««««««««««««««««««««««««««««
Sample Name:	Int. Ref. Ferroelectric
Lot Name:	N/A
Wafer Name:	N/A
Die Row/Column:	0/0
Capacitor Number:	0
Sample Area (cm2):	1.00e-04
Sample Thickness (microns):	3.00e-01

Amplifier:	Internal

»»»»»»»»»»»»»»»»»»»»»»»»»»»»»»»»»»» Tester Info «««««««««««««««««««««««««««««««««««
Tester Name:	PMF21124-494 (100V)
Tester Serial Number:	PMF21124-494
Return Signal Amp. Level:	0.02 [Index: 2]

»»»»»»»»»»»»»»»»»»»»»»»»»»»»»»»» Hysteresis Info ««««««««««««««««««««««««««««««««««
Task Name:	Hyst-1
Volts:	20.00
Field:	666.67 (kV/cm)
DCBias:	0.00
DCField:	0.00 (kV/cm)
Hysteresis Period (ms):	5.00e-01
Preset:	Enabled
Preset Delay (ms):	1.00e+03
Profile:	Standard Monopolar

»»»»»»»»»»»»»»»»»»»»»»»»»»»»»»»»»»»»»» Data «««««««««««««««««««««««««««««««««««««««
Points:	1001

Valid Data

Point	Time (ms)	Drive Voltage	Measured Polarization (uC/cm2)	Capacitance (uF)	Normalized Capacitance (uF/cm2)	Dielectric Constant	Instantaneous Current (mA)
   1	0.0000e+00	0.0417	-23.119446	-0.000632	-6.317935	-2.140574	0.050972
   2	5.0000e-04	0.0385	-22.864586	-0.000632	-6.317935	-2.140574	0.050972
   3	1.0000e-03	0.1187	-22.718952	0.000361	3.610249	1.223185	0.029127
   4	1.5000e-03	0.1700	-22.682543	0.000090	0.902562	0.305796	0.007282
   5	2.0000e-03	0.2406	-22.245641	0.001083	10.830746	3.669556	0.087381
   6	2.5000e-03	0.2583	-22.427683	-0.000451	-4.512811	-1.528982	-0.036409
   7	3.0000e-03	0.2567	-22.282049	-0.000361	-3.610249	-1.223185	0.029127
   8	3.5000e-03	0.3369	-21.990780	0.000722	7.220498	2.446371	0.058254
   9	4.0000e-03	0.3914	-22.172823	-0.000451	-4.512811	-1.528982	-0.036409
  10	4.5000e-03	0.4011	-21.917963	0.000632	6.317935	2.140574	0.050972
  11	5.0000e-03	0.4347	-21.881555	0.000090	0.902562	0.305796	0.007282
  12	5.5000e-03	0.4765	-21.553878	0.000812	8.123060	2.752167	0.065535
  13	6.0000e-03	0.5085	-21.444652	0.000271	2.707687	0.917389	0.021845
  14	6.5000e-03	0.5839	-21.553878	-0.000271	-2.707687	-0.917389	-0.021845
  15	7.0000e-03	0.6096	-21.007749	0.001354	13.538433	4.586945	0.109226
  16	7.5000e-03	0.6337	-21.080566	-0.000181	-1.805124	-0.611593	-0.014563
  17	8.0000e-03	0.6754	-21.044157	0.000090	0.902562	0.305796	0.007282
  18	8.5000e-03	0.7091	-20.862115	0.000451	4.512811	1.528982	0.036409
  19	9.0000e-03	0.7909	-20.607255	0.000632	6.317935	2.140574	0.050972
  20	9.5000e-03	0.8037	-20.498029	0.000271	2.707687	0.917389	0.021845
  21	1.0000e-02	0.8567	-20.315986	0.000451	4.512811	1.528982	0.036409
  22	1.0500e-02	0.8679	-20.279577	0.000090	0.902562	0.305796	0.007282
  23	1.1000e-02	0.9305	-20.061126	0.000542	5.415373	1.834778	0.043690
  24	1.1500e-02	0.9738	-20.061126	0.000000	0.000000	0.000000	0.000000
  25	1.2000e-02	1.0219	-20.097534	-0.000090	-0.902562	-0.305796	-0.007282
  26	1.2500e-02	1.0331	-19.733449	0.000903	9.025622	3.057964	0.072817
  27	1.3000e-02	1.0732	-19.405772	0.000812	8.123060	2.752167	0.065535
  28	1.3500e-02	1.1214	-19.514997	-0.000271	-2.707687	-0.917389	-0.021845
  29	1.4000e-02	1.1855	-19.369363	0.000361	3.610249	1.223185	0.029127
  30	1.4500e-02	1.2016	-18.896051	0.001173	11.733309	3.975353	0.094662
  31	1.5000e-02	1.2529	-19.260137	-0.000903	-9.025622	-3.057964	-0.072817
  32	1.5500e-02	1.2962	-18.714009	0.001354	13.538433	4.586945	0.109226
  33	1.6000e-02	1.3026	-18.968869	-0.000632	-6.317935	-2.140574	-0.050972
  34	1.6500e-02	1.3492	-18.859643	0.000271	2.707687	0.917389	0.021845
  35	1.7000e-02	1.4181	-18.531966	0.000812	8.123060	2.752167	0.065535
  36	1.7500e-02	1.4615	-18.568374	-0.000090	-0.902562	-0.305796	-0.007282
  37	1.8000e-02	1.5000	-18.167880	0.000993	9.928184	3.363760	0.080099
  38	1.8500e-02	1.5176	-18.313514	-0.000361	-3.610249	-1.223185	-0.029127
  39	1.9000e-02	1.5721	-18.313514	0.000000	0.000000	0.000000	0.000000
  40	1.9500e-02	1.6074	-17.803794	0.001264	12.635871	4.281149	0.101944
  41	2.0000e-02	1.6508	-17.621751	0.000451	4.512811	1.528982	0.036409
  42	2.0500e-02	1.6764	-17.985837	-0.000903	-9.025622	-3.057964	-0.072817
  43	2.1000e-02	1.7406	-17.694568	0.000722	7.220498	2.446371	0.058254
  44	2.1500e-02	1.7566	-17.294074	0.000993	9.928184	3.363760	0.080099
  45	2.2000e-02	1.8224	-17.112031	0.000451	4.512811	1.528982	0.036409
  46	2.2500e-02	1.7999	-17.221257	0.000271	2.707687	0.917389	-0.021845
  47	2.3000e-02	1.8882	-17.221257	0.000000	0.000000	0.000000	0.000000
  48	2.3500e-02	1.9122	-16.966397	0.000632	6.317935	2.140574	0.050972
  49	2.4000e-02	1.9892	-16.893580	0.000181	1.805124	0.611593	0.014563
  50	2.4500e-02	2.0342	-16.201817	0.001715	17.148682	5.810131	0.138353
  51	2.5000e-02	2.0711	-16.675128	-0.001173	-11.733309	-3.975353	-0.094662
  52	2.5500e-02	2.0775	-16.383860	0.000722	7.220498	2.446371	0.058254
  53	2.6000e-02	2.1176	-16.420268	-0.000090	-0.902562	-0.305796	-0.007282
  54	2.6500e-02	2.1994	-16.056182	0.000903	9.025622	3.057964	0.072817
  55	2.7000e-02	2.2090	-16.274634	-0.000542	-5.415373	-1.834778	-0.043690
  56	2.7500e-02	2.2363	-15.728505	0.001354	13.538433	4.586945	0.109226
  57	2.8000e-02	2.2764	-15.837731	-0.000271	-2.707687	-0.917389	-0.021845
  58	2.8500e-02	2.3245	-15.801322	0.000090	0.902562	0.305796	0.007282
  59	2.9000e-02	2.3454	-15.655688	0.000361	3.610249	1.223185	0.029127
  60	2.9500e-02	2.4144	-15.728505	-0.000181	-1.805124	-0.611593	-0.014563
  61	3.0000e-02	2.4481	-15.400828	0.000812	8.123060	2.752167	0.065535
  62	3.0500e-02	2.4801	-15.364419	0.000090	0.902562	0.305796	0.007282
  63	3.1000e-02	2.5186	-14.781882	0.001444	14.440995	4.892742	0.116507
  64	3.1500e-02	2.5652	-14.927517	-0.000361	-3.610249	-1.223185	-0.029127
  65	3.2000e-02	2.6053	-14.927517	0.000000	0.000000	0.000000	0.000000
  66	3.2500e-02	2.6085	-14.636248	0.000722	7.220498	2.446371	0.058254
  67	3.3000e-02	2.6775	-14.672657	-0.000090	-0.902562	-0.305796	-0.007282
  68	3.3500e-02	2.7192	-14.709065	-0.000090	-0.902562	-0.305796	-0.007282
  69	3.4000e-02	2.7641	-14.527022	0.000451	4.512811	1.528982	0.036409
  70	3.4500e-02	2.8267	-14.162936	0.000903	9.025622	3.057964	0.072817
  71	3.5000e-02	2.8379	-14.162936	0.000000	0.000000	0.000000	0.000000
  72	3.5500e-02	2.8972	-14.053711	0.000271	2.707687	0.917389	0.021845
  73	3.6000e-02	2.9341	-14.162936	-0.000271	-2.707687	-0.917389	-0.021845
  74	3.6500e-02	3.0047	-13.507582	0.001625	16.246120	5.504334	0.131071
  75	3.7000e-02	3.0176	-13.835259	-0.000812	-8.123060	-2.752167	-0.065535
  76	3.7500e-02	3.0545	-13.471173	0.000903	9.025622	3.057964	0.072817
  77	3.8000e-02	3.0978	-13.580399	-0.000271	-2.707687	-0.917389	-0.021845
  78	3.8500e-02	3.1170	-13.398356	0.000451	4.512811	1.528982	0.036409
  79	3.9000e-02	3.1475	-13.361948	0.000090	0.902562	0.305796	0.007282
  80	3.9500e-02	3.1972	-13.179905	0.000451	4.512811	1.528982	0.036409
  81	4.0000e-02	3.2534	-12.815819	0.000903	9.025622	3.057964	0.072817
  82	4.0500e-02	3.2742	-13.252722	-0.001083	-10.830746	-3.669556	-0.087381
  83	4.1000e-02	3.3384	-12.888636	0.000903	9.025622	3.057964	0.072817
  84	4.1500e-02	3.3721	-12.488142	0.000993	9.928184	3.363760	0.080099
  85	4.2000e-02	3.4026	-12.670185	-0.000451	-4.512811	-1.528982	-0.036409
  86	4.2500e-02	3.4250	-12.342508	0.000812	8.123060	2.752167	0.065535
  87	4.3000e-02	3.5004	-12.415325	-0.000181	-1.805124	-0.611593	-0.014563
  88	4.3500e-02	3.5069	-12.087648	0.000812	8.123060	2.752167	0.065535
  89	4.4000e-02	3.5678	-12.051239	0.000090	0.902562	0.305796	0.007282
  90	4.4500e-02	3.6015	-12.051239	0.000000	0.000000	0.000000	0.000000
  91	4.5000e-02	3.6336	-11.832788	0.000542	5.415373	1.834778	0.043690
  92	4.5500e-02	3.7138	-11.614336	0.000542	5.415373	1.834778	0.043690
  93	4.6000e-02	3.7010	-11.687153	0.000181	1.805124	0.611593	-0.014563
  94	4.6500e-02	3.7683	-11.468702	0.000542	5.415373	1.834778	0.043690
  95	4.7000e-02	3.7908	-11.541519	-0.000181	-1.805124	-0.611593	-0.014563
  96	4.7500e-02	3.8502	-11.177433	0.000903	9.025622	3.057964	0.072817
  97	4.8000e-02	3.8967	-11.468702	-0.000722	-7.220498	-2.446371	-0.058254
  98	4.8500e-02	3.9384	-11.213842	0.000632	6.317935	2.140574	0.050972
  99	4.9000e-02	3.9721	-10.776939	0.001083	10.830746	3.669556	0.087381
 100	4.9500e-02	4.0090	-10.958982	-0.000451	-4.512811	-1.528982	-0.036409
 101	5.0000e-02	4.0491	-10.667713	0.000722	7.220498	2.446371	0.058254
 102	5.0500e-02	4.0876	-10.995390	-0.000812	-8.123060	-2.752167	-0.065535
 103	5.1000e-02	4.1405	-10.631304	0.000903	9.025622	3.057964	0.072817
 104	5.1500e-02	4.1710	-10.267219	0.000903	9.025622	3.057964	0.072817
 105	5.2000e-02	4.1870	-10.376444	-0.000271	-2.707687	-0.917389	-0.021845
 106	5.2500e-02	4.2432	-10.267219	0.000271	2.707687	0.917389	0.021845
 107	5.3000e-02	4.2801	-9.903133	0.000903	9.025622	3.057964	0.072817
 108	5.3500e-02	4.3443	-10.121584	-0.000542	-5.415373	-1.834778	-0.043690
 109	5.4000e-02	4.3796	-9.684681	0.001083	10.830746	3.669556	0.087381
 110	5.4500e-02	4.3972	-10.085176	-0.000993	-9.928184	-3.363760	-0.080099
 111	5.5000e-02	4.4373	-9.575456	0.001264	12.635871	4.281149	0.101944
 112	5.5500e-02	4.4919	-9.721090	-0.000361	-3.610249	-1.223185	-0.029127
 113	5.6000e-02	4.5095	-9.320596	0.000993	9.928184	3.363760	0.080099
 114	5.6500e-02	4.5721	-9.648273	-0.000812	-8.123060	-2.752167	-0.065535
 115	5.7000e-02	4.6266	-9.138553	0.001264	12.635871	4.281149	0.101944
 116	5.7500e-02	4.6555	-9.138553	0.000000	0.000000	0.000000	0.000000
 117	5.8000e-02	4.7068	-9.174961	-0.000090	-0.902562	-0.305796	-0.007282
 118	5.8500e-02	4.7277	-9.065736	0.000271	2.707687	0.917389	0.021845
 119	5.9000e-02	4.7694	-8.738058	0.000812	8.123060	2.752167	0.065535
 120	5.9500e-02	4.8063	-8.956510	-0.000542	-5.415373	-1.834778	-0.043690
 121	6.0000e-02	4.8416	-8.665241	0.000722	7.220498	2.446371	0.058254
 122	6.0500e-02	4.8592	-8.628833	0.000090	0.902562	0.305796	0.007282
 123	6.1000e-02	4.9250	-8.665241	-0.000090	-0.902562	-0.305796	-0.007282
 124	6.1500e-02	4.9795	-8.301156	0.000903	9.025622	3.057964	0.072817
 125	6.2000e-02	5.0036	-7.973478	0.000812	8.123060	2.752167	0.065535
 126	6.2500e-02	5.0485	-8.301156	-0.000812	-8.123060	-2.752167	-0.065535
 127	6.3000e-02	5.0726	-8.337564	-0.000090	-0.902562	-0.305796	-0.007282
 128	6.3500e-02	5.1175	-7.645801	0.001715	17.148682	5.810131	0.138353
 129	6.4000e-02	5.1881	-7.791435	-0.000361	-3.610249	-1.223185	-0.029127
 130	6.4500e-02	5.1961	-7.827844	-0.000090	-0.902562	-0.305796	-0.007282
 131	6.5000e-02	5.2603	-7.718618	0.000271	2.707687	0.917389	0.021845
 132	6.5500e-02	5.2940	-7.791435	-0.000181	-1.805124	-0.611593	-0.014563
 133	6.6000e-02	5.3373	-7.427350	0.000903	9.025622	3.057964	0.072817
 134	6.6500e-02	5.4143	-7.354533	0.000181	1.805124	0.611593	0.014563
 135	6.7000e-02	5.4159	-7.390941	-0.000090	-0.902562	-0.305796	-0.007282
 136	6.7500e-02	5.4416	-7.026855	0.000903	9.025622	3.057964	0.072817
 137	6.8000e-02	5.4801	-6.881221	0.000361	3.610249	1.223185	0.029127
 138	6.8500e-02	5.5474	-7.026855	-0.000361	-3.610249	-1.223185	-0.029127
 139	6.9000e-02	5.5506	-6.553544	0.001173	11.733309	3.975353	0.094662
 140	6.9500e-02	5.6196	-6.662770	-0.000271	-2.707687	-0.917389	-0.021845
 141	7.0000e-02	5.6341	-6.917630	-0.000632	-6.317935	-2.140574	-0.050972
 142	7.0500e-02	5.6838	-6.371501	0.001354	13.538433	4.586945	0.109226
 143	7.1000e-02	5.7239	-6.480727	-0.000271	-2.707687	-0.917389	-0.021845
 144	7.1500e-02	5.7512	-6.262275	0.000542	5.415373	1.834778	0.043690
 145	7.2000e-02	5.8073	-6.116641	0.000361	3.610249	1.223185	0.029127
 146	7.2500e-02	5.8218	-6.225867	-0.000271	-2.707687	-0.917389	-0.021845
 147	7.3000e-02	5.9132	-6.153050	0.000181	1.805124	0.611593	0.014563
 148	7.3500e-02	5.9132	-5.861781	-0.000722	-7.220498	-2.446371	0.058254
 149	7.4000e-02	5.9854	-5.716147	0.000361	3.610249	1.223185	0.029127
 150	7.4500e-02	5.9950	-5.934598	-0.000542	-5.415373	-1.834778	-0.043690
 151	7.5000e-02	6.0592	-5.352061	0.001444	14.440995	4.892742	0.116507
 152	7.5500e-02	6.0768	-5.643329	-0.000722	-7.220498	-2.446371	-0.058254
 153	7.6000e-02	6.1378	-5.133609	0.001264	12.635871	4.281149	0.101944
 154	7.6500e-02	6.1603	-5.570512	-0.001083	-10.830746	-3.669556	-0.087381
 155	7.7000e-02	6.2068	-5.060792	0.001264	12.635871	4.281149	0.101944
 156	7.7500e-02	6.2389	-5.315652	-0.000632	-6.317935	-2.140574	-0.050972
 157	7.8000e-02	6.2501	-5.170018	0.000361	3.610249	1.223185	0.029127
 158	7.8500e-02	6.3239	-5.024384	0.000361	3.610249	1.223185	0.029127
 159	7.9000e-02	6.3688	-4.951566	0.000181	1.805124	0.611593	0.014563
 160	7.9500e-02	6.4089	-4.696706	0.000632	6.317935	2.140574	0.050972
 161	8.0000e-02	6.4346	-4.259804	0.001083	10.830746	3.669556	0.087381
 162	8.0500e-02	6.4763	-4.733115	-0.001173	-11.733309	-3.975353	-0.094662
 163	8.1000e-02	6.4907	-4.296212	0.001083	10.830746	3.669556	0.087381
 164	8.1500e-02	6.5533	-4.478255	-0.000451	-4.512811	-1.528982	-0.036409
 165	8.2000e-02	6.5934	-4.259804	0.000542	5.415373	1.834778	0.043690
 166	8.2500e-02	6.6511	-4.259804	0.000000	0.000000	0.000000	0.000000
 167	8.3000e-02	6.6913	-4.077761	0.000451	4.512811	1.528982	0.036409
 168	8.3500e-02	6.7346	-3.822901	0.000632	6.317935	2.140574	0.050972
 169	8.4000e-02	6.7554	-3.677266	0.000361	3.610249	1.223185	0.029127
 170	8.4500e-02	6.8148	-3.713675	-0.000090	-0.902562	-0.305796	-0.007282
 171	8.5000e-02	6.8437	-3.677266	0.000090	0.902562	0.305796	0.007282
 172	8.5500e-02	6.8998	-3.822901	-0.000361	-3.610249	-1.223185	-0.029127
 173	8.6000e-02	6.9223	-3.385998	0.001083	10.830746	3.669556	0.087381
 174	8.6500e-02	6.9495	-3.240363	0.000361	3.610249	1.223185	0.029127
 175	8.7000e-02	7.0057	-3.094729	0.000361	3.610249	1.223185	0.029127
 176	8.7500e-02	7.0426	-3.349589	-0.000632	-6.317935	-2.140574	-0.050972
 177	8.8000e-02	7.0763	-3.094729	0.000632	6.317935	2.140574	0.050972
 178	8.8500e-02	7.1003	-3.094729	0.000000	0.000000	0.000000	0.000000
 179	8.9000e-02	7.1693	-2.767052	0.000812	8.123060	2.752167	0.065535
 180	8.9500e-02	7.2046	-3.313181	-0.001354	-13.538433	-4.586945	-0.109226
 181	9.0000e-02	7.2575	-3.021912	0.000722	7.220498	2.446371	0.058254
 182	9.0500e-02	7.2880	-2.730643	0.000722	7.220498	2.446371	0.058254
 183	9.1000e-02	7.3249	-2.694235	0.000090	0.902562	0.305796	0.007282
 184	9.1500e-02	7.3602	-2.439375	0.000632	6.317935	2.140574	0.050972
 185	9.2000e-02	7.3971	-2.330149	0.000271	2.707687	0.917389	0.021845
 186	9.2500e-02	7.4693	-2.257332	0.000181	1.805124	0.611593	0.014563
 187	9.3000e-02	7.4741	-2.111697	0.000361	3.610249	1.223185	0.029127
 188	9.3500e-02	7.5463	-2.075289	0.000090	0.902562	0.305796	0.007282
 189	9.4000e-02	7.5559	-1.966063	0.000271	2.707687	0.917389	0.021845
 190	9.4500e-02	7.6169	-1.820429	0.000361	3.610249	1.223185	0.029127
 191	9.5000e-02	7.6474	-1.820429	0.000000	0.000000	0.000000	0.000000
 192	9.5500e-02	7.6746	-1.856837	-0.000090	-0.902562	-0.305796	-0.007282
 193	9.6000e-02	7.7276	-1.383526	0.001173	11.733309	3.975353	0.094662
 194	9.6500e-02	7.7533	-1.347117	0.000090	0.902562	0.305796	0.007282
 195	9.7000e-02	7.8110	-1.165074	0.000451	4.512811	1.528982	0.036409
 196	9.7500e-02	7.8351	-1.274300	-0.000271	-2.707687	-0.917389	-0.021845
 197	9.8000e-02	7.8672	-1.347117	-0.000181	-1.805124	-0.611593	-0.014563
 198	9.8500e-02	7.9313	-1.019440	0.000812	8.123060	2.752167	0.065535
 199	9.9000e-02	7.9746	-1.019440	0.000000	0.000000	0.000000	0.000000
 200	9.9500e-02	7.9971	-0.800989	0.000542	5.415373	1.834778	0.043690
 201	1.0000e-01	8.0532	-0.618946	0.000451	4.512811	1.528982	0.036409
 202	1.0050e-01	8.0950	-0.910214	-0.000722	-7.220498	-2.446371	-0.058254
 203	1.0100e-01	8.1351	-0.582537	0.000812	8.123060	2.752167	0.065535
 204	1.0150e-01	8.1800	-0.691763	-0.000271	-2.707687	-0.917389	-0.021845
 205	1.0200e-01	8.1960	-0.400494	0.000722	7.220498	2.446371	0.058254
 206	1.0250e-01	8.2634	-0.327677	0.000181	1.805124	0.611593	0.014563
 207	1.0300e-01	8.2923	-0.182043	0.000361	3.610249	1.223185	0.029127
 208	1.0350e-01	8.3163	-0.145634	0.000090	0.902562	0.305796	0.007282
 209	1.0400e-01	8.3613	-0.000000	0.000361	3.610249	1.223185	0.029127
 210	1.0450e-01	8.4222	0.145634	0.000361	3.610249	1.223185	0.029127
 211	1.0500e-01	8.4575	0.109226	-0.000090	-0.902562	-0.305796	-0.007282
 212	1.0550e-01	8.4864	0.072817	-0.000090	-0.902562	-0.305796	-0.007282
 213	1.0600e-01	8.5137	0.109226	0.000090	0.902562	0.305796	0.007282
 214	1.0650e-01	8.5409	0.364086	0.000632	6.317935	2.140574	0.050972
 215	1.0700e-01	8.6003	0.582537	0.000542	5.415373	1.834778	0.043690
 216	1.0750e-01	8.6404	0.473312	-0.000271	-2.707687	-0.917389	-0.021845
 217	1.0800e-01	8.6645	0.509720	0.000090	0.902562	0.305796	0.007282
 218	1.0850e-01	8.7094	0.582537	0.000181	1.805124	0.611593	0.014563
 219	1.0900e-01	8.7591	1.019440	0.001083	10.830746	3.669556	0.087381
 220	1.0950e-01	8.7944	0.910214	-0.000271	-2.707687	-0.917389	-0.021845
 221	1.1000e-01	8.8473	0.910214	0.000000	0.000000	0.000000	0.000000
 222	1.1050e-01	8.9067	1.019440	0.000271	2.707687	0.917389	0.021845
 223	1.1100e-01	8.9436	1.601977	0.001444	14.440995	4.892742	0.116507
 224	1.1150e-01	8.9580	1.092257	-0.001264	-12.635871	-4.281149	-0.101944
 225	1.1200e-01	9.0078	1.274300	0.000451	4.512811	1.528982	0.036409
 226	1.1250e-01	9.0431	1.347117	0.000181	1.805124	0.611593	0.014563
 227	1.1300e-01	9.0784	1.747612	0.000993	9.928184	3.363760	0.080099
 228	1.1350e-01	9.1297	1.383526	-0.000903	-9.025622	-3.057964	-0.072817
 229	1.1400e-01	9.1666	1.711203	0.000812	8.123060	2.752167	0.065535
 230	1.1450e-01	9.2035	1.784020	0.000181	1.805124	0.611593	0.014563
 231	1.1500e-01	9.2532	1.856837	0.000181	1.805124	0.611593	0.014563
 232	1.1550e-01	9.2709	1.966063	0.000271	2.707687	0.917389	0.021845
 233	1.1600e-01	9.3527	1.784020	-0.000451	-4.512811	-1.528982	-0.036409
 234	1.1650e-01	9.3719	2.002472	0.000542	5.415373	1.834778	0.043690
 235	1.1700e-01	9.4136	2.220923	0.000542	5.415373	1.834778	0.043690
 236	1.1750e-01	9.4457	2.439375	0.000542	5.415373	1.834778	0.043690
 237	1.1800e-01	9.5083	2.402966	-0.000090	-0.902562	-0.305796	-0.007282
 238	1.1850e-01	9.5083	2.402966	-0.000000	-0.000000	-0.000000	0.000000
 239	1.1900e-01	9.5436	2.657826	0.000632	6.317935	2.140574	0.050972
 240	1.1950e-01	9.6013	2.694235	0.000090	0.902562	0.305796	0.007282
 241	1.2000e-01	9.6382	2.585009	-0.000271	-2.707687	-0.917389	-0.021845
 242	1.2050e-01	9.6831	2.730643	0.000361	3.610249	1.223185	0.029127
 243	1.2100e-01	9.7088	2.949095	0.000542	5.415373	1.834778	0.043690
 244	1.2150e-01	9.7521	2.985503	0.000090	0.902562	0.305796	0.007282
 245	1.2200e-01	9.7922	3.203955	0.000542	5.415373	1.834778	0.043690
 246	1.2250e-01	9.8468	3.313181	0.000271	2.707687	0.917389	0.021845
 247	1.2300e-01	9.8837	3.058320	-0.000632	-6.317935	-2.140574	-0.050972
 248	1.2350e-01	9.9366	3.422406	0.000903	9.025622	3.057964	0.072817
 249	1.2400e-01	9.9783	3.313181	-0.000271	-2.707687	-0.917389	-0.021845
 250	1.2450e-01	9.9960	3.713675	0.000993	9.928184	3.363760	0.080099
 251	1.2500e-01	10.0425	3.385998	-0.000812	-8.123060	-2.752167	-0.065535
 252	1.2550e-01	10.1147	3.568041	0.000451	4.512811	1.528982	0.036409
 253	1.2600e-01	10.1243	3.458815	-0.000271	-2.707687	-0.917389	-0.021845
 254	1.2650e-01	10.1516	3.895718	0.001083	10.830746	3.669556	0.087381
 255	1.2700e-01	10.1949	4.004943	0.000271	2.707687	0.917389	0.021845
 256	1.2750e-01	10.2382	4.114169	0.000271	2.707687	0.917389	0.021845
 257	1.2800e-01	10.2815	3.968535	-0.000361	-3.610249	-1.223185	-0.029127
 258	1.2850e-01	10.3104	4.186986	0.000542	5.415373	1.834778	0.043690
 259	1.2900e-01	10.3393	3.968535	-0.000542	-5.415373	-1.834778	-0.043690
