»»»»»»»»»»»»»»»»»»»»»»»»»»»»»»»»»»»» Hysteresis ««««««««««««««««««««««««««««««««««««
»»»  Executed Version:	5.48.1
»»»  Vision Version:	5.48.4 (R)
»»»  Vision Compiled:	9/18/24
»»»  Driver Version:	5.47.0
»»»  Windows Version:	Windows 8 or 8.1
»»»  Processor Information:	x86 (AMD or Intel) - 32 Processors
»»»  Tester Name:	PMF21124-494 (100V)
»»»  Tester S/N:	PMF21124-494
»»»  Internal Amp Type:	100V RevK 270k
»»»  Internal Amp S/N:	iAB2-596/K     
»»»  Execution Count:	1
»»»»»»»»»»»»»»»»»»»»»»»»»»»»»»»»»»»»»»»»»»««««««««««««««««««««««««««««««««««««««««««

Stored:	10/2/2025 - 18:52:49
Configured:	10/02/25 12:40:15 PM
Executed:	10/02/25 06:52:08 PM

»»»»»»»»»»»»»»»»»»»»»»»»»»»»»»»»»»» Sample Info ««««««««««««««««««««««««««««««««««««
Sample Name:	Int. Ref. Ferroelectric
Lot Name:	N/A
Wafer Name:	N/A
Die Row/Column:	0/0
Capacitor Number:	0
Sample Area (cm2):	1.00e-04
Sample Thickness (microns):	3.00e-01

Amplifier:	Internal

»»»»»»»»»»»»»»»»»»»»»»»»»»»»»»»»»»» Tester Info «««««««««««««««««««««««««««««««««««
Tester Name:	PMF21124-494 (100V)
Tester Serial Number:	PMF21124-494
Return Signal Amp. Level:	0.02 [Index: 2]

»»»»»»»»»»»»»»»»»»»»»»»»»»»»»»»» Hysteresis Info ««««««««««««««««««««««««««««««««««
Task Name:	Hyst-1
Volts:	20.00
Field:	666.67 (kV/cm)
DCBias:	0.00
DCField:	0.00 (kV/cm)
Hysteresis Period (ms):	5.00e-01
Preset:	Enabled
Preset Delay (ms):	1.00e+03
Profile:	Standard Monopolar

»»»»»»»»»»»»»»»»»»»»»»»»»»»»»»»»»»»»»» Data «««««««««««««««««««««««««««««««««««««««
Points:	1001

Valid Data

Point	Time (ms)	Drive Voltage	Measured Polarization (uC/cm2)	Capacitance (uF)	Normalized Capacitance (uF/cm2)	Dielectric Constant	Instantaneous Current (mA)
   1	0.0000e+00	0.0449	-20.934932	-0.000726	-7.260465	-2.459912	-0.058254
   2	5.0000e-04	0.0578	-21.226200	-0.000726	-7.260465	-2.459912	-0.058254
   3	1.0000e-03	0.1091	-20.971340	0.000635	6.352907	2.152423	0.050972
   4	1.5000e-03	0.1588	-20.934932	0.000091	0.907558	0.307489	0.007282
   5	2.0000e-03	0.2150	-20.570846	0.000908	9.075582	3.074890	0.072817
   6	2.5000e-03	0.2150	-20.825706	0.000635	6.352907	2.152423	-0.050972
   7	3.0000e-03	0.2743	-20.607255	0.000545	5.445349	1.844934	0.043690
   8	3.5000e-03	0.3064	-20.097534	0.001271	12.705815	4.304847	0.101944
   9	4.0000e-03	0.3497	-20.388803	-0.000726	-7.260465	-2.459912	-0.058254
  10	4.5000e-03	0.3914	-19.915492	0.001180	11.798256	3.997357	0.094662
  11	5.0000e-03	0.4476	-19.951900	-0.000091	-0.907558	-0.307489	-0.007282
  12	5.5000e-03	0.4829	-20.024717	-0.000182	-1.815116	-0.614978	-0.014563
  13	6.0000e-03	0.5134	-20.133943	-0.000272	-2.722675	-0.922467	-0.021845
  14	6.5000e-03	0.5679	-19.624223	0.001271	12.705815	4.304847	0.101944
  15	7.0000e-03	0.6080	-19.697040	-0.000182	-1.815116	-0.614978	-0.014563
  16	7.5000e-03	0.6433	-19.223729	0.001180	11.798256	3.997357	0.094662
  17	8.0000e-03	0.7091	-19.223729	0.000000	0.000000	0.000000	0.000000
  18	8.5000e-03	0.7299	-19.587814	-0.000908	-9.075582	-3.074890	-0.072817
  19	9.0000e-03	0.7508	-18.968869	0.001543	15.428489	5.227314	0.123789
  20	9.5000e-03	0.8117	-19.150911	-0.000454	-4.537791	-1.537445	-0.036409
  21	1.0000e-02	0.8438	-18.823234	0.000817	8.168024	2.767401	0.065535
  22	1.0500e-02	0.8823	-18.750417	0.000182	1.815116	0.614978	0.014563
  23	1.1000e-02	0.9289	-18.823234	-0.000182	-1.815116	-0.614978	-0.014563
  24	1.1500e-02	0.9481	-18.495557	0.000817	8.168024	2.767401	0.065535
  25	1.2000e-02	0.9978	-18.349923	0.000363	3.630233	1.229956	0.029127
  26	1.2500e-02	1.0652	-18.167880	0.000454	4.537791	1.537445	0.036409
  27	1.3000e-02	1.0780	-18.204288	-0.000091	-0.907558	-0.307489	-0.007282
  28	1.3500e-02	1.1230	-17.840203	0.000908	9.075582	3.074890	0.072817
  29	1.4000e-02	1.1550	-18.167880	-0.000817	-8.168024	-2.767401	-0.065535
  30	1.4500e-02	1.2064	-17.876611	0.000726	7.260465	2.459912	0.058254
  31	1.5000e-02	1.2673	-17.403300	0.001180	11.798256	3.997357	0.094662
  32	1.5500e-02	1.2802	-17.294074	0.000272	2.722675	0.922467	0.021845
  33	1.6000e-02	1.3187	-17.184848	0.000272	2.722675	0.922467	0.021845
  34	1.6500e-02	1.3524	-17.439708	-0.000635	-6.352907	-2.152423	-0.050972
  35	1.7000e-02	1.4037	-17.221257	0.000545	5.445349	1.844934	0.043690
  36	1.7500e-02	1.4342	-17.002805	0.000545	5.445349	1.844934	0.043690
  37	1.8000e-02	1.5080	-17.148440	-0.000363	-3.630233	-1.229956	-0.029127
  38	1.8500e-02	1.5208	-16.675128	0.001180	11.798256	3.997357	0.094662
  39	1.9000e-02	1.5481	-16.747945	-0.000182	-1.815116	-0.614978	-0.014563
  40	1.9500e-02	1.6058	-16.747945	0.000000	0.000000	0.000000	0.000000
  41	2.0000e-02	1.6411	-16.675128	0.000182	1.815116	0.614978	0.014563
  42	2.0500e-02	1.6764	-16.675128	0.000000	0.000000	0.000000	0.000000
  43	2.1000e-02	1.7374	-15.874140	0.001997	19.966280	6.764759	0.160198
  44	2.1500e-02	1.7566	-16.274634	-0.000998	-9.983140	-3.382379	-0.080099
  45	2.2000e-02	1.7999	-16.056182	0.000545	5.445349	1.844934	0.043690
  46	2.2500e-02	1.8433	-15.910548	0.000363	3.630233	1.229956	0.029127
  47	2.3000e-02	1.8802	-15.837731	0.000182	1.815116	0.614978	0.014563
  48	2.3500e-02	1.9106	-15.510054	0.000817	8.168024	2.767401	0.065535
  49	2.4000e-02	1.9459	-15.655688	-0.000363	-3.630233	-1.229956	-0.029127
  50	2.4500e-02	2.0021	-15.728505	-0.000182	-1.815116	-0.614978	-0.014563
  51	2.5000e-02	2.0454	-15.291602	0.001089	10.890698	3.689868	0.087381
  52	2.5500e-02	2.1064	-15.510054	-0.000545	-5.445349	-1.844934	-0.043690
  53	2.6000e-02	2.1368	-14.818291	0.001724	17.243606	5.842292	0.138353
  54	2.6500e-02	2.1769	-15.109559	-0.000726	-7.260465	-2.459912	-0.058254
  55	2.7000e-02	2.1898	-14.818291	0.000726	7.260465	2.459912	0.058254
  56	2.7500e-02	2.2475	-14.818291	0.000000	0.000000	0.000000	0.000000
  57	2.8000e-02	2.2892	-14.599839	0.000545	5.445349	1.844934	0.043690
  58	2.8500e-02	2.3197	-14.381388	0.000545	5.445349	1.844934	0.043690
  59	2.9000e-02	2.3406	-14.781882	-0.000998	-9.983140	-3.382379	-0.080099
  60	2.9500e-02	2.4080	-14.053711	0.001815	18.151164	6.149781	0.145634
  61	3.0000e-02	2.4368	-14.017302	0.000091	0.907558	0.307489	0.007282
  62	3.0500e-02	2.4914	-14.199345	-0.000454	-4.537791	-1.537445	-0.036409
  63	3.1000e-02	2.5202	-13.616808	0.001452	14.520931	4.919825	0.116507
  64	3.1500e-02	2.5475	-13.798851	-0.000454	-4.537791	-1.537445	-0.036409
  65	3.2000e-02	2.6069	-13.835259	-0.000091	-0.907558	-0.307489	-0.007282
  66	3.2500e-02	2.6422	-13.507582	0.000817	8.168024	2.767401	0.065535
  67	3.3000e-02	2.6983	-13.507582	0.000000	0.000000	0.000000	0.000000
  68	3.3500e-02	2.7368	-13.216313	0.000726	7.260465	2.459912	0.058254
  69	3.4000e-02	2.7577	-13.289131	-0.000182	-1.815116	-0.614978	-0.014563
  70	3.4500e-02	2.8218	-13.543991	-0.000635	-6.352907	-2.152423	-0.050972
  71	3.5000e-02	2.8443	-13.216313	0.000817	8.168024	2.767401	0.065535
  72	3.5500e-02	2.8812	-13.107088	0.000272	2.722675	0.922467	0.021845
  73	3.6000e-02	2.9245	-12.815819	0.000726	7.260465	2.459912	0.058254
  74	3.6500e-02	2.9726	-13.361948	-0.001361	-13.613373	-4.612336	-0.109226
  75	3.7000e-02	3.0031	-12.524550	0.002087	20.873838	7.072248	0.167479
  76	3.7500e-02	3.0496	-12.378916	0.000363	3.630233	1.229956	0.029127
  77	3.8000e-02	3.0865	-12.415325	-0.000091	-0.907558	-0.307489	-0.007282
  78	3.8500e-02	3.1363	-12.524550	-0.000272	-2.722675	-0.922467	-0.021845
  79	3.9000e-02	3.1603	-12.306099	0.000545	5.445349	1.844934	0.043690
  80	3.9500e-02	3.1796	-12.087648	0.000545	5.445349	1.844934	0.043690
  81	4.0000e-02	3.2341	-12.342508	-0.000635	-6.352907	-2.152423	-0.050972
  82	4.0500e-02	3.2710	-11.942013	0.000998	9.983140	3.382379	0.080099
  83	4.1000e-02	3.3208	-11.978422	-0.000091	-0.907558	-0.307489	-0.007282
  84	4.1500e-02	3.3528	-11.614336	0.000908	9.075582	3.074890	0.072817
  85	4.2000e-02	3.3849	-11.541519	0.000182	1.815116	0.614978	0.014563
  86	4.2500e-02	3.4395	-11.505110	0.000091	0.907558	0.307489	0.007282
  87	4.3000e-02	3.4812	-11.687153	-0.000454	-4.537791	-1.537445	-0.036409
  88	4.3500e-02	3.5293	-11.213842	0.001180	11.798256	3.997357	0.094662
  89	4.4000e-02	3.5502	-11.177433	0.000091	0.907558	0.307489	0.007282
  90	4.4500e-02	3.5839	-11.286659	-0.000272	-2.722675	-0.922467	-0.021845
  91	4.5000e-02	3.6577	-10.776939	0.001271	12.705815	4.304847	0.101944
  92	4.5500e-02	3.6721	-11.141025	-0.000908	-9.075582	-3.074890	-0.072817
  93	4.6000e-02	3.7298	-10.704122	0.001089	10.890698	3.689868	0.087381
  94	4.6500e-02	3.7716	-10.776939	-0.000182	-1.815116	-0.614978	-0.014563
  95	4.7000e-02	3.7956	-10.667713	0.000272	2.722675	0.922467	0.021845
  96	4.7500e-02	3.8502	-10.667713	0.000000	0.000000	0.000000	0.000000
  97	4.8000e-02	3.8694	-9.975950	0.001724	17.243606	5.842292	0.138353
  98	4.8500e-02	3.9111	-10.340036	-0.000908	-9.075582	-3.074890	-0.072817
  99	4.9000e-02	3.9576	-10.012359	0.000817	8.168024	2.767401	0.065535
 100	4.9500e-02	3.9865	-9.939542	0.000182	1.815116	0.614978	0.014563
 101	5.0000e-02	4.0298	-10.085176	-0.000363	-3.630233	-1.229956	-0.029127
 102	5.0500e-02	4.0683	-10.012359	0.000182	1.815116	0.614978	0.014563
 103	5.1000e-02	4.1245	-9.830316	0.000454	4.537791	1.537445	0.036409
 104	5.1500e-02	4.1437	-9.866724	-0.000091	-0.907558	-0.307489	-0.007282
 105	5.2000e-02	4.1999	-9.575456	0.000726	7.260465	2.459912	0.058254
 106	5.2500e-02	4.2368	-9.539047	0.000091	0.907558	0.307489	0.007282
 107	5.3000e-02	4.2865	-9.502639	0.000091	0.907558	0.307489	0.007282
 108	5.3500e-02	4.3042	-9.466230	0.000091	0.907558	0.307489	0.007282
 109	5.4000e-02	4.3603	-9.429821	0.000091	0.907558	0.307489	0.007282
 110	5.4500e-02	4.3972	-9.174961	0.000635	6.352907	2.152423	0.050972
 111	5.5000e-02	4.4469	-8.956510	0.000545	5.445349	1.844934	0.043690
 112	5.5500e-02	4.4630	-8.701650	0.000635	6.352907	2.152423	0.050972
 113	5.6000e-02	4.5015	-8.774467	-0.000182	-1.815116	-0.614978	-0.014563
 114	5.6500e-02	4.5689	-9.029327	-0.000635	-6.352907	-2.152423	-0.050972
 115	5.7000e-02	4.6250	-8.337564	0.001724	17.243606	5.842292	0.138353
 116	5.7500e-02	4.6378	-8.810876	-0.001180	-11.798256	-3.997357	-0.094662
 117	5.8000e-02	4.6812	-8.410381	0.000998	9.983140	3.382379	0.080099
 118	5.8500e-02	4.7213	-8.446790	-0.000091	-0.907558	-0.307489	-0.007282
 119	5.9000e-02	4.7453	-8.373973	0.000182	1.815116	0.614978	0.014563
 120	5.9500e-02	4.7774	-7.864253	0.001271	12.705815	4.304847	0.101944
 121	6.0000e-02	4.8464	-7.973478	-0.000272	-2.722675	-0.922467	-0.021845
 122	6.0500e-02	4.8608	-8.119113	-0.000363	-3.630233	-1.229956	-0.029127
 123	6.1000e-02	4.9106	-7.864253	0.000635	6.352907	2.152423	0.050972
 124	6.1500e-02	4.9635	-7.827844	0.000091	0.907558	0.307489	0.007282
 125	6.2000e-02	5.0309	-7.572984	0.000635	6.352907	2.152423	0.050972
 126	6.2500e-02	5.0421	-7.827844	-0.000635	-6.352907	-2.152423	-0.050972
 127	6.3000e-02	5.0983	-7.718618	0.000272	2.722675	0.922467	0.021845
 128	6.3500e-02	5.1303	-7.682210	0.000091	0.907558	0.307489	0.007282
 129	6.4000e-02	5.1400	-7.427350	0.000635	6.352907	2.152423	0.050972
 130	6.4500e-02	5.1769	-7.063264	0.000908	9.075582	3.074890	0.072817
 131	6.5000e-02	5.2298	-6.954038	0.000272	2.722675	0.922467	0.021845
 132	6.5500e-02	5.2972	-7.063264	-0.000272	-2.722675	-0.922467	-0.021845
 133	6.6000e-02	5.3309	-6.771995	0.000726	7.260465	2.459912	0.058254
 134	6.6500e-02	5.3678	-7.208898	-0.001089	-10.890698	-3.689868	-0.087381
 135	6.7000e-02	5.3902	-6.517135	0.001724	17.243606	5.842292	0.138353
 136	6.7500e-02	5.4448	-6.662770	-0.000363	-3.630233	-1.229956	-0.029127
 137	6.8000e-02	5.4849	-6.954038	-0.000726	-7.260465	-2.459912	-0.058254
 138	6.8500e-02	5.5186	-6.517135	0.001089	10.890698	3.689868	0.087381
 139	6.9000e-02	5.5635	-6.335092	0.000454	4.537791	1.537445	0.036409
 140	6.9500e-02	5.6052	-6.225867	0.000272	2.722675	0.922467	0.021845
 141	7.0000e-02	5.6485	-6.371501	-0.000363	-3.630233	-1.229956	-0.029127
 142	7.0500e-02	5.6806	-6.225867	0.000363	3.630233	1.229956	0.029127
 143	7.1000e-02	5.7030	-6.116641	0.000272	2.722675	0.922467	0.021845
 144	7.1500e-02	5.7720	-5.971007	0.000363	3.630233	1.229956	0.029127
 145	7.2000e-02	5.7897	-6.080232	-0.000272	-2.722675	-0.922467	-0.021845
 146	7.2500e-02	5.8346	-5.606921	0.001180	11.798256	3.997357	0.094662
 147	7.3000e-02	5.8779	-5.825372	-0.000545	-5.445349	-1.844934	-0.043690
 148	7.3500e-02	5.9100	-5.461287	0.000908	9.075582	3.074890	0.072817
 149	7.4000e-02	5.9581	-5.570512	-0.000272	-2.722675	-0.922467	-0.021845
 150	7.4500e-02	5.9902	-5.242835	0.000817	8.168024	2.767401	0.065535
 151	7.5000e-02	6.0399	-5.534104	-0.000726	-7.260465	-2.459912	-0.058254
 152	7.5500e-02	6.0624	-5.388469	0.000363	3.630233	1.229956	0.029127
 153	7.6000e-02	6.1362	-4.805932	0.001452	14.520931	4.919825	0.116507
 154	7.6500e-02	6.1795	-4.951566	-0.000363	-3.630233	-1.229956	-0.029127
 155	7.7000e-02	6.2100	-4.878749	0.000182	1.815116	0.614978	0.014563
 156	7.7500e-02	6.2517	-4.915158	-0.000091	-0.907558	-0.307489	-0.007282
 157	7.8000e-02	6.2774	-4.733115	0.000454	4.537791	1.537445	0.036409
 158	7.8500e-02	6.3271	-4.842341	-0.000272	-2.722675	-0.922467	-0.021845
 159	7.9000e-02	6.3560	-4.369029	0.001180	11.798256	3.997357	0.094662
 160	7.9500e-02	6.4073	-4.441846	-0.000182	-1.815116	-0.614978	-0.014563
 161	8.0000e-02	6.4426	-4.332621	0.000272	2.722675	0.922467	0.021845
 162	8.0500e-02	6.4731	-4.369029	-0.000091	-0.907558	-0.307489	-0.007282
 163	8.1000e-02	6.4971	-4.150578	0.000545	5.445349	1.844934	0.043690
 164	8.1500e-02	6.5549	-4.114169	0.000091	0.907558	0.307489	0.007282
 165	8.2000e-02	6.5998	-4.041352	0.000182	1.815116	0.614978	0.014563
 166	8.2500e-02	6.6431	-3.531632	0.001271	12.705815	4.304847	0.101944
 167	8.3000e-02	6.6768	-4.077761	-0.001361	-13.613373	-4.612336	-0.109226
 168	8.3500e-02	6.7201	-3.750083	0.000817	8.168024	2.767401	0.065535
 169	8.4000e-02	6.7634	-3.895718	-0.000363	-3.630233	-1.229956	-0.029127
 170	8.4500e-02	6.8052	-3.495223	0.000998	9.983140	3.382379	0.080099
 171	8.5000e-02	6.8469	-3.385998	0.000272	2.722675	0.922467	0.021845
 172	8.5500e-02	6.8693	-3.531632	-0.000363	-3.630233	-1.229956	-0.029127
 173	8.6000e-02	6.9158	-3.167546	0.000908	9.075582	3.074890	0.072817
 174	8.6500e-02	6.9640	-3.240363	-0.000182	-1.815116	-0.614978	-0.014563
 175	8.7000e-02	7.0057	-3.313181	-0.000182	-1.815116	-0.614978	-0.014563
 176	8.7500e-02	7.0618	-2.949095	0.000908	9.075582	3.074890	0.072817
 177	8.8000e-02	7.0650	-2.949095	0.000000	0.000000	0.000000	0.000000
 178	8.8500e-02	7.1308	-2.730643	0.000545	5.445349	1.844934	0.043690
 179	8.9000e-02	7.1453	-3.167546	-0.001089	-10.890698	-3.689868	-0.087381
 180	8.9500e-02	7.1838	-2.657826	0.001271	12.705815	4.304847	0.101944
 181	9.0000e-02	7.2367	-2.657826	0.000000	0.000000	0.000000	0.000000
 182	9.0500e-02	7.2816	-2.657826	0.000000	0.000000	0.000000	0.000000
 183	9.1000e-02	7.3249	-2.111697	0.001361	13.613373	4.612336	0.109226
 184	9.1500e-02	7.3714	-2.002472	0.000272	2.722675	0.922467	0.021845
 185	9.2000e-02	7.3827	-2.293740	-0.000726	-7.260465	-2.459912	-0.058254
 186	9.2500e-02	7.4372	-2.038880	0.000635	6.352907	2.152423	0.050972
 187	9.3000e-02	7.4645	-1.820429	0.000545	5.445349	1.844934	0.043690
 188	9.3500e-02	7.5463	-1.856837	-0.000091	-0.907558	-0.307489	-0.007282
 189	9.4000e-02	7.5575	-1.856837	0.000000	0.000000	0.000000	0.000000
 190	9.4500e-02	7.5993	-1.893246	-0.000091	-0.907558	-0.307489	-0.007282
 191	9.5000e-02	7.6442	-1.893246	0.000000	0.000000	0.000000	0.000000
 192	9.5500e-02	7.6586	-1.856837	0.000091	0.907558	0.307489	0.007282
 193	9.6000e-02	7.7308	-1.237892	0.001543	15.428489	5.227314	0.123789
 194	9.6500e-02	7.7597	-2.038880	-0.001997	-19.966280	-6.764759	-0.160198
 195	9.7000e-02	7.7950	-1.456343	0.001452	14.520931	4.919825	0.116507
 196	9.7500e-02	7.8351	-1.347117	0.000272	2.722675	0.922467	0.021845
 197	9.8000e-02	7.8960	-0.983032	0.000908	9.075582	3.074890	0.072817
 198	9.8500e-02	7.9073	-1.310709	-0.000817	-8.168024	-2.767401	-0.065535
 199	9.9000e-02	7.9843	-1.019440	0.000726	7.260465	2.459912	0.058254
 200	9.9500e-02	7.9891	-1.092257	-0.000182	-1.815116	-0.614978	-0.014563
 201	1.0000e-01	8.0324	-1.019440	0.000182	1.815116	0.614978	0.014563
 202	1.0050e-01	8.0853	-0.946623	0.000182	1.815116	0.614978	0.014563
 203	1.0100e-01	8.1206	-0.691763	0.000635	6.352907	2.152423	0.050972
 204	1.0150e-01	8.1768	-0.873806	-0.000454	-4.537791	-1.537445	-0.036409
 205	1.0200e-01	8.1816	-0.582537	0.000726	7.260465	2.459912	0.058254
 206	1.0250e-01	8.2377	-0.327677	0.000635	6.352907	2.152423	0.050972
 207	1.0300e-01	8.2827	-0.364086	-0.000091	-0.907558	-0.307489	-0.007282
 208	1.0350e-01	8.3115	-0.364086	0.000000	0.000000	0.000000	0.000000
 209	1.0400e-01	8.3516	-0.509720	-0.000363	-3.630233	-1.229956	-0.029127
 210	1.0450e-01	8.4014	0.218451	0.001815	18.151164	6.149781	0.145634
 211	1.0500e-01	8.4270	-0.291269	-0.001271	-12.705815	-4.304847	-0.101944
 212	1.0550e-01	8.4655	-0.072817	0.000545	5.445349	1.844934	0.043690
 213	1.0600e-01	8.5169	0.036409	0.000272	2.722675	0.922467	0.021845
 214	1.0650e-01	8.5634	0.400494	0.000908	9.075582	3.074890	0.072817
 215	1.0700e-01	8.5939	0.436903	0.000091	0.907558	0.307489	0.007282
 216	1.0750e-01	8.6372	0.436903	0.000000	0.000000	0.000000	0.000000
 217	1.0800e-01	8.6821	0.582537	0.000363	3.630233	1.229956	0.029127
 218	1.0850e-01	8.7206	0.473312	-0.000272	-2.722675	-0.922467	-0.021845
 219	1.0900e-01	8.7591	0.364086	-0.000272	-2.722675	-0.922467	-0.021845
 220	1.0950e-01	8.8104	0.837397	0.001180	11.798256	3.997357	0.094662
 221	1.1000e-01	8.8441	0.509720	-0.000817	-8.168024	-2.767401	-0.065535
 222	1.1050e-01	8.8778	1.055849	0.001361	13.613373	4.612336	0.109226
 223	1.1100e-01	8.9260	0.910214	-0.000363	-3.630233	-1.229956	-0.029127
 224	1.1150e-01	8.9628	0.728172	-0.000454	-4.537791	-1.537445	-0.036409
 225	1.1200e-01	8.9997	0.983032	0.000635	6.352907	2.152423	0.050972
 226	1.1250e-01	9.0447	1.201483	0.000545	5.445349	1.844934	0.043690
 227	1.1300e-01	9.0880	1.055849	-0.000363	-3.630233	-1.229956	-0.029127
 228	1.1350e-01	9.1313	1.419935	0.000908	9.075582	3.074890	0.072817
 229	1.1400e-01	9.1826	1.165074	-0.000635	-6.352907	-2.152423	-0.050972
 230	1.1450e-01	9.2147	1.274300	0.000272	2.722675	0.922467	0.021845
 231	1.1500e-01	9.2484	1.201483	-0.000182	-1.815116	-0.614978	-0.014563
 232	1.1550e-01	9.2821	1.638386	0.001089	10.890698	3.689868	0.087381
 233	1.1600e-01	9.3110	1.529160	-0.000272	-2.722675	-0.922467	-0.021845
 234	1.1650e-01	9.3687	1.601977	0.000182	1.815116	0.614978	0.014563
 235	1.1700e-01	9.4168	2.038880	0.001089	10.890698	3.689868	0.087381
 236	1.1750e-01	9.4441	1.856837	-0.000454	-4.537791	-1.537445	-0.036409
 237	1.1800e-01	9.4858	1.856837	0.000000	0.000000	0.000000	0.000000
 238	1.1850e-01	9.5356	2.257332	0.000998	9.983140	3.382379	0.080099
 239	1.1900e-01	9.5564	2.220923	-0.000091	-0.907558	-0.307489	-0.007282
 240	1.1950e-01	9.6126	2.548600	0.000817	8.168024	2.767401	0.065535
 241	1.2000e-01	9.6318	2.402966	-0.000363	-3.630233	-1.229956	-0.029127
 242	1.2050e-01	9.6751	2.330149	-0.000182	-1.815116	-0.614978	-0.014563
 243	1.2100e-01	9.7088	2.402966	0.000182	1.815116	0.614978	0.014563
 244	1.2150e-01	9.7778	2.839869	0.001089	10.890698	3.689868	0.087381
 245	1.2200e-01	9.7954	2.439375	-0.000998	-9.983140	-3.382379	-0.080099
 246	1.2250e-01	9.8484	2.839869	0.000998	9.983140	3.382379	0.080099
 247	1.2300e-01	9.8644	2.803460	-0.000091	-0.907558	-0.307489	-0.007282
 248	1.2350e-01	9.9366	2.985503	0.000454	4.537791	1.537445	0.036409
 249	1.2400e-01	9.9543	2.876278	-0.000272	-2.722675	-0.922467	-0.021845
 250	1.2450e-01	10.0040	2.949095	0.000182	1.815116	0.614978	0.014563
 251	1.2500e-01	10.0409	3.276772	0.000817	8.168024	2.767401	0.065535
 252	1.2550e-01	10.0682	3.313181	0.000091	0.907558	0.307489	0.007282
 253	1.2600e-01	10.1163	3.167546	-0.000363	-3.630233	-1.229956	-0.029127
 254	1.2650e-01	10.1516	3.276772	0.000272	2.722675	0.922467	0.021845
 255	1.2700e-01	10.1917	3.677266	0.000998	9.983140	3.382379	0.080099
 256	1.2750e-01	10.2607	3.458815	-0.000545	-5.445349	-1.844934	-0.043690
 257	1.2800e-01	10.2879	3.531632	0.000182	1.815116	0.614978	0.014563
 258	1.2850e-01	10.3168	4.041352	0.001271	12.705815	4.304847	0.101944
