»»»»»»»»»»»»»»»»»»»»»»»»»»»»»»»»»»»» Hysteresis ««««««««««««««««««««««««««««««««««««
»»»  Executed Version:	5.48.1
»»»  Vision Version:	5.48.4 (R)
»»»  Vision Compiled:	9/18/24
»»»  Driver Version:	5.47.0
»»»  Windows Version:	Windows 8 or 8.1
»»»  Processor Information:	x86 (AMD or Intel) - 32 Processors
»»»  Tester Name:	PMF21124-494 (100V)
»»»  Tester S/N:	PMF21124-494
»»»  Internal Amp Type:	100V RevK 270k
»»»  Internal Amp S/N:	iAB2-596/K     
»»»  Execution Count:	1
»»»»»»»»»»»»»»»»»»»»»»»»»»»»»»»»»»»»»»»»»»««««««««««««««««««««««««««««««««««««««««««

Stored:	10/7/2025 - 18:31:57
Configured:	10/07/25 05:55:09 PM
Executed:	10/07/25 06:30:57 PM

»»»»»»»»»»»»»»»»»»»»»»»»»»»»»»»»»»» Sample Info ««««««««««««««««««««««««««««««««««««
Sample Name:	Int. Ref. Ferroelectric
Lot Name:	N/A
Wafer Name:	N/A
Die Row/Column:	0/0
Capacitor Number:	0
Sample Area (cm2):	1.00e-04
Sample Thickness (microns):	3.00e-01

Amplifier:	Internal

»»»»»»»»»»»»»»»»»»»»»»»»»»»»»»»»»»» Tester Info «««««««««««««««««««««««««««««««««««
Tester Name:	PMF21124-494 (100V)
Tester Serial Number:	PMF21124-494
Return Signal Amp. Level:	0.02 [Index: 2]

»»»»»»»»»»»»»»»»»»»»»»»»»»»»»»»» Hysteresis Info ««««««««««««««««««««««««««««««««««
Task Name:	Hyst-1
Volts:	20.00
Field:	666.67 (kV/cm)
DCBias:	0.00
DCField:	0.00 (kV/cm)
Hysteresis Period (ms):	5.00e-01
Preset:	Enabled
Preset Delay (ms):	1.00e+03
Profile:	Standard Monopolar

»»»»»»»»»»»»»»»»»»»»»»»»»»»»»»»»»»»»»» Data «««««««««««««««««««««««««««««««««««««««
Points:	1001

Valid Data

Point	Time (ms)	Drive Voltage	Measured Polarization (uC/cm2)	Capacitance (uF)	Normalized Capacitance (uF/cm2)	Dielectric Constant	Instantaneous Current (mA)
   1	0.0000e+00	0.0401	-29.472743	-0.000634	-6.336911	-2.147003	-0.050972
   2	5.0000e-04	0.0481	-29.727603	-0.000634	-6.336911	-2.147003	-0.050972
   3	1.0000e-03	0.1091	-29.108657	0.001539	15.389640	5.214151	0.123789
   4	1.5000e-03	0.1348	-28.853797	0.000634	6.336911	2.147003	0.050972
   5	2.0000e-03	0.1861	-28.999432	-0.000362	-3.621092	-1.226859	-0.029127
   6	2.5000e-03	0.2342	-28.817389	0.000453	4.526365	1.533574	0.036409
   7	3.0000e-03	0.2647	-28.671754	0.000362	3.621092	1.226859	0.029127
   8	3.5000e-03	0.2888	-28.744572	-0.000181	-1.810546	-0.613430	-0.014563
   9	4.0000e-03	0.3241	-28.271260	0.001177	11.768549	3.987292	0.094662
  10	4.5000e-03	0.3882	-27.907174	0.000905	9.052730	3.067148	0.072817
  11	5.0000e-03	0.4396	-27.870766	0.000091	0.905273	0.306715	0.007282
  12	5.5000e-03	0.4813	-27.979991	-0.000272	-2.715819	-0.920144	-0.021845
  13	6.0000e-03	0.5085	-27.433863	0.001358	13.579095	4.600722	0.109226
  14	6.5000e-03	0.5711	-27.324637	0.000272	2.715819	0.920144	0.021845
  15	7.0000e-03	0.5904	-27.106186	0.000543	5.431638	1.840289	0.043690
  16	7.5000e-03	0.6160	-27.069777	0.000091	0.905273	0.306715	0.007282
  17	8.0000e-03	0.6401	-26.669283	0.000996	9.958003	3.373863	0.080099
  18	8.5000e-03	0.7235	-26.742100	-0.000181	-1.810546	-0.613430	-0.014563
  19	9.0000e-03	0.7347	-26.086745	0.001629	16.294913	5.520866	0.131071
  20	9.5000e-03	0.7957	-25.868294	0.000543	5.431638	1.840289	0.043690
  21	1.0000e-02	0.8294	-26.195971	-0.000815	-8.147457	-2.760433	-0.065535
  22	1.0500e-02	0.8535	-26.013928	0.000453	4.526365	1.533574	0.036409
  23	1.1000e-02	0.9016	-25.467800	0.001358	13.579095	4.600722	0.109226
  24	1.1500e-02	0.9240	-25.103714	0.000905	9.052730	3.067148	0.072817
  25	1.2000e-02	0.9898	-25.103714	0.000000	0.000000	0.000000	0.000000
  26	1.2500e-02	1.0460	-25.067305	0.000091	0.905273	0.306715	0.007282
  27	1.3000e-02	1.0829	-24.848854	0.000543	5.431638	1.840289	0.043690
  28	1.3500e-02	1.1358	-24.885262	-0.000091	-0.905273	-0.306715	-0.007282
  29	1.4000e-02	1.1390	-24.339134	0.001358	13.579095	4.600722	0.109226
  30	1.4500e-02	1.1839	-24.666811	-0.000815	-8.147457	-2.760433	-0.065535
  31	1.5000e-02	1.2497	-24.157091	0.001267	12.673822	4.294007	0.101944
  32	1.5500e-02	1.2898	-24.157091	0.000000	0.000000	0.000000	0.000000
  33	1.6000e-02	1.3155	-23.975048	0.000453	4.526365	1.533574	0.036409
  34	1.6500e-02	1.3636	-23.902231	0.000181	1.810546	0.613430	0.014563
  35	1.7000e-02	1.3877	-23.428919	0.001177	11.768549	3.987292	0.094662
  36	1.7500e-02	1.4278	-23.283285	0.000362	3.621092	1.226859	0.029127
  37	1.8000e-02	1.4727	-23.246876	0.000091	0.905273	0.306715	0.007282
  38	1.8500e-02	1.4967	-22.809973	0.001086	10.863276	3.680577	0.087381
  39	1.9000e-02	1.5577	-22.700748	0.000272	2.715819	0.920144	0.021845
  40	1.9500e-02	1.5882	-22.737156	-0.000091	-0.905273	-0.306715	-0.007282
  41	2.0000e-02	1.6283	-22.300253	0.001086	10.863276	3.680577	0.087381
  42	2.0500e-02	1.6556	-22.555113	-0.000634	-6.336911	-2.147003	-0.050972
  43	2.1000e-02	1.6989	-21.826942	0.001811	18.105459	6.134296	0.145634
  44	2.1500e-02	1.7550	-22.373071	-0.001358	-13.579095	-4.600722	-0.109226
  45	2.2000e-02	1.7903	-21.499265	0.002173	21.726551	7.361155	0.174761
  46	2.2500e-02	1.8192	-21.644899	-0.000362	-3.621092	-1.226859	-0.029127
  47	2.3000e-02	1.8753	-20.880319	0.001901	19.010732	6.441010	0.152916
  48	2.3500e-02	1.9074	-21.317222	-0.001086	-10.863276	-3.680577	-0.087381
  49	2.4000e-02	1.9524	-21.025953	0.000724	7.242184	2.453718	0.058254
  50	2.4500e-02	1.9973	-21.244405	-0.000543	-5.431638	-1.840289	-0.043690
  51	2.5000e-02	2.0245	-21.171588	0.000181	1.810546	0.613430	0.014563
  52	2.5500e-02	2.0791	-20.479825	0.001720	17.200186	5.827581	0.138353
  53	2.6000e-02	2.1096	-20.916727	-0.001086	-10.863276	-3.680577	-0.087381
  54	2.6500e-02	2.1384	-20.516233	0.000996	9.958003	3.373863	0.080099
  55	2.7000e-02	2.2203	-20.334190	0.000453	4.526365	1.533574	0.036409
  56	2.7500e-02	2.2363	-19.970104	0.000905	9.052730	3.067148	0.072817
  57	2.8000e-02	2.2668	-19.970104	0.000000	0.000000	0.000000	0.000000
  58	2.8500e-02	2.2989	-19.423976	0.001358	13.579095	4.600722	0.109226
  59	2.9000e-02	2.3550	-19.678836	-0.000634	-6.336911	-2.147003	-0.050972
  60	2.9500e-02	2.4128	-19.533202	0.000362	3.621092	1.226859	0.029127
  61	3.0000e-02	2.4368	-18.950664	0.001448	14.484367	4.907437	0.116507
  62	3.0500e-02	2.4657	-19.278342	-0.000815	-8.147457	-2.760433	-0.065535
  63	3.1000e-02	2.5138	-18.404536	0.002173	21.726551	7.361155	0.174761
  64	3.1500e-02	2.5620	-18.732213	-0.000815	-8.147457	-2.760433	-0.065535
  65	3.2000e-02	2.6021	-18.659396	0.000181	1.810546	0.613430	0.014563
  66	3.2500e-02	2.5924	-18.404536	-0.000634	-6.336911	-2.147003	0.050972
  67	3.3000e-02	2.6518	-18.040450	0.000905	9.052730	3.067148	0.072817
  68	3.3500e-02	2.6983	-17.858407	0.000453	4.526365	1.533574	0.036409
  69	3.4000e-02	2.7561	-18.258901	-0.000996	-9.958003	-3.373863	-0.080099
  70	3.4500e-02	2.7994	-17.712773	0.001358	13.579095	4.600722	0.109226
  71	3.5000e-02	2.8331	-17.785590	-0.000181	-1.810546	-0.613430	-0.014563
  72	3.5500e-02	2.8571	-17.567138	0.000543	5.431638	1.840289	0.043690
  73	3.6000e-02	2.9197	-17.275870	0.000724	7.242184	2.453718	0.058254
  74	3.6500e-02	2.9598	-17.457913	-0.000453	-4.526365	-1.533574	-0.036409
  75	3.7000e-02	2.9759	-16.838967	0.001539	15.389640	5.214151	0.123789
  76	3.7500e-02	3.0368	-16.875375	-0.000091	-0.905273	-0.306715	-0.007282
  77	3.8000e-02	3.0785	-16.838967	0.000091	0.905273	0.306715	0.007282
  78	3.8500e-02	3.1234	-16.802558	0.000091	0.905273	0.306715	0.007282
  79	3.9000e-02	3.1315	-16.511290	0.000724	7.242184	2.453718	0.058254
  80	3.9500e-02	3.1988	-16.256430	0.000634	6.336911	2.147003	0.050972
  81	4.0000e-02	3.2101	-16.001570	0.000634	6.336911	2.147003	0.050972
  82	4.0500e-02	3.2438	-16.074387	-0.000181	-1.810546	-0.613430	-0.014563
  83	4.1000e-02	3.3159	-16.074387	0.000000	0.000000	0.000000	0.000000
  84	4.1500e-02	3.3593	-15.637484	0.001086	10.863276	3.680577	0.087381
  85	4.2000e-02	3.3930	-15.601075	0.000091	0.905273	0.306715	0.007282
  86	4.2500e-02	3.4315	-15.455441	0.000362	3.621092	1.226859	0.029127
  87	4.3000e-02	3.4716	-15.273398	0.000453	4.526365	1.533574	0.036409
  88	4.3500e-02	3.5117	-15.309807	-0.000091	-0.905273	-0.306715	-0.007282
  89	4.4000e-02	3.5662	-15.054947	0.000634	6.336911	2.147003	0.050972
  90	4.4500e-02	3.6031	-14.945721	0.000272	2.715819	0.920144	0.021845
  91	4.5000e-02	3.6031	-14.654452	-0.000724	-7.242184	-2.453718	0.058254
  92	4.5500e-02	3.7042	-14.618044	0.000091	0.905273	0.306715	0.007282
  93	4.6000e-02	3.7106	-14.508818	0.000272	2.715819	0.920144	0.021845
  94	4.6500e-02	3.7683	-14.581635	-0.000181	-1.810546	-0.613430	-0.014563
  95	4.7000e-02	3.7924	-14.144732	0.001086	10.863276	3.680577	0.087381
  96	4.7500e-02	3.8357	-14.108324	0.000091	0.905273	0.306715	0.007282
  97	4.8000e-02	3.8742	-13.962689	0.000362	3.621092	1.226859	0.029127
  98	4.8500e-02	3.9111	-14.144732	-0.000453	-4.526365	-1.533574	-0.036409
  99	4.9000e-02	3.9272	-13.525786	0.001539	15.389640	5.214151	0.123789
 100	4.9500e-02	4.0154	-13.671421	-0.000362	-3.621092	-1.226859	-0.029127
 101	5.0000e-02	4.0314	-13.452969	0.000543	5.431638	1.840289	0.043690
 102	5.0500e-02	4.0764	-13.125292	0.000815	8.147457	2.760433	0.065535
 103	5.1000e-02	4.1181	-13.270926	-0.000362	-3.621092	-1.226859	-0.029127
 104	5.1500e-02	4.1710	-12.834023	0.001086	10.863276	3.680577	0.087381
 105	5.2000e-02	4.2111	-13.052475	-0.000543	-5.431638	-1.840289	-0.043690
 106	5.2500e-02	4.2624	-12.542755	0.001267	12.673822	4.294007	0.101944
 107	5.3000e-02	4.3026	-12.579163	-0.000091	-0.905273	-0.306715	-0.007282
 108	5.3500e-02	4.3330	-12.142260	0.001086	10.863276	3.680577	0.087381
 109	5.4000e-02	4.3298	-12.433529	0.000724	7.242184	2.453718	-0.058254
 110	5.4500e-02	4.4020	-11.960218	0.001177	11.768549	3.987292	0.094662
 111	5.5000e-02	4.4100	-11.559723	0.000996	9.958003	3.373863	0.080099
 112	5.5500e-02	4.4935	-11.632540	-0.000181	-1.810546	-0.613430	-0.014563
 113	5.6000e-02	4.5175	-11.887400	-0.000634	-6.336911	-2.147003	-0.050972
 114	5.6500e-02	4.5287	-11.195637	0.001720	17.200186	5.827581	0.138353
 115	5.7000e-02	4.6218	-11.523315	-0.000815	-8.147457	-2.760433	-0.065535
 116	5.7500e-02	4.6202	-11.268455	-0.000634	-6.336911	-2.147003	0.050972
 117	5.8000e-02	4.6795	-11.195637	0.000181	1.810546	0.613430	0.014563
 118	5.8500e-02	4.7180	-11.050003	0.000362	3.621092	1.226859	0.029127
 119	5.9000e-02	4.7421	-11.013595	0.000091	0.905273	0.306715	0.007282
 120	5.9500e-02	4.8191	-10.503874	0.001267	12.673822	4.294007	0.101944
 121	6.0000e-02	4.8432	-10.613100	-0.000272	-2.715819	-0.920144	-0.021845
 122	6.0500e-02	4.8737	-10.940777	-0.000815	-8.147457	-2.760433	-0.065535
 123	6.1000e-02	4.8945	-10.394649	0.001358	13.579095	4.600722	0.109226
 124	6.1500e-02	4.9523	-10.285423	0.000272	2.715819	0.920144	0.021845
 125	6.2000e-02	4.9924	-9.921337	0.000905	9.052730	3.067148	0.072817
 126	6.2500e-02	5.0373	-9.702886	0.000543	5.431638	1.840289	0.043690
 127	6.3000e-02	5.0870	-10.066972	-0.000905	-9.052730	-3.067148	-0.072817
 128	6.3500e-02	5.1111	-9.448026	0.001539	15.389640	5.214151	0.123789
 129	6.4000e-02	5.1528	-9.702886	-0.000634	-6.336911	-2.147003	-0.050972
 130	6.4500e-02	5.2122	-9.229574	0.001177	11.768549	3.987292	0.094662
 131	6.5000e-02	5.2426	-9.411617	-0.000453	-4.526365	-1.533574	-0.036409
 132	6.5500e-02	5.2683	-9.302391	0.000272	2.715819	0.920144	0.021845
 133	6.6000e-02	5.3036	-9.229574	0.000181	1.810546	0.613430	0.014563
 134	6.6500e-02	5.3469	-8.865488	0.000905	9.052730	3.067148	0.072817
 135	6.7000e-02	5.4031	-8.719854	0.000362	3.621092	1.226859	0.029127
 136	6.7500e-02	5.4287	-8.610628	0.000272	2.715819	0.920144	0.021845
 137	6.8000e-02	5.4929	-8.610628	0.000000	0.000000	0.000000	0.000000
 138	6.8500e-02	5.4993	-8.173726	0.001086	10.863276	3.680577	0.087381
 139	6.9000e-02	5.5603	-8.246543	-0.000181	-1.810546	-0.613430	-0.014563
 140	6.9500e-02	5.5940	-8.137317	0.000272	2.715819	0.920144	0.021845
 141	7.0000e-02	5.6357	-8.246543	-0.000272	-2.715819	-0.920144	-0.021845
 142	7.0500e-02	5.6565	-7.991683	0.000634	6.336911	2.147003	0.050972
 143	7.1000e-02	5.6790	-7.627597	0.000905	9.052730	3.067148	0.072817
 144	7.1500e-02	5.7512	-7.409145	0.000543	5.431638	1.840289	0.043690
 145	7.2000e-02	5.8266	-7.154285	0.000634	6.336911	2.147003	0.050972
 146	7.2500e-02	5.8282	-7.664005	-0.001267	-12.673822	-4.294007	-0.101944
 147	7.3000e-02	5.8795	-7.227103	0.001086	10.863276	3.680577	0.087381
 148	7.3500e-02	5.9244	-7.045060	0.000453	4.526365	1.533574	0.036409
 149	7.4000e-02	5.9790	-7.154285	-0.000272	-2.715819	-0.920144	-0.021845
 150	7.4500e-02	5.9710	-6.899425	-0.000634	-6.336911	-2.147003	0.050972
 151	7.5000e-02	6.0223	-6.644565	0.000634	6.336911	2.147003	0.050972
 152	7.5500e-02	6.0865	-6.899425	-0.000634	-6.336911	-2.147003	-0.050972
 153	7.6000e-02	6.1234	-6.280480	0.001539	15.389640	5.214151	0.123789
 154	7.6500e-02	6.1314	-6.244071	0.000091	0.905273	0.306715	0.007282
 155	7.7000e-02	6.2020	-6.207662	0.000091	0.905273	0.306715	0.007282
 156	7.7500e-02	6.2340	-6.062028	0.000362	3.621092	1.226859	0.029127
 157	7.8000e-02	6.2822	-5.879985	0.000453	4.526365	1.533574	0.036409
 158	7.8500e-02	6.3207	-6.171254	-0.000724	-7.242184	-2.453718	-0.058254
 159	7.9000e-02	6.3560	-5.661534	0.001267	12.673822	4.294007	0.101944
 160	7.9500e-02	6.4025	-5.916394	-0.000634	-6.336911	-2.147003	-0.050972
 161	8.0000e-02	6.4570	-5.588717	0.000815	8.147457	2.760433	0.065535
 162	8.0500e-02	6.4731	-5.588717	0.000000	0.000000	0.000000	0.000000
 163	8.1000e-02	6.4875	-5.042588	0.001358	13.579095	4.600722	0.109226
 164	8.1500e-02	6.5613	-5.261039	-0.000543	-5.431638	-1.840289	-0.043690
 165	8.2000e-02	6.6239	-5.042588	0.000543	5.431638	1.840289	0.043690
 166	8.2500e-02	6.6415	-5.224631	-0.000453	-4.526365	-1.533574	-0.036409
 167	8.3000e-02	6.6768	-5.006179	0.000543	5.431638	1.840289	0.043690
 168	8.3500e-02	6.6993	-4.642094	0.000905	9.052730	3.067148	0.072817
 169	8.4000e-02	6.7490	-4.569276	0.000181	1.810546	0.613430	0.014563
 170	8.4500e-02	6.7955	-4.387234	0.000453	4.526365	1.533574	0.036409
 171	8.5000e-02	6.8404	-4.205191	0.000453	4.526365	1.533574	0.036409
 172	8.5500e-02	6.8709	-4.241599	-0.000091	-0.905273	-0.306715	-0.007282
 173	8.6000e-02	6.9207	-3.549836	0.001720	17.200186	5.827581	0.138353
 174	8.6500e-02	6.9479	-3.877513	-0.000815	-8.147457	-2.760433	-0.065535
 175	8.7000e-02	7.0073	-3.877513	0.000000	0.000000	0.000000	0.000000
 176	8.7500e-02	7.0330	-3.768288	0.000272	2.715819	0.920144	0.021845
 177	8.8000e-02	7.0666	-3.659062	0.000272	2.715819	0.920144	0.021845
 178	8.8500e-02	7.1164	-3.331385	0.000815	8.147457	2.760433	0.065535
 179	8.9000e-02	7.1549	-3.112933	0.000543	5.431638	1.840289	0.043690
 180	8.9500e-02	7.2078	-2.821665	0.000724	7.242184	2.453718	0.058254
 181	9.0000e-02	7.2110	-2.858073	-0.000091	-0.905273	-0.306715	-0.007282
 182	9.0500e-02	7.2736	-2.821665	0.000091	0.905273	0.306715	0.007282
 183	9.1000e-02	7.3201	-2.676030	0.000362	3.621092	1.226859	0.029127
 184	9.1500e-02	7.3666	-2.676030	0.000000	0.000000	0.000000	0.000000
 185	9.2000e-02	7.3971	-2.421170	0.000634	6.336911	2.147003	0.050972
 186	9.2500e-02	7.4420	-2.493988	-0.000181	-1.810546	-0.613430	-0.014563
 187	9.3000e-02	7.4934	-2.457579	0.000091	0.905273	0.306715	0.007282
 188	9.3500e-02	7.4918	-2.457579	-0.000000	-0.000000	-0.000000	0.000000
 189	9.4000e-02	7.5367	-1.947859	0.001267	12.673822	4.294007	0.101944
 190	9.4500e-02	7.5848	-1.984267	-0.000091	-0.905273	-0.306715	-0.007282
 191	9.5000e-02	7.6410	-1.802225	0.000453	4.526365	1.533574	0.036409
 192	9.5500e-02	7.6698	-2.057085	-0.000634	-6.336911	-2.147003	-0.050972
 193	9.6000e-02	7.6971	-1.292504	0.001901	19.010732	6.441010	0.152916
 194	9.6500e-02	7.7565	-1.838633	-0.001358	-13.579095	-4.600722	-0.109226
 195	9.7000e-02	7.7998	-0.964827	0.002173	21.726551	7.361155	0.174761
 196	9.7500e-02	7.8254	-1.292504	-0.000815	-8.147457	-2.760433	-0.065535
 197	9.8000e-02	7.8768	-1.037644	0.000634	6.336911	2.147003	0.050972
 198	9.8500e-02	7.9121	-1.037644	0.000000	0.000000	0.000000	0.000000
 199	9.9000e-02	7.9682	-1.037644	0.000000	0.000000	0.000000	0.000000
 200	9.9500e-02	7.9746	-0.964827	0.000181	1.810546	0.613430	0.014563
 201	1.0000e-01	8.0372	-0.564333	0.000996	9.958003	3.373863	0.080099
 202	1.0050e-01	8.0645	-0.309473	0.000634	6.336911	2.147003	0.050972
 203	1.0100e-01	8.0661	-0.673559	-0.000905	-9.052730	-3.067148	-0.072817
 204	1.0150e-01	8.1367	-0.345881	0.000815	8.147457	2.760433	0.065535
 205	1.0200e-01	8.1848	-0.273064	0.000181	1.810546	0.613430	0.014563
 206	1.0250e-01	8.2153	-0.054613	0.000543	5.431638	1.840289	0.043690
 207	1.0300e-01	8.2730	0.091021	0.000362	3.621092	1.226859	0.029127
 208	1.0350e-01	8.3115	-0.091021	-0.000453	-4.526365	-1.533574	-0.036409
 209	1.0400e-01	8.3420	0.127430	0.000543	5.431638	1.840289	0.043690
 210	1.0450e-01	8.3966	0.455107	0.000815	8.147457	2.760433	0.065535
 211	1.0500e-01	8.4286	0.309473	-0.000362	-3.621092	-1.226859	-0.029127
 212	1.0550e-01	8.4687	0.782784	0.001177	11.768549	3.987292	0.094662
 213	1.0600e-01	8.5137	0.527924	-0.000634	-6.336911	-2.147003	-0.050972
 214	1.0650e-01	8.5345	0.892010	0.000905	9.052730	3.067148	0.072817
 215	1.0700e-01	8.5955	1.074053	0.000453	4.526365	1.533574	0.036409
 216	1.0750e-01	8.6260	1.365322	0.000724	7.242184	2.453718	0.058254
 217	1.0800e-01	8.6661	1.328913	-0.000091	-0.905273	-0.306715	-0.007282
 218	1.0850e-01	8.7254	1.110462	-0.000543	-5.431638	-1.840289	-0.043690
 219	1.0900e-01	8.7527	1.292504	0.000453	4.526365	1.533574	0.036409
 220	1.0950e-01	8.7912	1.984267	0.001720	17.200186	5.827581	0.138353
 221	1.1000e-01	8.8297	1.620182	-0.000905	-9.052730	-3.067148	-0.072817
 222	1.1050e-01	8.8618	1.802225	0.000453	4.526365	1.533574	0.036409
 223	1.1100e-01	8.9260	1.875042	0.000181	1.810546	0.613430	0.014563
 224	1.1150e-01	8.9436	1.947859	0.000181	1.810546	0.613430	0.014563
 225	1.1200e-01	9.0030	1.984267	0.000091	0.905273	0.306715	0.007282
 226	1.1250e-01	9.0495	2.239127	0.000634	6.336911	2.147003	0.050972
 227	1.1300e-01	9.0719	2.239127	0.000000	0.000000	0.000000	0.000000
 228	1.1350e-01	9.1088	2.311945	0.000181	1.810546	0.613430	0.014563
 229	1.1400e-01	9.1586	2.676030	0.000905	9.052730	3.067148	0.072817
 230	1.1450e-01	9.1971	2.676030	0.000000	0.000000	0.000000	0.000000
 231	1.1500e-01	9.2372	2.676030	0.000000	0.000000	0.000000	0.000000
 232	1.1550e-01	9.2644	3.040116	0.000905	9.052730	3.067148	0.072817
 233	1.1600e-01	9.2949	2.712439	-0.000815	-8.147457	-2.760433	-0.065535
 234	1.1650e-01	9.3543	3.331385	0.001539	15.389640	5.214151	0.123789
 235	1.1700e-01	9.3896	3.185750	-0.000362	-3.621092	-1.226859	-0.029127
 236	1.1750e-01	9.4265	3.404202	0.000543	5.431638	1.840289	0.043690
 237	1.1800e-01	9.4553	3.695471	0.000724	7.242184	2.453718	0.058254
 238	1.1850e-01	9.5051	3.513428	-0.000453	-4.526365	-1.533574	-0.036409
 239	1.1900e-01	9.5628	3.913922	0.000996	9.958003	3.373863	0.080099
 240	1.1950e-01	9.5981	3.440611	-0.001177	-11.768549	-3.987292	-0.094662
 241	1.2000e-01	9.6607	4.023148	0.001448	14.484367	4.907437	0.116507
 242	1.2050e-01	9.6767	4.095965	0.000181	1.810546	0.613430	0.014563
 243	1.2100e-01	9.7024	4.168782	0.000181	1.810546	0.613430	0.014563
 244	1.2150e-01	9.7425	4.132373	-0.000091	-0.905273	-0.306715	-0.007282
 245	1.2200e-01	9.8003	4.132373	0.000000	0.000000	0.000000	0.000000
 246	1.2250e-01	9.8291	4.460051	0.000815	8.147457	2.760433	0.065535
 247	1.2300e-01	9.8548	4.314416	-0.000362	-3.621092	-1.226859	-0.029127
 248	1.2350e-01	9.9093	4.496459	0.000453	4.526365	1.533574	0.036409
 249	1.2400e-01	9.9703	4.714911	0.000543	5.431638	1.840289	0.043690
 250	1.2450e-01	10.0088	4.751319	0.000091	0.905273	0.306715	0.007282
 251	1.2500e-01	10.0232	4.969771	0.000543	5.431638	1.840289	0.043690
 252	1.2550e-01	10.0746	5.078996	0.000272	2.715819	0.920144	0.021845
 253	1.2600e-01	10.1163	5.479491	0.000996	9.958003	3.373863	0.080099
 254	1.2650e-01	10.1468	5.188222	-0.000724	-7.242184	-2.453718	-0.058254
 255	1.2700e-01	10.1805	5.625125	0.001086	10.863276	3.680577	0.087381
 256	1.2750e-01	10.2093	5.515899	-0.000272	-2.715819	-0.920144	-0.021845
 257	1.2800e-01	10.2831	5.770759	0.000634	6.336911	2.147003	0.050972
 258	1.2850e-01	10.3200	5.952802	0.000453	4.526365	1.533574	0.036409
 259	1.2900e-01	10.3377	5.807168	-0.000362	-3.621092	-1.226859	-0.029127
