»»»»»»»»»»»»»»»»»»»»»»»»»»»»»»»»»»»» Hysteresis ««««««««««««««««««««««««««««««««««««
»»»  Executed Version:	5.48.1
»»»  Vision Version:	5.48.4 (R)
»»»  Vision Compiled:	9/18/24
»»»  Driver Version:	5.47.0
»»»  Windows Version:	Windows 8 or 8.1
»»»  Processor Information:	x86 (AMD or Intel) - 32 Processors
»»»  Tester Name:	PMF21124-494 (100V)
»»»  Tester S/N:	PMF21124-494
»»»  Internal Amp Type:	100V RevK 270k
»»»  Internal Amp S/N:	iAB2-596/K     
»»»  Execution Count:	1
»»»»»»»»»»»»»»»»»»»»»»»»»»»»»»»»»»»»»»»»»»««««««««««««««««««««««««««««««««««««««««««

Stored:	10/7/2025 - 19:9:28
Configured:	10/07/25 05:55:09 PM
Executed:	10/07/25 07:08:50 PM

»»»»»»»»»»»»»»»»»»»»»»»»»»»»»»»»»»» Sample Info ««««««««««««««««««««««««««««««««««««
Sample Name:	Int. Ref. Ferroelectric
Lot Name:	N/A
Wafer Name:	N/A
Die Row/Column:	0/0
Capacitor Number:	0
Sample Area (cm2):	1.00e-04
Sample Thickness (microns):	3.00e-01

Amplifier:	Internal

»»»»»»»»»»»»»»»»»»»»»»»»»»»»»»»»»»» Tester Info «««««««««««««««««««««««««««««««««««
Tester Name:	PMF21124-494 (100V)
Tester Serial Number:	PMF21124-494
Return Signal Amp. Level:	1.9 [Index: 2]

»»»»»»»»»»»»»»»»»»»»»»»»»»»»»»»» Hysteresis Info ««««««««««««««««««««««««««««««««««
Task Name:	Hyst-1
Volts:	20.00
Field:	666.67 (kV/cm)
DCBias:	0.00
DCField:	0.00 (kV/cm)
Hysteresis Period (ms):	1.00e+02
Preset:	Enabled
Preset Delay (ms):	1.00e+03
Profile:	Standard Monopolar

»»»»»»»»»»»»»»»»»»»»»»»»»»»»»»»»»»»»»» Data «««««««««««««««««««««««««««««««««««««««
Points:	2001

Valid Data

Point	Time (ms)	Drive Voltage	Measured Polarization (uC/cm2)	Capacitance (uF)	Normalized Capacitance (uF/cm2)	Dielectric Constant	Instantaneous Current (mA)
   1	0.0000e+00	0.0321	-22.148640	-0.000125	-1.247801	-0.422766	0.000054
   2	5.0000e-02	0.0305	-22.121756	-0.000125	-1.247801	-0.422766	0.000054
   3	1.0000e-01	0.0626	-22.067172	0.000253	2.533414	0.858344	0.000109
   4	1.5000e-01	0.0642	-22.011366	0.000259	2.590132	0.877561	0.000112
   5	2.0000e-01	0.1043	-21.942118	0.000321	3.214033	1.088944	0.000138
   6	2.5000e-01	0.1332	-21.884275	0.000268	2.684663	0.909588	0.000116
   7	3.0000e-01	0.1508	-21.821544	0.000291	2.911536	0.986455	0.000125
   8	3.5000e-01	0.1508	-21.759628	-0.000287	-2.873723	-0.973644	0.000124
   9	4.0000e-01	0.1813	-21.699341	0.000280	2.798099	0.948022	0.000121
  10	4.5000e-01	0.2005	-21.638647	0.000282	2.817005	0.954427	0.000121
  11	5.0000e-01	0.2102	-21.584063	0.000253	2.533414	0.858344	0.000109
  12	5.5000e-01	0.2310	-21.522962	0.000284	2.835911	0.960833	0.000122
  13	6.0000e-01	0.2535	-21.459417	0.000295	2.949348	0.999266	0.000127
  14	6.5000e-01	0.2743	-21.401574	0.000268	2.684663	0.909588	0.000116
  15	7.0000e-01	0.2888	-21.340065	0.000285	2.854817	0.967238	0.000123
  16	7.5000e-01	0.3273	-21.278557	0.000285	2.854817	0.967238	0.000123
  17	8.0000e-01	0.3369	-21.214604	0.000297	2.968254	1.005672	0.000128
  18	8.5000e-01	0.3561	-21.150651	0.000297	2.968254	1.005672	0.000128
  19	9.0000e-01	0.3658	-21.098104	0.000244	2.438884	0.826316	0.000105
  20	9.5000e-01	0.4011	-21.034966	0.000293	2.930442	0.992861	0.000126
  21	1.0000e+00	0.4139	-20.974272	0.000282	2.817005	0.954427	0.000121
  22	1.0500e+00	0.4508	-20.910726	0.000295	2.949348	0.999266	0.000127
  23	1.1000e+00	0.4540	-20.846773	0.000297	2.968254	1.005672	0.000128
  24	1.1500e+00	0.4797	-20.787301	0.000276	2.760287	0.935211	0.000119
  25	1.2000e+00	0.4781	-20.729866	-0.000267	-2.665757	-0.903183	0.000115
  26	1.2500e+00	0.5166	-20.667135	0.000291	2.911536	0.986455	0.000125
  27	1.3000e+00	0.5182	-20.603997	0.000293	2.930442	0.992861	0.000126
  28	1.3500e+00	0.5631	-20.547784	0.000261	2.609038	0.883966	0.000112
  29	1.4000e+00	0.5727	-20.481387	0.000308	3.081690	1.044105	0.000133
  30	1.4500e+00	0.6208	-20.420286	0.000284	2.835911	0.960833	0.000122
  31	1.5000e+00	0.6016	-20.363665	-0.000263	-2.627944	-0.890372	0.000113
  32	1.5500e+00	0.6465	-20.299712	0.000297	2.968254	1.005672	0.000128
  33	1.6000e+00	0.6609	-20.242277	0.000267	2.665757	0.903183	0.000115
  34	1.6500e+00	0.6722	-20.182398	0.000278	2.779193	0.941616	0.000120
  35	1.7000e+00	0.6866	-20.115594	0.000310	3.100596	1.050510	0.000134
  36	1.7500e+00	0.7091	-20.059380	0.000261	2.609038	0.883966	0.000112
  37	1.8000e+00	0.7283	-19.999094	0.000280	2.798099	0.948022	0.000121
  38	1.8500e+00	0.7476	-19.937992	0.000284	2.835911	0.960833	0.000122
  39	1.9000e+00	0.7797	-19.879742	0.000270	2.703569	0.915994	0.000116
  40	1.9500e+00	0.7989	-19.815382	0.000299	2.987160	1.012077	0.000129
  41	2.0000e+00	0.8246	-19.757539	0.000268	2.684663	0.909588	0.000116
  42	2.0500e+00	0.8358	-19.696438	0.000284	2.835911	0.960833	0.000122
  43	2.1000e+00	0.8502	-19.635744	0.000282	2.817005	0.954427	0.000121
  44	2.1500e+00	0.8743	-19.571791	0.000297	2.968254	1.005672	0.000128
  45	2.2000e+00	0.8952	-19.508246	0.000295	2.949348	0.999266	0.000127
  46	2.2500e+00	0.9224	-19.456106	0.000242	2.419978	0.819911	0.000104
  47	2.3000e+00	0.9305	-19.396227	0.000278	2.779193	0.941616	0.000120
  48	2.3500e+00	0.9593	-19.331052	0.000302	3.024972	1.024888	0.000130
  49	2.4000e+00	0.9770	-19.270358	0.000282	2.817005	0.954427	0.000121
  50	2.4500e+00	1.0203	-19.206405	0.000297	2.968254	1.005672	0.000128
  51	2.5000e+00	1.0235	-19.148970	0.000267	2.665757	0.903183	0.000115
  52	2.5500e+00	1.0379	-19.084610	0.000299	2.987160	1.012077	0.000129
  53	2.6000e+00	1.0716	-19.023508	0.000284	2.835911	0.960833	0.000122
  54	2.6500e+00	1.0829	-18.967295	0.000261	2.609038	0.883966	0.000112
  55	2.7000e+00	1.0925	-18.904157	0.000293	2.930442	0.992861	0.000126
  56	2.7500e+00	1.1149	-18.845499	0.000272	2.722475	0.922399	0.000117
  57	2.8000e+00	1.1470	-18.786842	0.000272	2.722475	0.922399	0.000117
  58	2.8500e+00	1.1711	-18.725741	0.000284	2.835911	0.960833	0.000122
  59	2.9000e+00	1.1919	-18.660973	0.000301	3.006066	1.018483	0.000130
  60	2.9500e+00	1.2048	-18.602316	0.000272	2.722475	0.922399	0.000117
  61	3.0000e+00	1.2272	-18.540807	0.000285	2.854817	0.967238	0.000123
  62	3.0500e+00	1.2497	-18.482965	0.000268	2.684663	0.909588	0.000116
  63	3.1000e+00	1.2641	-18.429603	0.000248	2.476696	0.839127	0.000107
  64	3.1500e+00	1.2754	-18.366872	0.000291	2.911536	0.986455	0.000125
  65	3.2000e+00	1.2914	-18.311473	0.000257	2.571226	0.871155	0.000111
  66	3.2500e+00	1.3155	-18.249150	0.000289	2.892630	0.980049	0.000125
  67	3.3000e+00	1.3411	-18.189678	0.000276	2.760287	0.935211	0.000119
  68	3.3500e+00	1.3588	-18.127762	0.000287	2.873723	0.973644	0.000124
  69	3.4000e+00	1.3796	-18.068290	0.000276	2.760287	0.935211	0.000119
  70	3.4500e+00	1.3861	-18.008411	0.000278	2.779193	0.941616	0.000120
  71	3.5000e+00	1.4165	-17.946902	0.000285	2.854817	0.967238	0.000123
  72	3.5500e+00	1.4438	-17.887837	0.000274	2.741381	0.928805	0.000118
  73	3.6000e+00	1.4470	-17.832031	0.000259	2.590132	0.877561	0.000112
  74	3.6500e+00	1.4711	-17.771337	0.000282	2.817005	0.954427	0.000121
  75	3.7000e+00	1.4919	-17.712272	0.000274	2.741381	0.928805	0.000118
  76	3.7500e+00	1.5080	-17.650764	0.000285	2.854817	0.967238	0.000123
  77	3.8000e+00	1.5385	-17.592514	0.000270	2.703569	0.915994	0.000116
  78	3.8500e+00	1.5561	-17.535078	0.000267	2.665757	0.903183	0.000115
  79	3.9000e+00	1.5962	-17.476014	0.000274	2.741381	0.928805	0.000118
  80	3.9500e+00	1.6042	-17.420208	0.000259	2.590132	0.877561	0.000112
  81	4.0000e+00	1.6363	-17.356255	0.000297	2.968254	1.005672	0.000128
  82	4.0500e+00	1.6235	-17.295968	-0.000280	-2.798099	-0.948022	0.000121
  83	4.1000e+00	1.6652	-17.237718	0.000270	2.703569	0.915994	0.000116
  84	4.1500e+00	1.6877	-17.187208	0.000234	2.344353	0.794288	0.000101
  85	4.2000e+00	1.7165	-17.122848	0.000299	2.987160	1.012077	0.000129
  86	4.2500e+00	1.7262	-17.060932	0.000287	2.873723	0.973644	0.000124
  87	4.3000e+00	1.7326	-17.003089	0.000268	2.684663	0.909588	0.000116
  88	4.3500e+00	1.7598	-16.948505	0.000253	2.533414	0.858344	0.000109
  89	4.4000e+00	1.7855	-16.894736	0.000250	2.495602	0.845533	0.000108
  90	4.4500e+00	1.7983	-16.837708	0.000265	2.646851	0.896777	0.000114
  91	4.5000e+00	1.8144	-16.775792	0.000287	2.873723	0.973644	0.000124
  92	4.5500e+00	1.8320	-16.715505	0.000280	2.798099	0.948022	0.000121
  93	4.6000e+00	1.8497	-16.656848	0.000272	2.722475	0.922399	0.000117
  94	4.6500e+00	1.8946	-16.600227	0.000263	2.627944	0.890372	0.000113
  95	4.7000e+00	1.9122	-16.544014	0.000261	2.609038	0.883966	0.000112
  96	4.7500e+00	1.9138	-16.483320	0.000282	2.817005	0.954427	0.000121
  97	4.8000e+00	1.9427	-16.422626	0.000282	2.817005	0.954427	0.000121
  98	4.8500e+00	1.9524	-16.373745	0.000227	2.268729	0.768666	0.000098
  99	4.9000e+00	1.9844	-16.312643	0.000284	2.835911	0.960833	0.000122
 100	4.9500e+00	1.9828	-16.261318	-0.000238	-2.382166	-0.807100	0.000103
 101	5.0000e+00	2.0181	-16.198180	0.000293	2.930442	0.992861	0.000126
 102	5.0500e+00	2.0422	-16.141152	0.000265	2.646851	0.896777	0.000114
 103	5.1000e+00	2.0855	-16.086161	0.000255	2.552320	0.864749	0.000110
 104	5.1500e+00	2.0887	-16.028726	0.000267	2.665757	0.903183	0.000115
 105	5.2000e+00	2.0887	-15.969254	-0.000276	-2.760287	-0.935211	0.000119
 106	5.2500e+00	2.1192	-15.914670	0.000253	2.533414	0.858344	0.000109
 107	5.3000e+00	2.1208	-15.859271	0.000257	2.571226	0.871155	0.000111
 108	5.3500e+00	2.1481	-15.799392	0.000278	2.779193	0.941616	0.000120
 109	5.4000e+00	2.1802	-15.744401	0.000255	2.552320	0.864749	0.000110
 110	5.4500e+00	2.1898	-15.684929	0.000276	2.760287	0.935211	0.000119
 111	5.5000e+00	2.2235	-15.627493	0.000267	2.665757	0.903183	0.000115
 112	5.5500e+00	2.2427	-15.572502	0.000255	2.552320	0.864749	0.000110
 113	5.6000e+00	2.2732	-15.510993	0.000285	2.854817	0.967238	0.000123
 114	5.6500e+00	2.2892	-15.456409	0.000253	2.533414	0.858344	0.000109
 115	5.7000e+00	2.2973	-15.401418	0.000255	2.552320	0.864749	0.000110
 116	5.7500e+00	2.3197	-15.347649	0.000250	2.495602	0.845533	0.000108
 117	5.8000e+00	2.3310	-15.292658	0.000255	2.552320	0.864749	0.000110
 118	5.8500e+00	2.3502	-15.231556	0.000284	2.835911	0.960833	0.000122
 119	5.9000e+00	2.3807	-15.176158	0.000257	2.571226	0.871155	0.000111
 120	5.9500e+00	2.3791	-15.120759	-0.000257	-2.571226	-0.871155	0.000111
 121	6.0000e+00	2.4015	-15.065361	0.000257	2.571226	0.871155	0.000111
 122	6.0500e+00	2.4288	-15.006296	0.000274	2.741381	0.928805	0.000118
 123	6.1000e+00	2.4593	-14.950897	0.000257	2.571226	0.871155	0.000111
 124	6.1500e+00	2.4689	-14.892240	0.000272	2.722475	0.922399	0.000117
 125	6.2000e+00	2.5026	-14.842544	0.000231	2.306541	0.781477	0.000099
 126	6.2500e+00	2.5170	-14.788775	0.000250	2.495602	0.845533	0.000108
 127	6.3000e+00	2.5235	-14.727266	0.000285	2.854817	0.967238	0.000123
 128	6.3500e+00	2.5732	-14.674312	0.000246	2.457790	0.832722	0.000106
 129	6.4000e+00	2.5764	-14.615654	0.000272	2.722475	0.922399	0.000117
 130	6.4500e+00	2.5924	-14.558626	0.000265	2.646851	0.896777	0.000114
 131	6.5000e+00	2.6181	-14.505265	0.000248	2.476696	0.839127	0.000107
 132	6.5500e+00	2.6550	-14.454347	0.000236	2.363259	0.800694	0.000102
 133	6.6000e+00	2.6470	-14.395689	-0.000272	-2.722475	-0.922399	0.000117
 134	6.6500e+00	2.6694	-14.338661	0.000265	2.646851	0.896777	0.000114
 135	6.7000e+00	2.6951	-14.283263	0.000257	2.571226	0.871155	0.000111
 136	6.7500e+00	2.7240	-14.233974	0.000229	2.287635	0.775072	0.000099
 137	6.8000e+00	2.7320	-14.180205	0.000250	2.495602	0.845533	0.000108
 138	6.8500e+00	2.7609	-14.118697	0.000285	2.854817	0.967238	0.000123
 139	6.9000e+00	2.8026	-14.062891	0.000259	2.590132	0.877561	0.000112
 140	6.9500e+00	2.8106	-14.005455	0.000267	2.665757	0.903183	0.000115
 141	7.0000e+00	2.8234	-13.956167	0.000229	2.287635	0.775072	0.000099
 142	7.0500e+00	2.8555	-13.906064	0.000233	2.325447	0.787883	0.000100
 143	7.1000e+00	2.8603	-13.846184	0.000278	2.779193	0.941616	0.000120
 144	7.1500e+00	2.8956	-13.789971	0.000261	2.609038	0.883966	0.000112
 145	7.2000e+00	2.9117	-13.734980	0.000255	2.552320	0.864749	0.000110
 146	7.2500e+00	2.9261	-13.682433	0.000244	2.438884	0.826316	0.000105
 147	7.3000e+00	2.9277	-13.629885	0.000244	2.438884	0.826316	0.000105
 148	7.3500e+00	2.9454	-13.577338	0.000244	2.438884	0.826316	0.000105
 149	7.4000e+00	2.9662	-13.519496	0.000268	2.684663	0.909588	0.000116
 150	7.4500e+00	3.0063	-13.466134	0.000248	2.476696	0.839127	0.000107
 151	7.5000e+00	3.0176	-13.416031	0.000233	2.325447	0.787883	0.000100
 152	7.5500e+00	3.0288	-13.369186	0.000217	2.174199	0.736638	0.000094
 153	7.6000e+00	3.0753	-13.313788	0.000257	2.571226	0.871155	0.000111
 154	7.6500e+00	3.0930	-13.256352	0.000267	2.665757	0.903183	0.000115
 155	7.7000e+00	3.1122	-13.206657	0.000231	2.306541	0.781477	0.000099
 156	7.7500e+00	3.1218	-13.158183	0.000225	2.249823	0.762261	0.000097
 157	7.8000e+00	3.1555	-13.104821	0.000248	2.476696	0.839127	0.000107
 158	7.8500e+00	3.1635	-13.050644	0.000251	2.514508	0.851938	0.000108
 159	7.9000e+00	3.1828	-13.000541	0.000233	2.325447	0.787883	0.000100
 160	7.9500e+00	3.1956	-12.945957	0.000253	2.533414	0.858344	0.000109
 161	8.0000e+00	3.2037	-12.894225	0.000240	2.401072	0.813505	0.000103
 162	8.0500e+00	3.2422	-12.839641	0.000253	2.533414	0.858344	0.000109
 163	8.1000e+00	3.2646	-12.791574	0.000223	2.230917	0.755855	0.000096
 164	8.1500e+00	3.2742	-12.735361	0.000261	2.609038	0.883966	0.000112
 165	8.2000e+00	3.3159	-12.679555	0.000259	2.590132	0.877561	0.000112
 166	8.2500e+00	3.3159	-12.628230	-0.000238	-2.382166	-0.807100	0.000103
 167	8.3000e+00	3.3416	-12.572832	0.000257	2.571226	0.871155	0.000111
 168	8.3500e+00	3.3528	-12.529653	0.000200	2.004044	0.678988	0.000086
 169	8.4000e+00	3.3849	-12.476291	0.000248	2.476696	0.839127	0.000107
 170	8.4500e+00	3.3865	-12.420078	0.000261	2.609038	0.883966	0.000112
 171	8.5000e+00	3.4411	-12.367531	0.000244	2.438884	0.826316	0.000105
 172	8.5500e+00	3.4491	-12.315391	0.000242	2.419978	0.819911	0.000104
 173	8.6000e+00	3.4700	-12.266103	0.000229	2.287635	0.775072	0.000099
 174	8.6500e+00	3.4908	-12.207445	0.000272	2.722475	0.922399	0.000117
 175	8.7000e+00	3.5036	-12.156527	0.000236	2.363259	0.800694	0.000102
 176	8.7500e+00	3.5133	-12.099499	0.000265	2.646851	0.896777	0.000114
 177	8.8000e+00	3.5518	-12.051026	0.000225	2.249823	0.762261	0.000097
 178	8.8500e+00	3.5438	-11.995220	-0.000259	-2.590132	-0.877561	0.000112
 179	8.9000e+00	3.5855	-11.947153	0.000223	2.230917	0.755855	0.000096
 180	8.9500e+00	3.5903	-11.895014	0.000242	2.419978	0.819911	0.000104
 181	9.0000e+00	3.6208	-11.839615	0.000257	2.571226	0.871155	0.000111
 182	9.0500e+00	3.6400	-11.782587	0.000265	2.646851	0.896777	0.000114
 183	9.1000e+00	3.6705	-11.728410	0.000251	2.514508	0.851938	0.000108
 184	9.1500e+00	3.6913	-11.676271	0.000242	2.419978	0.819911	0.000104
 185	9.2000e+00	3.7074	-11.624945	0.000238	2.382166	0.807100	0.000103
 186	9.2500e+00	3.7282	-11.573620	0.000238	2.382166	0.807100	0.000103
 187	9.3000e+00	3.7234	-11.519036	-0.000253	-2.533414	-0.858344	0.000109
 188	9.3500e+00	3.7571	-11.464860	0.000251	2.514508	0.851938	0.000108
 189	9.4000e+00	3.7732	-11.415164	0.000231	2.306541	0.781477	0.000099
 190	9.4500e+00	3.8277	-11.362617	0.000244	2.438884	0.826316	0.000105
 191	9.5000e+00	3.8165	-11.305996	-0.000263	-2.627944	-0.890372	0.000113
 192	9.5500e+00	3.8181	-11.253449	0.000244	2.438884	0.826316	0.000105
 193	9.6000e+00	3.8662	-11.198458	0.000255	2.552320	0.864749	0.000110
 194	9.6500e+00	3.8710	-11.150391	0.000223	2.230917	0.755855	0.000096
 195	9.7000e+00	3.8951	-11.097437	0.000246	2.457790	0.832722	0.000106
 196	9.7500e+00	3.9207	-11.046519	0.000236	2.363259	0.800694	0.000102
 197	9.8000e+00	3.9464	-10.991935	0.000253	2.533414	0.858344	0.000109
 198	9.8500e+00	3.9528	-10.934907	0.000265	2.646851	0.896777	0.000114
 199	9.9000e+00	3.9849	-10.884397	0.000234	2.344353	0.794288	0.000101
 200	9.9500e+00	3.9897	-10.831035	0.000248	2.476696	0.839127	0.000107
 201	1.0000e+01	4.0266	-10.780524	0.000234	2.344353	0.794288	0.000101
 202	1.0050e+01	4.0346	-10.722682	0.000268	2.684663	0.909588	0.000116
 203	1.0100e+01	4.0571	-10.672986	0.000231	2.306541	0.781477	0.000099
 204	1.0150e+01	4.0427	-10.622475	-0.000234	-2.344353	-0.794288	0.000101
 205	1.0200e+01	4.0876	-10.568706	0.000250	2.495602	0.845533	0.000108
 206	1.0250e+01	4.1293	-10.516974	0.000240	2.401072	0.813505	0.000103
 207	1.0300e+01	4.1614	-10.464834	0.000242	2.419978	0.819911	0.000104
 208	1.0350e+01	4.1566	-10.414731	-0.000233	-2.325447	-0.787883	0.000100
 209	1.0400e+01	4.1742	-10.361369	0.000248	2.476696	0.839127	0.000107
 210	1.0450e+01	4.2063	-10.312080	0.000229	2.287635	0.775072	0.000099
 211	1.0500e+01	4.1854	-10.261977	-0.000233	-2.325447	-0.787883	0.000100
 212	1.0550e+01	4.2512	-10.212689	0.000229	2.287635	0.775072	0.000099
 213	1.0600e+01	4.2464	-10.163808	-0.000227	-2.268729	-0.768666	0.000098
 214	1.0650e+01	4.2801	-10.108816	0.000255	2.552320	0.864749	0.000110
 215	1.0700e+01	4.3170	-10.059121	0.000231	2.306541	0.781477	0.000099
 216	1.0750e+01	4.2897	-10.008610	-0.000234	-2.344353	-0.794288	0.000101
 217	1.0800e+01	4.3378	-9.957285	0.000238	2.382166	0.807100	0.000103
 218	1.0850e+01	4.3539	-9.904738	0.000244	2.438884	0.826316	0.000105
 219	1.0900e+01	4.3940	-9.855449	0.000229	2.287635	0.775072	0.000099
 220	1.0950e+01	4.3844	-9.804939	-0.000234	-2.344353	-0.794288	0.000101
 221	1.1000e+01	4.4293	-9.758502	0.000216	2.155293	0.730233	0.000093
 222	1.1050e+01	4.4245	-9.710028	-0.000225	-2.249823	-0.762261	0.000097
 223	1.1100e+01	4.4485	-9.657074	0.000246	2.457790	0.832722	0.000106
 224	1.1150e+01	4.4758	-9.607785	0.000229	2.287635	0.775072	0.000099
 225	1.1200e+01	4.5047	-9.551572	0.000261	2.609038	0.883966	0.000112
 226	1.1250e+01	4.5304	-9.506357	0.000210	2.098574	0.711016	0.000090
 227	1.1300e+01	4.5432	-9.452180	0.000251	2.514508	0.851938	0.000108
 228	1.1350e+01	4.5881	-9.405743	0.000216	2.155293	0.730233	0.000093
 229	1.1400e+01	4.5785	-9.352381	-0.000248	-2.476696	-0.839127	0.000107
 230	1.1450e+01	4.5993	-9.306352	0.000214	2.136387	0.723827	0.000092
 231	1.1500e+01	4.6009	-9.256248	0.000233	2.325447	0.787883	0.000100
 232	1.1550e+01	4.6555	-9.206553	0.000231	2.306541	0.781477	0.000099
 233	1.1600e+01	4.6491	-9.154413	-0.000242	-2.419978	-0.819911	0.000104
 234	1.1650e+01	4.6731	-9.106346	0.000223	2.230917	0.755855	0.000096
 235	1.1700e+01	4.7020	-9.054207	0.000242	2.419978	0.819911	0.000104
 236	1.1750e+01	4.7229	-9.009806	0.000206	2.060762	0.698205	0.000089
 237	1.1800e+01	4.7357	-8.957259	0.000244	2.438884	0.826316	0.000105
 238	1.1850e+01	4.7614	-8.906341	0.000236	2.363259	0.800694	0.000102
 239	1.1900e+01	4.7437	-8.860312	-0.000214	-2.136387	-0.723827	0.000092
 240	1.1950e+01	4.8079	-8.807764	0.000244	2.438884	0.826316	0.000105
 241	1.2000e+01	4.8079	-8.756439	-0.000238	-2.382166	-0.807100	0.000103
 242	1.2050e+01	4.8528	-8.710409	0.000214	2.136387	0.723827	0.000092
 243	1.2100e+01	4.8656	-8.659899	0.000234	2.344353	0.794288	0.000101
 244	1.2150e+01	4.8753	-8.607759	0.000242	2.419978	0.819911	0.000104
 245	1.2200e+01	4.9025	-8.558471	0.000229	2.287635	0.775072	0.000099
 246	1.2250e+01	4.9186	-8.507553	0.000236	2.363259	0.800694	0.000102
 247	1.2300e+01	4.9314	-8.463153	0.000206	2.060762	0.698205	0.000089
 248	1.2350e+01	4.9667	-8.415086	0.000223	2.230917	0.755855	0.000096
 249	1.2400e+01	4.9747	-8.364576	0.000234	2.344353	0.794288	0.000101
 250	1.2450e+01	4.9972	-8.318953	0.000212	2.117480	0.717422	0.000091
 251	1.2500e+01	5.0068	-8.265184	0.000250	2.495602	0.845533	0.000108
 252	1.2550e+01	5.0421	-8.215896	0.000229	2.287635	0.775072	0.000099
 253	1.2600e+01	5.0581	-8.165385	0.000234	2.344353	0.794288	0.000101
 254	1.2650e+01	5.0774	-8.115282	0.000233	2.325447	0.787883	0.000100
 255	1.2700e+01	5.0934	-8.065994	0.000229	2.287635	0.775072	0.000099
 256	1.2750e+01	5.1079	-8.019964	0.000214	2.136387	0.723827	0.000092
 257	1.2800e+01	5.1464	-7.967824	0.000242	2.419978	0.819911	0.000104
 258	1.2850e+01	5.1528	-7.922202	0.000212	2.117480	0.717422	0.000091
 259	1.2900e+01	5.1993	-7.872098	0.000233	2.325447	0.787883	0.000100
 260	1.2950e+01	5.2025	-7.821995	0.000233	2.325447	0.787883	0.000100
 261	1.3000e+01	5.2138	-7.769855	0.000242	2.419978	0.819911	0.000104
