»»»»»»»»»»»»»»»»»»»»»»»»»»»»»»»»»»»» Hysteresis ««««««««««««««««««««««««««««««««««««
»»»  Executed Version:	5.48.1
»»»  Vision Version:	5.48.4 (R)
»»»  Vision Compiled:	9/18/24
»»»  Driver Version:	5.47.0
»»»  Windows Version:	Windows 8 or 8.1
»»»  Processor Information:	x86 (AMD or Intel) - 32 Processors
»»»  Tester Name:	PMF21124-494 (100V)
»»»  Tester S/N:	PMF21124-494
»»»  Internal Amp Type:	100V RevK 270k
»»»  Internal Amp S/N:	iAB2-596/K     
»»»  Execution Count:	1
»»»»»»»»»»»»»»»»»»»»»»»»»»»»»»»»»»»»»»»»»»««««««««««««««««««««««««««««««««««««««««««

Stored:	10/7/2025 - 18:28:2
Configured:	10/07/25 05:55:09 PM
Executed:	10/07/25 06:27:12 PM

»»»»»»»»»»»»»»»»»»»»»»»»»»»»»»»»»»» Sample Info ««««««««««««««««««««««««««««««««««««
Sample Name:	Int. Ref. Ferroelectric
Lot Name:	N/A
Wafer Name:	N/A
Die Row/Column:	0/0
Capacitor Number:	0
Sample Area (cm2):	1.00e-04
Sample Thickness (microns):	3.00e-01

Amplifier:	Internal

»»»»»»»»»»»»»»»»»»»»»»»»»»»»»»»»»»» Tester Info «««««««««««««««««««««««««««««««««««
Tester Name:	PMF21124-494 (100V)
Tester Serial Number:	PMF21124-494
Return Signal Amp. Level:	0.02 [Index: 2]

»»»»»»»»»»»»»»»»»»»»»»»»»»»»»»»» Hysteresis Info ««««««««««««««««««««««««««««««««««
Task Name:	Hyst-1
Volts:	20.00
Field:	666.67 (kV/cm)
DCBias:	0.00
DCField:	0.00 (kV/cm)
Hysteresis Period (ms):	5.00e-01
Preset:	Enabled
Preset Delay (ms):	1.00e+03
Profile:	Standard Monopolar

»»»»»»»»»»»»»»»»»»»»»»»»»»»»»»»»»»»»»» Data «««««««««««««««««««««««««««««««««««««««
Points:	1001

Valid Data

Point	Time (ms)	Drive Voltage	Measured Polarization (uC/cm2)	Capacitance (uF)	Normalized Capacitance (uF/cm2)	Dielectric Constant	Instantaneous Current (mA)
   1	0.0000e+00	0.0321	-41.287326	0.001262	12.617341	4.274871	0.101944
   2	5.0000e-04	0.0561	-40.777606	0.001262	12.617341	4.274871	0.101944
   3	1.0000e-03	0.1299	-40.886832	-0.000270	-2.703716	-0.916044	-0.021845
   4	1.5000e-03	0.1781	-40.631972	0.000631	6.308671	2.137435	0.050972
   5	2.0000e-03	0.1941	-40.449929	0.000451	4.506193	1.526740	0.036409
   6	2.5000e-03	0.2406	-40.267886	0.000451	4.506193	1.526740	0.036409
   7	3.0000e-03	0.2743	-39.721757	0.001352	13.518580	4.580219	0.109226
   8	3.5000e-03	0.2968	-39.503306	0.000541	5.407432	1.832088	0.043690
   9	4.0000e-03	0.3385	-39.466897	0.000090	0.901239	0.305348	0.007282
  10	4.5000e-03	0.3930	-38.993586	0.001172	11.716102	3.969523	0.094662
  11	5.0000e-03	0.4267	-39.066403	-0.000180	-1.802477	-0.610696	-0.014563
  12	5.5000e-03	0.4781	-38.629500	0.001081	10.814864	3.664175	0.087381
  13	6.0000e-03	0.5166	-37.901329	0.001802	18.024773	6.106958	0.145634
  14	6.5000e-03	0.5422	-37.974146	-0.000180	-1.802477	-0.610696	-0.014563
  15	7.0000e-03	0.5775	-37.974146	0.000000	0.000000	0.000000	0.000000
  16	7.5000e-03	0.6240	-37.464426	0.001262	12.617341	4.274871	0.101944
  17	8.0000e-03	0.6994	-37.355200	0.000270	2.703716	0.916044	0.021845
  18	8.5000e-03	0.7123	-36.991114	0.000901	9.012386	3.053479	0.072817
  19	9.0000e-03	0.7556	-36.881888	0.000270	2.703716	0.916044	0.021845
  20	9.5000e-03	0.7813	-36.627028	0.000631	6.308671	2.137435	0.050972
  21	1.0000e-02	0.8230	-36.044491	0.001442	14.419818	4.885567	0.116507
  22	1.0500e-02	0.8759	-36.117308	-0.000180	-1.802477	-0.610696	-0.014563
  23	1.1000e-02	0.9080	-35.716814	0.000991	9.913625	3.358827	0.080099
  24	1.1500e-02	0.9513	-35.461954	0.000631	6.308671	2.137435	0.050972
  25	1.2000e-02	0.9930	-35.279911	0.000451	4.506193	1.526740	0.036409
  26	1.2500e-02	1.0379	-35.061460	0.000541	5.407432	1.832088	0.043690
  27	1.3000e-02	1.0748	-34.697374	0.000901	9.012386	3.053479	0.072817
  28	1.3500e-02	1.1005	-34.406105	0.000721	7.209909	2.442783	0.058254
  29	1.4000e-02	1.1406	-34.406105	0.000000	0.000000	0.000000	0.000000
  30	1.4500e-02	1.1952	-33.714342	0.001712	17.123534	5.801610	0.138353
  31	1.5000e-02	1.2256	-33.423074	0.000721	7.209909	2.442783	0.058254
  32	1.5500e-02	1.2497	-33.641525	-0.000541	-5.407432	-1.832088	-0.043690
  33	1.6000e-02	1.3251	-32.913354	0.001802	18.024773	6.106958	0.145634
  34	1.6500e-02	1.3460	-32.876945	0.000090	0.901239	0.305348	0.007282
  35	1.7000e-02	1.3828	-32.731311	0.000360	3.604955	1.221392	0.029127
  36	1.7500e-02	1.4278	-32.512859	0.000541	5.407432	1.832088	0.043690
  37	1.8000e-02	1.4887	-32.185182	0.000811	8.111148	2.748131	0.065535
  38	1.8500e-02	1.5336	-31.966731	0.000541	5.407432	1.832088	0.043690
  39	1.9000e-02	1.5144	-31.784688	-0.000451	-4.506193	-1.526740	0.036409
  40	1.9500e-02	1.5882	-31.384193	0.000991	9.913625	3.358827	0.080099
  41	2.0000e-02	1.6299	-31.457010	-0.000180	-1.802477	-0.610696	-0.014563
  42	2.0500e-02	1.6395	-30.656022	0.001983	19.827250	6.717654	0.160198
  43	2.1000e-02	1.7197	-31.020108	-0.000901	-9.012386	-3.053479	-0.072817
  44	2.1500e-02	1.7582	-30.328345	0.001712	17.123534	5.801610	0.138353
  45	2.2000e-02	1.8016	-30.401162	-0.000180	-1.802477	-0.610696	-0.014563
  46	2.2500e-02	1.8192	-29.855033	0.001352	13.518580	4.580219	0.109226
  47	2.3000e-02	1.8882	-29.855033	0.000000	0.000000	0.000000	0.000000
  48	2.3500e-02	1.9251	-29.236087	0.001532	15.321057	5.190915	0.123789
  49	2.4000e-02	1.9540	-29.163270	0.000180	1.802477	0.610696	0.014563
  50	2.4500e-02	1.9844	-29.017636	0.000360	3.604955	1.221392	0.029127
  51	2.5000e-02	2.0278	-28.908410	0.000270	2.703716	0.916044	0.021845
  52	2.5500e-02	2.0630	-28.653550	0.000631	6.308671	2.137435	0.050972
  53	2.6000e-02	2.0935	-28.362281	0.000721	7.209909	2.442783	0.058254
  54	2.6500e-02	2.1433	-27.998196	0.000901	9.012386	3.053479	0.072817
  55	2.7000e-02	2.1946	-27.925379	0.000180	1.802477	0.610696	0.014563
  56	2.7500e-02	2.2122	-27.524884	0.000991	9.913625	3.358827	0.080099
  57	2.8000e-02	2.2604	-27.452067	0.000180	1.802477	0.610696	0.014563
  58	2.8500e-02	2.2924	-27.233616	0.000541	5.407432	1.832088	0.043690
  59	2.9000e-02	2.3630	-26.869530	0.000901	9.012386	3.053479	0.072817
  60	2.9500e-02	2.3999	-26.796713	0.000180	1.802477	0.610696	0.014563
  61	3.0000e-02	2.4368	-26.651078	0.000360	3.604955	1.221392	0.029127
  62	3.0500e-02	2.4817	-26.323401	0.000811	8.111148	2.748131	0.065535
  63	3.1000e-02	2.5058	-26.141358	0.000451	4.506193	1.526740	0.036409
  64	3.1500e-02	2.5588	-25.595230	0.001352	13.518580	4.580219	0.109226
  65	3.2000e-02	2.5973	-25.704455	-0.000270	-2.703716	-0.916044	-0.021845
  66	3.2500e-02	2.6181	-25.449595	0.000631	6.308671	2.137435	0.050972
  67	3.3000e-02	2.6662	-25.085510	0.000901	9.012386	3.053479	0.072817
  68	3.3500e-02	2.7192	-25.121918	-0.000090	-0.901239	-0.305348	-0.007282
  69	3.4000e-02	2.7481	-24.721424	0.000991	9.913625	3.358827	0.080099
  70	3.4500e-02	2.8234	-24.393747	0.000811	8.111148	2.748131	0.065535
  71	3.5000e-02	2.8315	-24.430155	-0.000090	-0.901239	-0.305348	-0.007282
  72	3.5500e-02	2.8684	-24.138887	0.000721	7.209909	2.442783	0.058254
  73	3.6000e-02	2.9021	-24.029661	0.000270	2.703716	0.916044	0.021845
  74	3.6500e-02	2.9598	-23.592758	0.001081	10.814864	3.664175	0.087381
  75	3.7000e-02	2.9999	-23.483532	0.000270	2.703716	0.916044	0.021845
  76	3.7500e-02	3.0144	-23.301489	0.000451	4.506193	1.526740	0.036409
  77	3.8000e-02	3.0785	-22.937403	0.000901	9.012386	3.053479	0.072817
  78	3.8500e-02	3.1218	-23.228672	-0.000721	-7.209909	-2.442783	-0.058254
  79	3.9000e-02	3.1635	-22.464092	0.001893	18.926012	6.412306	0.152916
  80	3.9500e-02	3.1860	-22.536909	-0.000180	-1.802477	-0.610696	-0.014563
  81	4.0000e-02	3.2357	-22.209232	0.000811	8.111148	2.748131	0.065535
  82	4.0500e-02	3.2454	-22.136415	0.000180	1.802477	0.610696	0.014563
  83	4.1000e-02	3.2887	-21.772329	0.000901	9.012386	3.053479	0.072817
  84	4.1500e-02	3.3545	-21.517469	0.000631	6.308671	2.137435	0.050972
  85	4.2000e-02	3.3833	-21.481060	0.000090	0.901239	0.305348	0.007282
  86	4.2500e-02	3.4234	-20.971340	0.001262	12.617341	4.274871	0.101944
  87	4.3000e-02	3.4812	-21.189792	-0.000541	-5.407432	-1.832088	-0.043690
  88	4.3500e-02	3.5213	-20.971340	0.000541	5.407432	1.832088	0.043690
  89	4.4000e-02	3.5582	-20.607255	0.000901	9.012386	3.053479	0.072817
  90	4.4500e-02	3.5983	-20.352395	0.000631	6.308671	2.137435	0.050972
  91	4.5000e-02	3.6528	-20.061126	0.000721	7.209909	2.442783	0.058254
  92	4.5500e-02	3.7010	-20.243169	-0.000451	-4.506193	-1.526740	-0.036409
  93	4.6000e-02	3.6994	-19.514997	-0.001802	-18.024773	-6.106958	0.145634
  94	4.6500e-02	3.7539	-19.769857	-0.000631	-6.308671	-2.137435	-0.050972
  95	4.7000e-02	3.8117	-19.187320	0.001442	14.419818	4.885567	0.116507
  96	4.7500e-02	3.8437	-19.405772	-0.000541	-5.407432	-1.832088	-0.043690
  97	4.8000e-02	3.8582	-18.968869	0.001081	10.814864	3.664175	0.087381
  98	4.8500e-02	3.9095	-18.422740	0.001352	13.518580	4.580219	0.109226
  99	4.9000e-02	3.9512	-18.750417	-0.000811	-8.111148	-2.748131	-0.065535
 100	4.9500e-02	3.9833	-18.240697	0.001262	12.617341	4.274871	0.101944
 101	5.0000e-02	4.0475	-17.913020	0.000811	8.111148	2.748131	0.065535
 102	5.0500e-02	4.0635	-18.022246	-0.000270	-2.703716	-0.916044	-0.021845
 103	5.1000e-02	4.0956	-18.022246	0.000000	0.000000	0.000000	0.000000
 104	5.1500e-02	4.1485	-17.585343	0.001081	10.814864	3.664175	0.087381
 105	5.2000e-02	4.1935	-17.403300	0.000451	4.506193	1.526740	0.036409
 106	5.2500e-02	4.2384	-17.366891	0.000090	0.901239	0.305348	0.007282
 107	5.3000e-02	4.2608	-17.002805	0.000901	9.012386	3.053479	0.072817
 108	5.3500e-02	4.3042	-16.820763	0.000451	4.506193	1.526740	0.036409
 109	5.4000e-02	4.3314	-16.747945	0.000180	1.802477	0.610696	0.014563
 110	5.4500e-02	4.3844	-16.092591	0.001622	16.222296	5.496263	0.131071
 111	5.5000e-02	4.4534	-16.383860	-0.000721	-7.209909	-2.442783	-0.058254
 112	5.5500e-02	4.4742	-15.764914	0.001532	15.321057	5.190915	0.123789
 113	5.6000e-02	4.5111	-15.801322	-0.000090	-0.901239	-0.305348	-0.007282
 114	5.6500e-02	4.5368	-15.655688	0.000360	3.604955	1.221392	0.029127
 115	5.7000e-02	4.5705	-15.255194	0.000991	9.913625	3.358827	0.080099
 116	5.7500e-02	4.6154	-15.510054	-0.000631	-6.308671	-2.137435	-0.050972
 117	5.8000e-02	4.6443	-15.364419	0.000360	3.604955	1.221392	0.029127
 118	5.8500e-02	4.6828	-14.963925	0.000991	9.913625	3.358827	0.080099
 119	5.9000e-02	4.7469	-14.927517	0.000090	0.901239	0.305348	0.007282
 120	5.9500e-02	4.7934	-14.563431	0.000901	9.012386	3.053479	0.072817
 121	6.0000e-02	4.8255	-14.709065	-0.000360	-3.604955	-1.221392	-0.029127
 122	6.0500e-02	4.8929	-14.126528	0.001442	14.419818	4.885567	0.116507
 123	6.1000e-02	4.9218	-14.053711	0.000180	1.802477	0.610696	0.014563
 124	6.1500e-02	4.9651	-13.798851	0.000631	6.308671	2.137435	0.050972
 125	6.2000e-02	5.0020	-13.616808	0.000451	4.506193	1.526740	0.036409
 126	6.2500e-02	5.0549	-13.616808	0.000000	0.000000	0.000000	0.000000
 127	6.3000e-02	5.0774	-13.034271	0.001442	14.419818	4.885567	0.116507
 128	6.3500e-02	5.1319	-13.325539	-0.000721	-7.209909	-2.442783	-0.058254
 129	6.4000e-02	5.1464	-13.034271	0.000721	7.209909	2.442783	0.058254
 130	6.4500e-02	5.1961	-12.488142	0.001352	13.518580	4.580219	0.109226
 131	6.5000e-02	5.2378	-12.633776	-0.000360	-3.604955	-1.221392	-0.029127
 132	6.5500e-02	5.2603	-12.196873	0.001081	10.814864	3.664175	0.087381
 133	6.6000e-02	5.3100	-12.415325	-0.000541	-5.407432	-1.832088	-0.043690
 134	6.6500e-02	5.3501	-11.942013	0.001172	11.716102	3.969523	0.094662
 135	6.7000e-02	5.3678	-11.687153	0.000631	6.308671	2.137435	0.050972
 136	6.7500e-02	5.4303	-11.541519	0.000360	3.604955	1.221392	0.029127
 137	6.8000e-02	5.4528	-11.614336	-0.000180	-1.802477	-0.610696	-0.014563
 138	6.8500e-02	5.5025	-11.177433	0.001081	10.814864	3.664175	0.087381
 139	6.9000e-02	5.5506	-10.849756	0.000811	8.111148	2.748131	0.065535
 140	6.9500e-02	5.5635	-10.704122	0.000360	3.604955	1.221392	0.029127
 141	7.0000e-02	5.6068	-10.667713	0.000090	0.901239	0.305348	0.007282
 142	7.0500e-02	5.6678	-10.485670	0.000451	4.506193	1.526740	0.036409
 143	7.1000e-02	5.7207	-10.667713	-0.000451	-4.506193	-1.526740	-0.036409
 144	7.1500e-02	5.7480	-10.012359	0.001622	16.222296	5.496263	0.131071
 145	7.2000e-02	5.8073	-10.121584	-0.000270	-2.703716	-0.916044	-0.021845
 146	7.2500e-02	5.8282	-9.721090	0.000991	9.913625	3.358827	0.080099
 147	7.3000e-02	5.8795	-9.648273	0.000180	1.802477	0.610696	0.014563
 148	7.3500e-02	5.9020	-9.284187	0.000901	9.012386	3.053479	0.072817
 149	7.4000e-02	5.9694	-9.502639	-0.000541	-5.407432	-1.832088	-0.043690
 150	7.4500e-02	5.9742	-9.065736	0.001081	10.814864	3.664175	0.087381
 151	7.5000e-02	6.0447	-8.920101	0.000360	3.604955	1.221392	0.029127
 152	7.5500e-02	6.0656	-9.029327	-0.000270	-2.703716	-0.916044	-0.021845
 153	7.6000e-02	6.1298	-8.519607	0.001262	12.617341	4.274871	0.101944
 154	7.6500e-02	6.1330	-8.410381	0.000270	2.703716	0.916044	0.021845
 155	7.7000e-02	6.1923	-8.082704	0.000811	8.111148	2.748131	0.065535
 156	7.7500e-02	6.2389	-7.864253	0.000541	5.407432	1.832088	0.043690
 157	7.8000e-02	6.2934	-8.119113	-0.000631	-6.308671	-2.137435	-0.050972
 158	7.8500e-02	6.3223	-7.572984	0.001352	13.518580	4.580219	0.109226
 159	7.9000e-02	6.3528	-7.463758	0.000270	2.703716	0.916044	0.021845
 160	7.9500e-02	6.3736	-7.536575	-0.000180	-1.802477	-0.610696	-0.014563
 161	8.0000e-02	6.4314	-7.281715	0.000631	6.308671	2.137435	0.050972
 162	8.0500e-02	6.4811	-7.390941	-0.000270	-2.703716	-0.916044	-0.021845
 163	8.1000e-02	6.4538	-6.917630	-0.001172	-11.716102	-3.969523	0.094662
 164	8.1500e-02	6.5260	-6.917630	0.000000	0.000000	0.000000	0.000000
 165	8.2000e-02	6.5982	-6.480727	0.001081	10.814864	3.664175	0.087381
 166	8.2500e-02	6.6175	-6.553544	-0.000180	-1.802477	-0.610696	-0.014563
 167	8.3000e-02	6.6463	-6.189458	0.000901	9.012386	3.053479	0.072817
 168	8.3500e-02	6.7057	-6.043824	0.000360	3.604955	1.221392	0.029127
 169	8.4000e-02	6.7394	-5.825372	0.000541	5.407432	1.832088	0.043690
 170	8.4500e-02	6.7795	-5.898189	-0.000180	-1.802477	-0.610696	-0.014563
 171	8.5000e-02	6.8036	-5.534104	0.000901	9.012386	3.053479	0.072817
 172	8.5500e-02	6.8597	-5.315652	0.000541	5.407432	1.832088	0.043690
 173	8.6000e-02	6.9271	-5.388469	-0.000180	-1.802477	-0.610696	-0.014563
 174	8.6500e-02	6.9608	-4.915158	0.001172	11.716102	3.969523	0.094662
 175	8.7000e-02	7.0057	-4.587481	0.000811	8.111148	2.748131	0.065535
 176	8.7500e-02	7.0490	-5.097201	-0.001262	-12.617341	-4.274871	-0.101944
 177	8.8000e-02	7.0843	-4.478255	0.001532	15.321057	5.190915	0.123789
 178	8.8500e-02	7.1453	-4.296212	0.000451	4.506193	1.526740	0.036409
 179	8.9000e-02	7.1613	-4.514664	-0.000541	-5.407432	-1.832088	-0.043690
 180	8.9500e-02	7.1854	-3.932126	0.001442	14.419818	4.885567	0.116507
 181	9.0000e-02	7.2351	-4.150578	-0.000541	-5.407432	-1.832088	-0.043690
 182	9.0500e-02	7.2640	-3.495223	0.001622	16.222296	5.496263	0.131071
 183	9.1000e-02	7.3009	-3.385998	0.000270	2.703716	0.916044	0.021845
 184	9.1500e-02	7.3538	-3.313181	0.000180	1.802477	0.610696	0.014563
 185	9.2000e-02	7.3971	-3.240363	0.000180	1.802477	0.610696	0.014563
 186	9.2500e-02	7.4067	-2.803460	0.001081	10.814864	3.664175	0.087381
 187	9.3000e-02	7.4886	-2.985503	-0.000451	-4.506193	-1.526740	-0.036409
 188	9.3500e-02	7.4966	-2.657826	0.000811	8.111148	2.748131	0.065535
 189	9.4000e-02	7.5495	-2.220923	0.001081	10.814864	3.664175	0.087381
 190	9.4500e-02	7.5848	-2.402966	-0.000451	-4.506193	-1.526740	-0.036409
 191	9.5000e-02	7.6345	-2.220923	0.000451	4.506193	1.526740	0.036409
 192	9.5500e-02	7.7051	-2.111697	0.000270	2.703716	0.916044	0.021845
 193	9.6000e-02	7.7308	-1.893246	0.000541	5.407432	1.832088	0.043690
 194	9.6500e-02	7.7228	-1.820429	-0.000180	-1.802477	-0.610696	0.014563
 195	9.7000e-02	7.7741	-1.601977	0.000541	5.407432	1.832088	0.043690
 196	9.7500e-02	7.8351	-1.383526	0.000541	5.407432	1.832088	0.043690
 197	9.8000e-02	7.8656	-0.728172	0.001622	16.222296	5.496263	0.131071
 198	9.8500e-02	7.8896	-0.910214	-0.000451	-4.506193	-1.526740	-0.036409
 199	9.9000e-02	7.9361	-0.873806	0.000090	0.901239	0.305348	0.007282
 200	9.9500e-02	7.9907	-0.728172	0.000360	3.604955	1.221392	0.029127
 201	1.0000e-01	8.0420	-0.546129	0.000451	4.506193	1.526740	0.036409
 202	1.0050e-01	8.0677	-0.473312	0.000180	1.802477	0.610696	0.014563
 203	1.0100e-01	8.1511	0.000000	0.001172	11.716102	3.969523	0.094662
 204	1.0150e-01	8.1559	-0.182043	-0.000451	-4.506193	-1.526740	-0.036409
 205	1.0200e-01	8.1800	0.182043	0.000901	9.012386	3.053479	0.072817
 206	1.0250e-01	8.2490	0.000000	-0.000451	-4.506193	-1.526740	-0.036409
 207	1.0300e-01	8.2810	0.618946	0.001532	15.321057	5.190915	0.123789
 208	1.0350e-01	8.3067	0.618946	0.000000	0.000000	0.000000	0.000000
 209	1.0400e-01	8.3677	0.691763	0.000180	1.802477	0.610696	0.014563
 210	1.0450e-01	8.3933	1.055849	0.000901	9.012386	3.053479	0.072817
 211	1.0500e-01	8.4174	0.946623	-0.000270	-2.703716	-0.916044	-0.021845
 212	1.0550e-01	8.4912	1.237892	0.000721	7.209909	2.442783	0.058254
 213	1.0600e-01	8.5072	1.419935	0.000451	4.506193	1.526740	0.036409
 214	1.0650e-01	8.5345	1.638386	0.000541	5.407432	1.832088	0.043690
 215	1.0700e-01	8.5778	2.038880	0.000991	9.913625	3.358827	0.080099
 216	1.0750e-01	8.6051	1.966063	-0.000180	-1.802477	-0.610696	-0.014563
 217	1.0800e-01	8.6661	2.111697	0.000360	3.604955	1.221392	0.029127
 218	1.0850e-01	8.7222	2.111697	0.000000	0.000000	0.000000	0.000000
 219	1.0900e-01	8.7655	2.439375	0.000811	8.111148	2.748131	0.065535
 220	1.0950e-01	8.7800	2.657826	0.000541	5.407432	1.832088	0.043690
 221	1.1000e-01	8.8265	2.949095	0.000721	7.209909	2.442783	0.058254
 222	1.1050e-01	8.9003	2.730643	-0.000541	-5.407432	-1.832088	-0.043690
 223	1.1100e-01	8.8971	3.021912	-0.000721	-7.209909	-2.442783	0.058254
 224	1.1150e-01	8.9532	3.313181	0.000721	7.209909	2.442783	0.058254
 225	1.1200e-01	8.9901	3.276772	-0.000090	-0.901239	-0.305348	-0.007282
 226	1.1250e-01	9.0415	3.750083	0.001172	11.716102	3.969523	0.094662
 227	1.1300e-01	9.0671	3.677266	-0.000180	-1.802477	-0.610696	-0.014563
 228	1.1350e-01	9.1233	3.822901	0.000360	3.604955	1.221392	0.029127
 229	1.1400e-01	9.1682	3.822901	0.000000	0.000000	0.000000	0.000000
 230	1.1450e-01	9.2035	4.150578	0.000811	8.111148	2.748131	0.065535
 231	1.1500e-01	9.2548	4.551072	0.000991	9.913625	3.358827	0.080099
 232	1.1550e-01	9.2709	4.369029	-0.000451	-4.506193	-1.526740	-0.036409
 233	1.1600e-01	9.3046	4.696706	0.000811	8.111148	2.748131	0.065535
 234	1.1650e-01	9.3639	4.660298	-0.000090	-0.901239	-0.305348	-0.007282
 235	1.1700e-01	9.3767	4.987975	0.000811	8.111148	2.748131	0.065535
 236	1.1750e-01	9.4233	4.769524	-0.000541	-5.407432	-1.832088	-0.043690
 237	1.1800e-01	9.4826	5.497695	0.001802	18.024773	6.106958	0.145634
 238	1.1850e-01	9.4971	4.987975	-0.001262	-12.617341	-4.274871	-0.101944
 239	1.1900e-01	9.5676	5.534104	0.001352	13.518580	4.580219	0.109226
 240	1.1950e-01	9.5981	5.788964	0.000631	6.308671	2.137435	0.050972
 241	1.2000e-01	9.6254	5.898189	0.000270	2.703716	0.916044	0.021845
 242	1.2050e-01	9.6735	6.007415	0.000270	2.703716	0.916044	0.021845
 243	1.2100e-01	9.7168	6.007415	0.000000	0.000000	0.000000	0.000000
 244	1.2150e-01	9.7249	6.335092	0.000811	8.111148	2.748131	0.065535
 245	1.2200e-01	9.8003	6.153050	-0.000451	-4.506193	-1.526740	-0.036409
 246	1.2250e-01	9.8323	6.626361	0.001172	11.716102	3.969523	0.094662
 247	1.2300e-01	9.8789	6.844812	0.000541	5.407432	1.832088	0.043690
 248	1.2350e-01	9.9029	6.808404	-0.000090	-0.901239	-0.305348	-0.007282
 249	1.2400e-01	9.9735	7.136081	0.000811	8.111148	2.748131	0.065535
 250	1.2450e-01	9.9928	7.136081	0.000000	0.000000	0.000000	0.000000
 251	1.2500e-01	10.0345	7.172490	0.000090	0.901239	0.305348	0.007282
 252	1.2550e-01	10.0922	7.354533	0.000451	4.506193	1.526740	0.036409
 253	1.2600e-01	10.1227	7.682210	0.000811	8.111148	2.748131	0.065535
 254	1.2650e-01	10.1500	7.536575	-0.000360	-3.604955	-1.221392	-0.029127
 255	1.2700e-01	10.1853	8.082704	0.001352	13.518580	4.580219	0.109226
 256	1.2750e-01	10.2318	8.119113	0.000090	0.901239	0.305348	0.007282
 257	1.2800e-01	10.2559	7.937070	-0.000451	-4.506193	-1.526740	-0.036409
 258	1.2850e-01	10.3168	8.519607	0.001442	14.419818	4.885567	0.116507
 259	1.2900e-01	10.3457	8.519607	0.000000	0.000000	0.000000	0.000000
