»»»»»»»»»»»»»»»»»»»»»»»»»»»»»»»»»»»» Hysteresis ««««««««««««««««««««««««««««««««««««
»»»  Executed Version:	5.48.1
»»»  Vision Version:	5.48.4 (R)
»»»  Vision Compiled:	9/18/24
»»»  Driver Version:	5.47.0
»»»  Windows Version:	Windows 8 or 8.1
»»»  Processor Information:	x86 (AMD or Intel) - 32 Processors
»»»  Tester Name:	PMF21124-494 (100V)
»»»  Tester S/N:	PMF21124-494
»»»  Internal Amp Type:	100V RevK 270k
»»»  Internal Amp S/N:	iAB2-596/K     
»»»  Execution Count:	1
»»»»»»»»»»»»»»»»»»»»»»»»»»»»»»»»»»»»»»»»»»««««««««««««««««««««««««««««««««««««««««««

Stored:	10/8/2025 - 16:36:12
Configured:	10/08/25 04:22:59 PM
Executed:	10/08/25 04:35:34 PM

»»»»»»»»»»»»»»»»»»»»»»»»»»»»»»»»»»» Sample Info ««««««««««««««««««««««««««««««««««««
Sample Name:	Int. Ref. Ferroelectric
Lot Name:	N/A
Wafer Name:	N/A
Die Row/Column:	0/0
Capacitor Number:	0
Sample Area (cm2):	1.00e-04
Sample Thickness (microns):	3.00e-01

Amplifier:	Internal

»»»»»»»»»»»»»»»»»»»»»»»»»»»»»»»»»»» Tester Info «««««««««««««««««««««««««««««««««««
Tester Name:	PMF21124-494 (100V)
Tester Serial Number:	PMF21124-494
Return Signal Amp. Level:	0.02 [Index: 2]

»»»»»»»»»»»»»»»»»»»»»»»»»»»»»»»» Hysteresis Info ««««««««««««««««««««««««««««««««««
Task Name:	Hyst-8
Volts:	20.00
Field:	666.67 (kV/cm)
DCBias:	0.00
DCField:	0.00 (kV/cm)
Hysteresis Period (ms):	5.00e-01
Preset:	Enabled
Preset Delay (ms):	1.00e+03
Profile:	Standard Monopolar

»»»»»»»»»»»»»»»»»»»»»»»»»»»»»»»»»»»»»» Data «««««««««««««««««««««««««««««««««««««««
Points:	1001

Valid Data

Point	Time (ms)	Drive Voltage	Measured Polarization (uC/cm2)	Capacitance (uF)	Normalized Capacitance (uF/cm2)	Dielectric Constant	Instantaneous Current (mA)
   1	0.0000e+00	0.0401	-75.074486	-0.001448	-14.484946	-4.907633	0.116507
   2	5.0000e-04	0.0257	-74.491948	-0.001448	-14.484946	-4.907633	0.116507
   3	1.0000e-03	0.0658	-74.673991	-0.000453	-4.526546	-1.533635	-0.036409
   4	1.5000e-03	0.1219	-74.601174	0.000181	1.810618	0.613454	0.014563
   5	2.0000e-03	0.1813	-74.309906	0.000724	7.242473	2.453816	0.058254
   6	2.5000e-03	0.2037	-74.164271	0.000362	3.621237	1.226908	0.029127
   7	3.0000e-03	0.2230	-74.127863	0.000091	0.905309	0.306727	0.007282
   8	3.5000e-03	0.2711	-73.909411	0.000543	5.431855	1.840362	0.043690
   9	4.0000e-03	0.3385	-73.290465	0.001539	15.390256	5.214360	0.123789
  10	4.5000e-03	0.3754	-73.363283	-0.000181	-1.810618	-0.613454	-0.014563
  11	5.0000e-03	0.4091	-73.290465	0.000181	1.810618	0.613454	0.014563
  12	5.5000e-03	0.4604	-73.217648	0.000181	1.810618	0.613454	0.014563
  13	6.0000e-03	0.5053	-72.780745	0.001086	10.863710	3.680725	0.087381
  14	6.5000e-03	0.5390	-72.853563	-0.000181	-1.810618	-0.613454	-0.014563
  15	7.0000e-03	0.5679	-72.926380	-0.000181	-1.810618	-0.613454	-0.014563
  16	7.5000e-03	0.6000	-72.635111	0.000724	7.242473	2.453816	0.058254
  17	8.0000e-03	0.6433	-72.562294	0.000181	1.810618	0.613454	0.014563
  18	8.5000e-03	0.6962	-72.052574	0.001267	12.674328	4.294179	0.101944
  19	9.0000e-03	0.7412	-71.979757	0.000181	1.810618	0.613454	0.014563
  20	9.5000e-03	0.7829	-71.834122	0.000362	3.621237	1.226908	0.029127
  21	1.0000e-02	0.8150	-72.016165	-0.000453	-4.526546	-1.533635	-0.036409
  22	1.0500e-02	0.8486	-71.470037	0.001358	13.579637	4.600906	0.109226
  23	1.1000e-02	0.9016	-71.724897	-0.000634	-6.337164	-2.147089	-0.050972
  24	1.1500e-02	0.9385	-71.215177	0.001267	12.674328	4.294179	0.101944
  25	1.2000e-02	0.9818	-71.360811	-0.000362	-3.621237	-1.226908	-0.029127
  26	1.2500e-02	1.0091	-70.996725	0.000905	9.053092	3.067270	0.072817
  27	1.3000e-02	1.0829	-70.851091	0.000362	3.621237	1.226908	0.029127
  28	1.3500e-02	1.1262	-70.923908	-0.000181	-1.810618	-0.613454	-0.014563
  29	1.4000e-02	1.1374	-70.086511	0.002082	20.822110	7.054722	0.167479
  30	1.4500e-02	1.1968	-70.960317	-0.002173	-21.727420	-7.361449	-0.174761
  31	1.5000e-02	1.2112	-70.487005	0.001177	11.769019	3.987452	0.094662
  32	1.5500e-02	1.2641	-70.268554	0.000543	5.431855	1.840362	0.043690
  33	1.6000e-02	1.2786	-70.195736	0.000181	1.810618	0.613454	0.014563
  34	1.6500e-02	1.3331	-70.086511	0.000272	2.715927	0.920181	0.021845
  35	1.7000e-02	1.3748	-70.013694	0.000181	1.810618	0.613454	0.014563
  36	1.7500e-02	1.3941	-70.122919	-0.000272	-2.715927	-0.920181	-0.021845
  37	1.8000e-02	1.4615	-69.467565	0.001630	16.295565	5.521087	0.131071
  38	1.8500e-02	1.4903	-69.795242	-0.000815	-8.147782	-2.760543	-0.065535
  39	1.9000e-02	1.5449	-68.812210	0.002444	24.443347	8.281630	0.196606
  40	1.9500e-02	1.5962	-69.067071	-0.000634	-6.337164	-2.147089	-0.050972
  41	2.0000e-02	1.6187	-69.212705	-0.000362	-3.621237	-1.226908	-0.029127
  42	2.0500e-02	1.6524	-68.885028	0.000815	8.147782	2.760543	0.065535
  43	2.1000e-02	1.7197	-68.812210	0.000181	1.810618	0.613454	0.014563
  44	2.1500e-02	1.7374	-68.957845	-0.000362	-3.621237	-1.226908	-0.029127
  45	2.2000e-02	1.8016	-68.557350	0.000996	9.958401	3.373997	0.080099
  46	2.2500e-02	1.8288	-68.156856	0.000996	9.958401	3.373997	0.080099
  47	2.3000e-02	1.8689	-68.193265	-0.000091	-0.905309	-0.306727	-0.007282
  48	2.3500e-02	1.8834	-68.120448	0.000181	1.810618	0.613454	0.014563
  49	2.4000e-02	1.9251	-67.865587	0.000634	6.337164	2.147089	0.050972
  50	2.4500e-02	1.9812	-67.901996	-0.000091	-0.905309	-0.306727	-0.007282
  51	2.5000e-02	2.0053	-67.792770	0.000272	2.715927	0.920181	0.021845
  52	2.5500e-02	2.0454	-67.501502	0.000724	7.242473	2.453816	0.058254
  53	2.6000e-02	2.1080	-67.537910	-0.000091	-0.905309	-0.306727	-0.007282
  54	2.6500e-02	2.1368	-67.319459	0.000543	5.431855	1.840362	0.043690
  55	2.7000e-02	2.1850	-67.028190	0.000724	7.242473	2.453816	0.058254
  56	2.7500e-02	2.2187	-67.392276	-0.000905	-9.053092	-3.067270	-0.072817
  57	2.8000e-02	2.2491	-66.918964	0.001177	11.769019	3.987452	0.094662
  58	2.8500e-02	2.2876	-66.955373	-0.000091	-0.905309	-0.306727	-0.007282
  59	2.9000e-02	2.3326	-66.591287	0.000905	9.053092	3.067270	0.072817
  60	2.9500e-02	2.3566	-66.336427	0.000634	6.337164	2.147089	0.050972
  61	3.0000e-02	2.4015	-66.190793	0.000362	3.621237	1.226908	0.029127
  62	3.0500e-02	2.4449	-66.482062	-0.000724	-7.242473	-2.453816	-0.058254
  63	3.1000e-02	2.5074	-66.008750	0.001177	11.769019	3.987452	0.094662
  64	3.1500e-02	2.5395	-66.263610	-0.000634	-6.337164	-2.147089	-0.050972
  65	3.2000e-02	2.5700	-65.681073	0.001448	14.484946	4.907633	0.116507
  66	3.2500e-02	2.6229	-65.753890	-0.000181	-1.810618	-0.613454	-0.014563
  67	3.3000e-02	2.6325	-65.389804	0.000905	9.053092	3.067270	0.072817
  68	3.3500e-02	2.6791	-65.863116	-0.001177	-11.769019	-3.987452	-0.094662
  69	3.4000e-02	2.7256	-65.025718	0.002082	20.822110	7.054722	0.167479
  70	3.4500e-02	2.7513	-65.717481	-0.001720	-17.200874	-5.827814	-0.138353
  71	3.5000e-02	2.8122	-65.025718	0.001720	17.200874	5.827814	0.138353
  72	3.5500e-02	2.8443	-64.989310	0.000091	0.905309	0.306727	0.007282
  73	3.6000e-02	2.9037	-64.698041	0.000724	7.242473	2.453816	0.058254
  74	3.6500e-02	2.9502	-64.843676	-0.000362	-3.621237	-1.226908	-0.029127
  75	3.7000e-02	2.9726	-64.443181	0.000996	9.958401	3.373997	0.080099
  76	3.7500e-02	3.0176	-64.406773	0.000091	0.905309	0.306727	0.007282
  77	3.8000e-02	3.0625	-64.079095	0.000815	8.147782	2.760543	0.065535
  78	3.8500e-02	3.1122	-64.297547	-0.000543	-5.431855	-1.840362	-0.043690
  79	3.9000e-02	3.1315	-63.969870	0.000815	8.147782	2.760543	0.065535
  80	3.9500e-02	3.1732	-63.933461	0.000091	0.905309	0.306727	0.007282
  81	4.0000e-02	3.2085	-63.642193	0.000724	7.242473	2.453816	0.058254
  82	4.0500e-02	3.2678	-63.605784	0.000091	0.905309	0.306727	0.007282
  83	4.1000e-02	3.2887	-63.642193	-0.000091	-0.905309	-0.306727	-0.007282
  84	4.1500e-02	3.3192	-63.387332	0.000634	6.337164	2.147089	0.050972
  85	4.2000e-02	3.3689	-63.350924	0.000091	0.905309	0.306727	0.007282
  86	4.2500e-02	3.4058	-63.059655	0.000724	7.242473	2.453816	0.058254
  87	4.3000e-02	3.4539	-62.804795	0.000634	6.337164	2.147089	0.050972
  88	4.3500e-02	3.4972	-62.804795	0.000000	0.000000	0.000000	0.000000
  89	4.4000e-02	3.5389	-62.659161	0.000362	3.621237	1.226908	0.029127
  90	4.4500e-02	3.5726	-62.841204	-0.000453	-4.526546	-1.533635	-0.036409
  91	4.5000e-02	3.6175	-62.440709	0.000996	9.958401	3.373997	0.080099
  92	4.5500e-02	3.6737	-62.185849	0.000634	6.337164	2.147089	0.050972
  93	4.6000e-02	3.6705	-62.331484	0.000362	3.621237	1.226908	-0.029127
  94	4.6500e-02	3.7234	-61.748947	0.001448	14.484946	4.907633	0.116507
  95	4.7000e-02	3.7780	-62.295075	-0.001358	-13.579637	-4.600906	-0.109226
  96	4.7500e-02	3.8405	-61.858172	0.001086	10.863710	3.680725	0.087381
  97	4.8000e-02	3.8774	-61.712538	0.000362	3.621237	1.226908	0.029127
  98	4.8500e-02	3.8742	-61.676129	-0.000091	-0.905309	-0.306727	0.007282
  99	4.9000e-02	3.9336	-61.348452	0.000815	8.147782	2.760543	0.065535
 100	4.9500e-02	4.0106	-61.603312	-0.000634	-6.337164	-2.147089	-0.050972
 101	5.0000e-02	4.0170	-61.166409	0.001086	10.863710	3.680725	0.087381
 102	5.0500e-02	4.0748	-61.275635	-0.000272	-2.715927	-0.920181	-0.021845
 103	5.1000e-02	4.0731	-60.947958	-0.000815	-8.147782	-2.760543	0.065535
 104	5.1500e-02	4.1485	-61.020775	-0.000181	-1.810618	-0.613454	-0.014563
 105	5.2000e-02	4.1983	-60.765915	0.000634	6.337164	2.147089	0.050972
 106	5.2500e-02	4.2079	-60.765915	0.000000	0.000000	0.000000	0.000000
 107	5.3000e-02	4.2576	-60.037743	0.001811	18.106183	6.134541	0.145634
 108	5.3500e-02	4.2961	-60.693098	-0.001630	-16.295565	-5.521087	-0.131071
 109	5.4000e-02	4.3411	-60.365421	0.000815	8.147782	2.760543	0.065535
 110	5.4500e-02	4.3715	-60.292603	0.000181	1.810618	0.613454	0.014563
 111	5.5000e-02	4.4084	-59.819292	0.001177	11.769019	3.987452	0.094662
 112	5.5500e-02	4.4582	-60.074152	-0.000634	-6.337164	-2.147089	-0.050972
 113	5.6000e-02	4.4935	-59.455206	0.001539	15.390256	5.214360	0.123789
 114	5.6500e-02	4.5384	-59.855701	-0.000996	-9.958401	-3.373997	-0.080099
 115	5.7000e-02	4.5705	-59.345980	0.001267	12.674328	4.294179	0.101944
 116	5.7500e-02	4.6250	-59.528023	-0.000453	-4.526546	-1.533635	-0.036409
 117	5.8000e-02	4.6619	-59.309572	0.000543	5.431855	1.840362	0.043690
 118	5.8500e-02	4.6972	-58.690626	0.001539	15.390256	5.214360	0.123789
 119	5.9000e-02	4.7453	-58.909078	-0.000543	-5.431855	-1.840362	-0.043690
 120	5.9500e-02	4.7822	-58.872669	0.000091	0.905309	0.306727	0.007282
 121	6.0000e-02	4.8159	-58.909078	-0.000091	-0.905309	-0.306727	-0.007282
 122	6.0500e-02	4.8528	-58.362949	0.001358	13.579637	4.600906	0.109226
 123	6.1000e-02	4.8753	-58.399357	-0.000091	-0.905309	-0.306727	-0.007282
 124	6.1500e-02	4.9426	-58.472175	-0.000181	-1.810618	-0.613454	-0.014563
 125	6.2000e-02	4.9619	-58.144497	0.000815	8.147782	2.760543	0.065535
 126	6.2500e-02	5.0293	-58.108089	0.000091	0.905309	0.306727	0.007282
 127	6.3000e-02	5.0646	-58.108089	0.000000	0.000000	0.000000	0.000000
 128	6.3500e-02	5.0854	-57.926046	0.000453	4.526546	1.533635	0.036409
 129	6.4000e-02	5.1464	-57.343509	0.001448	14.484946	4.907633	0.116507
 130	6.4500e-02	5.1865	-57.525552	-0.000453	-4.526546	-1.533635	-0.036409
 131	6.5000e-02	5.2378	-57.307100	0.000543	5.431855	1.840362	0.043690
 132	6.5500e-02	5.2779	-57.197874	0.000272	2.715927	0.920181	0.021845
 133	6.6000e-02	5.2731	-57.489143	0.000724	7.242473	2.453816	-0.058254
 134	6.6500e-02	5.3405	-56.870197	0.001539	15.390256	5.214360	0.123789
 135	6.7000e-02	5.3966	-57.052240	-0.000453	-4.526546	-1.533635	-0.036409
 136	6.7500e-02	5.4351	-56.833789	0.000543	5.431855	1.840362	0.043690
 137	6.8000e-02	5.4640	-56.870197	-0.000091	-0.905309	-0.306727	-0.007282
 138	6.8500e-02	5.5009	-56.542520	0.000815	8.147782	2.760543	0.065535
 139	6.9000e-02	5.5506	-56.142026	0.000996	9.958401	3.373997	0.080099
 140	6.9500e-02	5.5891	-56.396886	-0.000634	-6.337164	-2.147089	-0.050972
 141	7.0000e-02	5.6164	-56.324069	0.000181	1.810618	0.613454	0.014563
 142	7.0500e-02	5.6742	-55.996391	0.000815	8.147782	2.760543	0.065535
 143	7.1000e-02	5.6710	-56.142026	0.000362	3.621237	1.226908	-0.029127
 144	7.1500e-02	5.7415	-55.777940	0.000905	9.053092	3.067270	0.072817
 145	7.2000e-02	5.7833	-55.486671	0.000724	7.242473	2.453816	0.058254
 146	7.2500e-02	5.8298	-55.850757	-0.000905	-9.053092	-3.067270	-0.072817
 147	7.3000e-02	5.8683	-55.341037	0.001267	12.674328	4.294179	0.101944
 148	7.3500e-02	5.8988	-55.268220	0.000181	1.810618	0.613454	0.014563
 149	7.4000e-02	5.9148	-54.794908	0.001177	11.769019	3.987452	0.094662
 150	7.4500e-02	5.9661	-55.231811	-0.001086	-10.863710	-3.680725	-0.087381
 151	7.5000e-02	6.0335	-54.794908	0.001086	10.863710	3.680725	0.087381
 152	7.5500e-02	6.0528	-55.195403	-0.000996	-9.958401	-3.373997	-0.080099
 153	7.6000e-02	6.0993	-54.685683	0.001267	12.674328	4.294179	0.101944
 154	7.6500e-02	6.1394	-54.612865	0.000181	1.810618	0.613454	0.014563
 155	7.7000e-02	6.1907	-54.467231	0.000362	3.621237	1.226908	0.029127
 156	7.7500e-02	6.2389	-54.248780	0.000543	5.431855	1.840362	0.043690
 157	7.8000e-02	6.2421	-53.739060	0.001267	12.674328	4.294179	0.101944
 158	7.8500e-02	6.3062	-53.593425	0.000362	3.621237	1.226908	0.029127
 159	7.9000e-02	6.3544	-53.848285	-0.000634	-6.337164	-2.147089	-0.050972
 160	7.9500e-02	6.3800	-53.411382	0.001086	10.863710	3.680725	0.087381
 161	8.0000e-02	6.4250	-53.447791	-0.000091	-0.905309	-0.306727	-0.007282
 162	8.0500e-02	6.4474	-53.484200	-0.000091	-0.905309	-0.306727	-0.007282
 163	8.1000e-02	6.4811	-53.557017	-0.000181	-1.810618	-0.613454	-0.014563
 164	8.1500e-02	6.5260	-52.974479	0.001448	14.484946	4.907633	0.116507
 165	8.2000e-02	6.5725	-53.229340	-0.000634	-6.337164	-2.147089	-0.050972
 166	8.2500e-02	6.5854	-52.792437	0.001086	10.863710	3.680725	0.087381
 167	8.3000e-02	6.6608	-52.573985	0.000543	5.431855	1.840362	0.043690
 168	8.3500e-02	6.7201	-52.719619	-0.000362	-3.621237	-1.226908	-0.029127
 169	8.4000e-02	6.7410	-52.646802	0.000181	1.810618	0.613454	0.014563
 170	8.4500e-02	6.7683	-52.100674	0.001358	13.579637	4.600906	0.109226
 171	8.5000e-02	6.8308	-52.464759	-0.000905	-9.053092	-3.067270	-0.072817
 172	8.5500e-02	6.8404	-51.882222	0.001448	14.484946	4.907633	0.116507
 173	8.6000e-02	6.8998	-51.663771	0.000543	5.431855	1.840362	0.043690
 174	8.6500e-02	6.9319	-52.209899	-0.001358	-13.579637	-4.600906	-0.109226
 175	8.7000e-02	6.9688	-51.408911	0.001992	19.916801	6.747995	0.160198
 176	8.7500e-02	7.0185	-51.481728	-0.000181	-1.810618	-0.613454	-0.014563
 177	8.8000e-02	7.0394	-51.408911	0.000181	1.810618	0.613454	0.014563
 178	8.8500e-02	7.0827	-51.081233	0.000815	8.147782	2.760543	0.065535
 179	8.9000e-02	7.1228	-51.554545	-0.001177	-11.769019	-3.987452	-0.094662
 180	8.9500e-02	7.1805	-51.190459	0.000905	9.053092	3.067270	0.072817
 181	9.0000e-02	7.2351	-50.935599	0.000634	6.337164	2.147089	0.050972
 182	9.0500e-02	7.2688	-50.826373	0.000272	2.715927	0.920181	0.021845
 183	9.1000e-02	7.3057	-50.462288	0.000905	9.053092	3.067270	0.072817
 184	9.1500e-02	7.3265	-50.389471	0.000181	1.810618	0.613454	0.014563
 185	9.2000e-02	7.3875	-50.425879	-0.000091	-0.905309	-0.306727	-0.007282
 186	9.2500e-02	7.4276	-49.806933	0.001539	15.390256	5.214360	0.123789
 187	9.3000e-02	7.4757	-49.988976	-0.000453	-4.526546	-1.533635	-0.036409
 188	9.3500e-02	7.4966	-50.098202	-0.000272	-2.715927	-0.920181	-0.021845
 189	9.4000e-02	7.5736	-49.406439	0.001720	17.200874	5.827814	0.138353
 190	9.4500e-02	7.5640	-49.806933	0.000996	9.958401	3.373997	-0.080099
 191	9.5000e-02	7.6057	-49.479256	0.000815	8.147782	2.760543	0.065535
 192	9.5500e-02	7.6602	-49.333622	0.000362	3.621237	1.226908	0.029127
 193	9.6000e-02	7.7067	-49.333622	0.000000	0.000000	0.000000	0.000000
 194	9.6500e-02	7.7420	-48.969536	0.000905	9.053092	3.067270	0.072817
 195	9.7000e-02	7.7709	-48.969536	0.000000	0.000000	0.000000	0.000000
 196	9.7500e-02	7.7998	-49.370030	-0.000996	-9.958401	-3.373997	-0.080099
 197	9.8000e-02	7.8559	-48.277773	0.002716	27.159275	9.201811	0.218451
 198	9.8500e-02	7.9089	-48.605450	-0.000815	-8.147782	-2.760543	-0.065535
 199	9.9000e-02	7.9345	-48.168547	0.001086	10.863710	3.680725	0.087381
 200	9.9500e-02	7.9762	-48.095730	0.000181	1.810618	0.613454	0.014563
 201	1.0000e-01	7.9987	-48.059322	0.000091	0.905309	0.306727	0.007282
 202	1.0050e-01	8.0597	-47.877279	0.000453	4.526546	1.533635	0.036409
 203	1.0100e-01	8.1046	-47.986504	-0.000272	-2.715927	-0.920181	-0.021845
 204	1.0150e-01	8.1431	-47.877279	0.000272	2.715927	0.920181	0.021845
 205	1.0200e-01	8.1800	-47.586010	0.000724	7.242473	2.453816	0.058254
 206	1.0250e-01	8.2057	-47.513193	0.000181	1.810618	0.613454	0.014563
 207	1.0300e-01	8.2506	-47.403967	0.000272	2.715927	0.920181	0.021845
 208	1.0350e-01	8.3099	-47.003473	0.000996	9.958401	3.373997	0.080099
 209	1.0400e-01	8.3436	-46.602979	0.000996	9.958401	3.373997	0.080099
 210	1.0450e-01	8.3677	-46.785021	-0.000453	-4.526546	-1.533635	-0.036409
 211	1.0500e-01	8.4174	-46.457344	0.000815	8.147782	2.760543	0.065535
 212	1.0550e-01	8.4655	-46.675796	-0.000543	-5.431855	-1.840362	-0.043690
 213	1.0600e-01	8.4880	-46.129667	0.001358	13.579637	4.600906	0.109226
 214	1.0650e-01	8.5313	-46.129667	0.000000	0.000000	0.000000	0.000000
 215	1.0700e-01	8.5666	-46.129667	0.000000	0.000000	0.000000	0.000000
 216	1.0750e-01	8.6340	-46.056850	0.000181	1.810618	0.613454	0.014563
 217	1.0800e-01	8.6420	-45.547130	0.001267	12.674328	4.294179	0.101944
 218	1.0850e-01	8.6837	-45.692764	-0.000362	-3.621237	-1.226908	-0.029127
 219	1.0900e-01	8.7511	-45.656356	0.000091	0.905309	0.306727	0.007282
 220	1.0950e-01	8.7896	-45.292270	0.000905	9.053092	3.067270	0.072817
 221	1.1000e-01	8.8104	-45.110227	0.000453	4.526546	1.533635	0.036409
 222	1.1050e-01	8.8554	-45.292270	-0.000453	-4.526546	-1.533635	-0.036409
 223	1.1100e-01	8.8907	-44.636915	0.001630	16.295565	5.521087	0.131071
 224	1.1150e-01	8.9372	-44.818958	-0.000453	-4.526546	-1.533635	-0.036409
 225	1.1200e-01	8.9789	-44.345647	0.001177	11.769019	3.987452	0.094662
 226	1.1250e-01	9.0094	-44.345647	0.000000	0.000000	0.000000	0.000000
 227	1.1300e-01	9.0767	-44.127195	0.000543	5.431855	1.840362	0.043690
 228	1.1350e-01	9.0784	-44.090787	0.000091	0.905309	0.306727	0.007282
 229	1.1400e-01	9.1217	-43.981561	0.000272	2.715927	0.920181	0.021845
 230	1.1450e-01	9.1842	-43.763110	0.000543	5.431855	1.840362	0.043690
 231	1.1500e-01	9.2131	-43.617475	0.000362	3.621237	1.226908	0.029127
 232	1.1550e-01	9.2644	-43.107755	0.001267	12.674328	4.294179	0.101944
 233	1.1600e-01	9.2885	-43.289798	-0.000453	-4.526546	-1.533635	-0.036409
 234	1.1650e-01	9.3382	-43.107755	0.000453	4.526546	1.533635	0.036409
 235	1.1700e-01	9.3735	-42.889304	0.000543	5.431855	1.840362	0.043690
 236	1.1750e-01	9.4185	-42.561626	0.000815	8.147782	2.760543	0.065535
 237	1.1800e-01	9.4650	-42.816487	-0.000634	-6.337164	-2.147089	-0.050972
 238	1.1850e-01	9.4955	-42.270358	0.001358	13.579637	4.600906	0.109226
 239	1.1900e-01	9.5468	-42.488809	-0.000543	-5.431855	-1.840362	-0.043690
 240	1.1950e-01	9.5853	-42.197541	0.000724	7.242473	2.453816	0.058254
 241	1.2000e-01	9.6110	-41.979089	0.000543	5.431855	1.840362	0.043690
 242	1.2050e-01	9.6559	-41.833455	0.000362	3.621237	1.226908	0.029127
 243	1.2100e-01	9.6767	-41.724229	0.000272	2.715927	0.920181	0.021845
 244	1.2150e-01	9.7313	-41.323735	0.000996	9.958401	3.373997	0.080099
 245	1.2200e-01	9.7762	-41.178101	0.000362	3.621237	1.226908	0.029127
 246	1.2250e-01	9.8243	-41.432961	-0.000634	-6.337164	-2.147089	-0.050972
 247	1.2300e-01	9.8532	-41.105283	0.000815	8.147782	2.760543	0.065535
 248	1.2350e-01	9.9029	-40.595563	0.001267	12.674328	4.294179	0.101944
 249	1.2400e-01	9.9366	-41.068875	-0.001177	-11.769019	-3.987452	-0.094662
 250	1.2450e-01	9.9767	-40.486338	0.001448	14.484946	4.907633	0.116507
 251	1.2500e-01	10.0184	-40.486338	0.000000	0.000000	0.000000	0.000000
 252	1.2550e-01	10.0569	-40.013026	0.001177	11.769019	3.987452	0.094662
 253	1.2600e-01	10.1099	-40.013026	0.000000	0.000000	0.000000	0.000000
 254	1.2650e-01	10.1420	-40.085843	-0.000181	-1.810618	-0.613454	-0.014563
 255	1.2700e-01	10.1660	-39.576123	0.001267	12.674328	4.294179	0.101944
 256	1.2750e-01	10.2190	-39.539715	0.000091	0.905309	0.306727	0.007282
