»»»»»»»»»»»»»»»»»»»»»»»»»»»»»»»»»»»» Hysteresis ««««««««««««««««««««««««««««««««««««
»»»  Executed Version:	5.48.1
»»»  Vision Version:	5.48.4 (R)
»»»  Vision Compiled:	9/18/24
»»»  Driver Version:	5.47.0
»»»  Windows Version:	Windows 8 or 8.1
»»»  Processor Information:	x86 (AMD or Intel) - 32 Processors
»»»  Tester Name:	PMF21124-494 (100V)
»»»  Tester S/N:	PMF21124-494
»»»  Internal Amp Type:	100V RevK 270k
»»»  Internal Amp S/N:	iAB2-596/K     
»»»  Execution Count:	1
»»»»»»»»»»»»»»»»»»»»»»»»»»»»»»»»»»»»»»»»»»««««««««««««««««««««««««««««««««««««««««««

Stored:	10/8/2025 - 17:18:34
Configured:	10/08/25 04:22:59 PM
Executed:	10/08/25 05:17:55 PM

»»»»»»»»»»»»»»»»»»»»»»»»»»»»»»»»»»» Sample Info ««««««««««««««««««««««««««««««««««««
Sample Name:	Int. Ref. Ferroelectric
Lot Name:	N/A
Wafer Name:	N/A
Die Row/Column:	0/0
Capacitor Number:	0
Sample Area (cm2):	1.00e-04
Sample Thickness (microns):	3.00e-01

Amplifier:	Internal

»»»»»»»»»»»»»»»»»»»»»»»»»»»»»»»»»»» Tester Info «««««««««««««««««««««««««««««««««««
Tester Name:	PMF21124-494 (100V)
Tester Serial Number:	PMF21124-494
Return Signal Amp. Level:	0.02 [Index: 2]

»»»»»»»»»»»»»»»»»»»»»»»»»»»»»»»» Hysteresis Info ««««««««««««««««««««««««««««««««««
Task Name:	Hyst-8
Volts:	20.00
Field:	666.67 (kV/cm)
DCBias:	0.00
DCField:	0.00 (kV/cm)
Hysteresis Period (ms):	5.00e-01
Preset:	Enabled
Preset Delay (ms):	1.00e+03
Profile:	Standard Monopolar

»»»»»»»»»»»»»»»»»»»»»»»»»»»»»»»»»»»»»» Data «««««««««««««««««««««««««««««««««««««««
Points:	1001

Valid Data

Point	Time (ms)	Drive Voltage	Measured Polarization (uC/cm2)	Capacitance (uF)	Normalized Capacitance (uF/cm2)	Dielectric Constant	Instantaneous Current (mA)
   1	0.0000e+00	0.0193	-14.508818	-0.000359	-3.592803	-1.217275	-0.029127
   2	5.0000e-04	0.0465	-14.654452	-0.000359	-3.592803	-1.217275	-0.029127
   3	1.0000e-03	0.1348	-14.836495	-0.000449	-4.491004	-1.521593	-0.036409
   4	1.5000e-03	0.1364	-14.836495	0.000000	0.000000	0.000000	0.000000
   5	2.0000e-03	0.2037	-14.763678	0.000180	1.796402	0.608637	0.014563
   6	2.5000e-03	0.2358	-14.363184	0.000988	9.880209	3.347505	0.080099
   7	3.0000e-03	0.2663	-14.181141	0.000449	4.491004	1.521593	0.036409
   8	3.5000e-03	0.2839	-14.326775	-0.000359	-3.592803	-1.217275	-0.029127
   9	4.0000e-03	0.3513	-14.436001	-0.000269	-2.694602	-0.912956	-0.021845
  10	4.5000e-03	0.3882	-14.035506	0.000988	9.880209	3.347505	0.080099
  11	5.0000e-03	0.4203	-14.581635	-0.001347	-13.473012	-4.564780	-0.109226
  12	5.5000e-03	0.4781	-13.780646	0.001976	19.760418	6.695011	0.160198
  13	6.0000e-03	0.5085	-13.926281	-0.000359	-3.592803	-1.217275	-0.029127
  14	6.5000e-03	0.5374	-14.253958	-0.000808	-8.083807	-2.738868	-0.065535
  15	7.0000e-03	0.5823	-13.744238	0.001257	12.574811	4.260461	0.101944
  16	7.5000e-03	0.6305	-13.744238	0.000000	0.000000	0.000000	0.000000
  17	8.0000e-03	0.6898	-13.598603	0.000359	3.592803	1.217275	0.029127
  18	8.5000e-03	0.7219	-13.562195	0.000090	0.898201	0.304319	0.007282
  19	9.0000e-03	0.7861	-13.744238	-0.000449	-4.491004	-1.521593	-0.036409
  20	9.5000e-03	0.7877	-13.525786	0.000539	5.389205	1.825912	0.043690
  21	1.0000e-02	0.8358	-13.016066	0.001257	12.574811	4.260461	0.101944
  22	1.0500e-02	0.9032	-13.088883	-0.000180	-1.796402	-0.608637	-0.014563
  23	1.1000e-02	0.9096	-13.416561	-0.000808	-8.083807	-2.738868	-0.065535
  24	1.1500e-02	0.9417	-12.979658	0.001078	10.778410	3.651824	0.087381
  25	1.2000e-02	0.9930	-12.870432	0.000269	2.694602	0.912956	0.021845
  26	1.2500e-02	1.0620	-12.870432	0.000000	0.000000	0.000000	0.000000
  27	1.3000e-02	1.0813	-12.761206	0.000269	2.694602	0.912956	0.021845
  28	1.3500e-02	1.1278	-12.797615	-0.000090	-0.898201	-0.304319	-0.007282
  29	1.4000e-02	1.1743	-12.542755	0.000629	6.287406	2.130231	0.050972
  30	1.4500e-02	1.2192	-12.324303	0.000539	5.389205	1.825912	0.043690
  31	1.5000e-02	1.2337	-12.360712	-0.000090	-0.898201	-0.304319	-0.007282
  32	1.5500e-02	1.2706	-12.324303	0.000090	0.898201	0.304319	0.007282
  33	1.6000e-02	1.3267	-12.360712	-0.000090	-0.898201	-0.304319	-0.007282
  34	1.6500e-02	1.3476	-12.397120	-0.000090	-0.898201	-0.304319	-0.007282
  35	1.7000e-02	1.4181	-12.142260	0.000629	6.287406	2.130231	0.050972
  36	1.7500e-02	1.4294	-11.996626	0.000359	3.592803	1.217275	0.029127
  37	1.8000e-02	1.4855	-11.996626	0.000000	0.000000	0.000000	0.000000
  38	1.8500e-02	1.5401	-11.850992	0.000359	3.592803	1.217275	0.029127
  39	1.9000e-02	1.5689	-11.596132	0.000629	6.287406	2.130231	0.050972
  40	1.9500e-02	1.5930	-11.778175	-0.000449	-4.491004	-1.521593	-0.036409
  41	2.0000e-02	1.6363	-11.741766	0.000090	0.898201	0.304319	0.007282
  42	2.0500e-02	1.6732	-11.887400	-0.000359	-3.592803	-1.217275	-0.029127
  43	2.1000e-02	1.7133	-11.450497	0.001078	10.778410	3.651824	0.087381
  44	2.1500e-02	1.7566	-11.232046	0.000539	5.389205	1.825912	0.043690
  45	2.2000e-02	1.7919	-11.232046	0.000000	0.000000	0.000000	0.000000
  46	2.2500e-02	1.8208	-11.159229	0.000180	1.796402	0.608637	0.014563
  47	2.3000e-02	1.8818	-10.904369	0.000629	6.287406	2.130231	0.050972
  48	2.3500e-02	1.9363	-11.013595	-0.000269	-2.694602	-0.912956	-0.021845
  49	2.4000e-02	1.9459	-11.013595	0.000000	0.000000	0.000000	0.000000
  50	2.4500e-02	2.0085	-11.013595	0.000000	0.000000	0.000000	0.000000
  51	2.5000e-02	2.0261	-10.904369	0.000269	2.694602	0.912956	0.021845
  52	2.5500e-02	2.0759	-10.576692	0.000808	8.083807	2.738868	0.065535
  53	2.6000e-02	2.1368	-10.503874	0.000180	1.796402	0.608637	0.014563
  54	2.6500e-02	2.1834	-10.576692	-0.000180	-1.796402	-0.608637	-0.014563
  55	2.7000e-02	2.1898	-10.503874	0.000180	1.796402	0.608637	0.014563
  56	2.7500e-02	2.2315	-10.431057	0.000180	1.796402	0.608637	0.014563
  57	2.8000e-02	2.2572	-10.467466	-0.000090	-0.898201	-0.304319	-0.007282
  58	2.8500e-02	2.3085	-10.431057	0.000090	0.898201	0.304319	0.007282
  59	2.9000e-02	2.3598	-10.321832	0.000269	2.694602	0.912956	0.021845
  60	2.9500e-02	2.3935	-9.957746	0.000898	8.982008	3.043187	0.072817
  61	3.0000e-02	2.4320	-9.739294	0.000539	5.389205	1.825912	0.043690
  62	3.0500e-02	2.4737	-10.212606	-0.001168	-11.676610	-3.956143	-0.094662
  63	3.1000e-02	2.5042	-9.666477	0.001347	13.473012	4.564780	0.109226
  64	3.1500e-02	2.5491	-9.593660	0.000180	1.796402	0.608637	0.014563
  65	3.2000e-02	2.5732	-9.957746	-0.000898	-8.982008	-3.043187	-0.072817
  66	3.2500e-02	2.6374	-9.338800	0.001527	15.269414	5.173417	0.123789
  67	3.3000e-02	2.6967	-9.593660	-0.000629	-6.287406	-2.130231	-0.050972
  68	3.3500e-02	2.7352	-9.411617	0.000449	4.491004	1.521593	0.036409
  69	3.4000e-02	2.7593	-9.411617	0.000000	0.000000	0.000000	0.000000
  70	3.4500e-02	2.7978	-9.302391	0.000269	2.694602	0.912956	0.021845
  71	3.5000e-02	2.8652	-9.302391	0.000000	0.000000	0.000000	0.000000
  72	3.5500e-02	2.8587	-9.156757	-0.000359	-3.592803	-1.217275	0.029127
  73	3.6000e-02	2.9069	-8.901897	0.000629	6.287406	2.130231	0.050972
  74	3.6500e-02	2.9518	-9.302391	-0.000988	-9.880209	-3.347505	-0.080099
  75	3.7000e-02	2.9903	-8.901897	0.000988	9.880209	3.347505	0.080099
  76	3.7500e-02	3.0496	-8.938306	-0.000090	-0.898201	-0.304319	-0.007282
  77	3.8000e-02	3.0930	-9.411617	-0.001168	-11.676610	-3.956143	-0.094662
  78	3.8500e-02	3.1058	-8.865488	0.001347	13.473012	4.564780	0.109226
  79	3.9000e-02	3.1732	-8.683446	0.000449	4.491004	1.521593	0.036409
  80	3.9500e-02	3.1956	-8.829080	-0.000359	-3.592803	-1.217275	-0.029127
  81	4.0000e-02	3.2341	-8.501403	0.000808	8.083807	2.738868	0.065535
  82	4.0500e-02	3.2774	-8.574220	-0.000180	-1.796402	-0.608637	-0.014563
  83	4.1000e-02	3.3336	-8.719854	-0.000359	-3.592803	-1.217275	-0.029127
  84	4.1500e-02	3.3496	-8.210134	0.001257	12.574811	4.260461	0.101944
  85	4.2000e-02	3.3865	-8.137317	0.000180	1.796402	0.608637	0.014563
  86	4.2500e-02	3.4443	-8.355768	-0.000539	-5.389205	-1.825912	-0.043690
  87	4.3000e-02	3.4972	-8.210134	0.000359	3.592803	1.217275	0.029127
  88	4.3500e-02	3.5004	-7.882457	0.000808	8.083807	2.738868	0.065535
  89	4.4000e-02	3.5566	-8.428586	-0.001347	-13.473012	-4.564780	-0.109226
  90	4.4500e-02	3.5951	-7.736823	0.001707	17.065815	5.782055	0.138353
  91	4.5000e-02	3.6143	-8.028091	-0.000719	-7.185606	-2.434549	-0.058254
  92	4.5500e-02	3.6849	-7.918865	0.000269	2.694602	0.912956	0.021845
  93	4.6000e-02	3.7138	-7.481963	0.001078	10.778410	3.651824	0.087381
  94	4.6500e-02	3.7523	-7.809640	-0.000808	-8.083807	-2.738868	-0.065535
  95	4.7000e-02	3.7908	-7.481963	0.000808	8.083807	2.738868	0.065535
  96	4.7500e-02	3.8630	-7.736823	-0.000629	-6.287406	-2.130231	-0.050972
  97	4.8000e-02	3.8726	-7.263511	0.001168	11.676610	3.956143	0.094662
  98	4.8500e-02	3.9191	-7.627597	-0.000898	-8.982008	-3.043187	-0.072817
  99	4.9000e-02	3.9576	-7.445554	0.000449	4.491004	1.521593	0.036409
 100	4.9500e-02	3.9897	-7.372737	0.000180	1.796402	0.608637	0.014563
 101	5.0000e-02	4.0539	-7.263511	0.000269	2.694602	0.912956	0.021845
 102	5.0500e-02	4.0571	-7.154285	0.000269	2.694602	0.912956	0.021845
 103	5.1000e-02	4.1116	-7.008651	0.000359	3.592803	1.217275	0.029127
 104	5.1500e-02	4.1421	-7.008651	0.000000	0.000000	0.000000	0.000000
 105	5.2000e-02	4.1646	-6.753791	0.000629	6.287406	2.130231	0.050972
 106	5.2500e-02	4.2560	-6.717382	0.000090	0.898201	0.304319	0.007282
 107	5.3000e-02	4.2753	-6.935834	-0.000539	-5.389205	-1.825912	-0.043690
 108	5.3500e-02	4.3074	-6.644565	0.000719	7.185606	2.434549	0.058254
 109	5.4000e-02	4.3587	-6.171254	0.001168	11.676610	3.956143	0.094662
 110	5.4500e-02	4.3908	-6.498931	-0.000808	-8.083807	-2.738868	-0.065535
 111	5.5000e-02	4.4229	-6.498931	0.000000	0.000000	0.000000	0.000000
 112	5.5500e-02	4.4758	-6.535340	-0.000090	-0.898201	-0.304319	-0.007282
 113	5.6000e-02	4.5496	-6.207662	0.000808	8.083807	2.738868	0.065535
 114	5.6500e-02	4.5753	-6.316888	-0.000269	-2.694602	-0.912956	-0.021845
 115	5.7000e-02	4.6106	-6.098437	0.000539	5.389205	1.825912	0.043690
 116	5.7500e-02	4.6394	-6.244071	-0.000359	-3.592803	-1.217275	-0.029127
 117	5.8000e-02	4.6747	-6.025619	0.000539	5.389205	1.825912	0.043690
 118	5.8500e-02	4.7068	-5.916394	0.000269	2.694602	0.912956	0.021845
 119	5.9000e-02	4.7389	-6.244071	-0.000808	-8.083807	-2.738868	-0.065535
 120	5.9500e-02	4.7983	-5.843577	0.000988	9.880209	3.347505	0.080099
 121	6.0000e-02	4.8384	-5.843577	0.000000	0.000000	0.000000	0.000000
 122	6.0500e-02	4.8929	-6.025619	-0.000449	-4.491004	-1.521593	-0.036409
 123	6.1000e-02	4.9170	-5.661534	0.000898	8.982008	3.043187	0.072817
 124	6.1500e-02	4.9539	-5.552308	0.000269	2.694602	0.912956	0.021845
 125	6.2000e-02	4.9924	-5.515899	0.000090	0.898201	0.304319	0.007282
 126	6.2500e-02	5.0421	-5.515899	0.000000	0.000000	0.000000	0.000000
 127	6.3000e-02	5.0902	-5.625125	-0.000269	-2.694602	-0.912956	-0.021845
 128	6.3500e-02	5.1127	-5.297448	0.000808	8.083807	2.738868	0.065535
 129	6.4000e-02	5.1624	-5.552308	-0.000629	-6.287406	-2.130231	-0.050972
 130	6.4500e-02	5.2057	-5.115405	0.001078	10.778410	3.651824	0.087381
 131	6.5000e-02	5.2282	-5.297448	-0.000449	-4.491004	-1.521593	-0.036409
 132	6.5500e-02	5.2603	-5.443082	-0.000359	-3.592803	-1.217275	-0.029127
 133	6.6000e-02	5.3309	-4.787728	0.001617	16.167614	5.477736	0.131071
 134	6.6500e-02	5.3437	-5.370265	-0.001437	-14.371213	-4.869099	-0.116507
 135	6.7000e-02	5.4031	-4.933362	0.001078	10.778410	3.651824	0.087381
 136	6.7500e-02	5.4335	-4.605685	0.000808	8.083807	2.738868	0.065535
 137	6.8000e-02	5.4560	-5.042588	-0.001078	-10.778410	-3.651824	-0.087381
 138	6.8500e-02	5.5266	-4.678502	0.000898	8.982008	3.043187	0.072817
 139	6.9000e-02	5.5522	-4.642094	0.000090	0.898201	0.304319	0.007282
 140	6.9500e-02	5.6004	-4.314416	0.000808	8.083807	2.738868	0.065535
 141	7.0000e-02	5.6453	-4.496459	-0.000449	-4.491004	-1.521593	-0.036409
 142	7.0500e-02	5.6982	-4.969771	-0.001168	-11.676610	-3.956143	-0.094662
 143	7.1000e-02	5.7111	-4.387234	0.001437	14.371213	4.869099	0.116507
 144	7.1500e-02	5.7576	-4.532868	-0.000359	-3.592803	-1.217275	-0.029127
 145	7.2000e-02	5.7768	-4.095965	0.001078	10.778410	3.651824	0.087381
 146	7.2500e-02	5.8538	-4.205191	-0.000269	-2.694602	-0.912956	-0.021845
 147	7.3000e-02	5.8891	-3.913922	0.000719	7.185606	2.434549	0.058254
 148	7.3500e-02	5.9260	-4.314416	-0.000988	-9.880209	-3.347505	-0.080099
 149	7.4000e-02	5.9581	-4.059556	0.000629	6.287406	2.130231	0.050972
 150	7.4500e-02	5.9918	-4.095965	-0.000090	-0.898201	-0.304319	-0.007282
 151	7.5000e-02	6.0496	-3.731879	0.000898	8.982008	3.043187	0.072817
 152	7.5500e-02	6.0897	-3.986739	-0.000629	-6.287406	-2.130231	-0.050972
 153	7.6000e-02	6.1105	-3.622653	0.000898	8.982008	3.043187	0.072817
 154	7.6500e-02	6.1570	-3.586245	0.000090	0.898201	0.304319	0.007282
 155	7.7000e-02	6.1955	-3.877513	-0.000719	-7.185606	-2.434549	-0.058254
 156	7.7500e-02	6.2405	-3.768288	0.000269	2.694602	0.912956	0.021845
 157	7.8000e-02	6.2742	-3.622653	0.000359	3.592803	1.217275	0.029127
 158	7.8500e-02	6.3383	-3.477019	0.000359	3.592803	1.217275	0.029127
 159	7.9000e-02	6.3512	-3.477019	0.000000	0.000000	0.000000	0.000000
 160	7.9500e-02	6.4041	-3.404202	0.000180	1.796402	0.608637	0.014563
 161	8.0000e-02	6.4378	-3.185750	0.000539	5.389205	1.825912	0.043690
 162	8.0500e-02	6.4923	-3.367793	-0.000449	-4.491004	-1.521593	-0.036409
 163	8.1000e-02	6.5036	-3.149342	0.000539	5.389205	1.825912	0.043690
 164	8.1500e-02	6.5597	-3.294976	-0.000359	-3.592803	-1.217275	-0.029127
 165	8.2000e-02	6.6062	-2.712439	0.001437	14.371213	4.869099	0.116507
 166	8.2500e-02	6.6367	-3.294976	-0.001437	-14.371213	-4.869099	-0.116507
 167	8.3000e-02	6.6768	-2.858073	0.001078	10.778410	3.651824	0.087381
 168	8.3500e-02	6.7009	-3.076525	-0.000539	-5.389205	-1.825912	-0.043690
 169	8.4000e-02	6.7779	-2.785256	0.000719	7.185606	2.434549	0.058254
 170	8.4500e-02	6.7955	-2.457579	0.000808	8.083807	2.738868	0.065535
 171	8.5000e-02	6.8388	-2.493988	-0.000090	-0.898201	-0.304319	-0.007282
 172	8.5500e-02	6.8902	-2.457579	0.000090	0.898201	0.304319	0.007282
 173	8.6000e-02	6.9207	-2.712439	-0.000629	-6.287406	-2.130231	-0.050972
 174	8.6500e-02	6.9864	-2.639622	0.000180	1.796402	0.608637	0.014563
 175	8.7000e-02	6.9929	-2.202719	0.001078	10.778410	3.651824	0.087381
 176	8.7500e-02	7.0346	-2.384762	-0.000449	-4.491004	-1.521593	-0.036409
 177	8.8000e-02	7.1019	-2.493988	-0.000269	-2.694602	-0.912956	-0.021845
 178	8.8500e-02	7.0923	-2.239127	-0.000629	-6.287406	-2.130231	0.050972
 179	8.9000e-02	7.1645	-2.166310	0.000180	1.796402	0.608637	0.014563
 180	8.9500e-02	7.1789	-2.384762	-0.000539	-5.389205	-1.825912	-0.043690
 181	9.0000e-02	7.2335	-2.093493	0.000719	7.185606	2.434549	0.058254
 182	9.0500e-02	7.2977	-2.093493	0.000000	0.000000	0.000000	0.000000
 183	9.1000e-02	7.3089	-1.438139	0.001617	16.167614	5.477736	0.131071
 184	9.1500e-02	7.3795	-2.202719	-0.001886	-18.862217	-6.390692	-0.152916
 185	9.2000e-02	7.3682	-1.838633	-0.000898	-8.982008	-3.043187	0.072817
 186	9.2500e-02	7.4517	-1.474547	0.000898	8.982008	3.043187	0.072817
 187	9.3000e-02	7.5046	-1.729407	-0.000629	-6.287406	-2.130231	-0.050972
 188	9.3500e-02	7.5255	-1.911450	-0.000449	-4.491004	-1.521593	-0.036409
 189	9.4000e-02	7.5463	-1.510956	0.000988	9.880209	3.347505	0.080099
 190	9.4500e-02	7.5768	-1.474547	0.000090	0.898201	0.304319	0.007282
 191	9.5000e-02	7.6281	-1.474547	0.000000	0.000000	0.000000	0.000000
 192	9.5500e-02	7.6666	-1.583773	-0.000269	-2.694602	-0.912956	-0.021845
 193	9.6000e-02	7.7212	-1.110462	0.001168	11.676610	3.956143	0.094662
 194	9.6500e-02	7.7645	-1.438139	-0.000808	-8.083807	-2.738868	-0.065535
 195	9.7000e-02	7.8222	-1.292504	0.000359	3.592803	1.217275	0.029127
 196	9.7500e-02	7.8656	-1.074053	0.000539	5.389205	1.825912	0.043690
 197	9.8000e-02	7.8623	-1.401730	0.000808	8.083807	2.738868	-0.065535
 198	9.8500e-02	7.9041	-0.964827	0.001078	10.778410	3.651824	0.087381
 199	9.9000e-02	7.9746	-1.365322	-0.000988	-9.880209	-3.347505	-0.080099
 200	9.9500e-02	8.0083	-0.709967	0.001617	16.167614	5.477736	0.131071
 201	1.0000e-01	8.0565	-0.746376	-0.000090	-0.898201	-0.304319	-0.007282
 202	1.0050e-01	8.0869	-1.146870	-0.000988	-9.880209	-3.347505	-0.080099
 203	1.0100e-01	8.1222	-1.001236	0.000359	3.592803	1.217275	0.029127
 204	1.0150e-01	8.1607	-0.819193	0.000449	4.491004	1.521593	0.036409
 205	1.0200e-01	8.2073	-0.600742	0.000539	5.389205	1.825912	0.043690
 206	1.0250e-01	8.2538	-0.746376	-0.000359	-3.592803	-1.217275	-0.029127
 207	1.0300e-01	8.2698	-0.455107	0.000719	7.185606	2.434549	0.058254
 208	1.0350e-01	8.3131	-0.200247	0.000629	6.287406	2.130231	0.050972
 209	1.0400e-01	8.3661	-0.673559	-0.001168	-11.676610	-3.956143	-0.094662
 210	1.0450e-01	8.4014	-0.345881	0.000808	8.083807	2.738868	0.065535
 211	1.0500e-01	8.4286	0.127430	0.001168	11.676610	3.956143	0.094662
 212	1.0550e-01	8.4559	-0.673559	-0.001976	-19.760418	-6.695011	-0.160198
 213	1.0600e-01	8.5217	0.054613	0.001796	17.964016	6.086373	0.145634
 214	1.0650e-01	8.5762	0.018204	-0.000090	-0.898201	-0.304319	-0.007282
 215	1.0700e-01	8.5923	-0.236656	-0.000629	-6.287406	-2.130231	-0.050972
 216	1.0750e-01	8.6228	-0.236656	0.000000	0.000000	0.000000	0.000000
 217	1.0800e-01	8.6548	0.200247	0.001078	10.778410	3.651824	0.087381
 218	1.0850e-01	8.7254	0.200247	0.000000	0.000000	0.000000	0.000000
 219	1.0900e-01	8.7655	0.127430	-0.000180	-1.796402	-0.608637	-0.014563
 220	1.0950e-01	8.7976	0.564333	0.001078	10.778410	3.651824	0.087381
 221	1.1000e-01	8.8457	0.309473	-0.000629	-6.287406	-2.130231	-0.050972
 222	1.1050e-01	8.8666	0.163839	-0.000359	-3.592803	-1.217275	-0.029127
 223	1.1100e-01	8.9099	0.309473	0.000359	3.592803	1.217275	0.029127
 224	1.1150e-01	8.9564	0.600742	0.000719	7.185606	2.434549	0.058254
 225	1.1200e-01	9.0078	0.455107	-0.000359	-3.592803	-1.217275	-0.029127
 226	1.1250e-01	9.0254	0.673559	0.000539	5.389205	1.825912	0.043690
 227	1.1300e-01	9.0735	0.455107	-0.000539	-5.389205	-1.825912	-0.043690
 228	1.1350e-01	9.1377	1.037644	0.001437	14.371213	4.869099	0.116507
 229	1.1400e-01	9.1602	1.074053	0.000090	0.898201	0.304319	0.007282
 230	1.1450e-01	9.2083	0.455107	-0.001527	-15.269414	-5.173417	-0.123789
 231	1.1500e-01	9.2035	0.855602	-0.000988	-9.880209	-3.347505	0.080099
 232	1.1550e-01	9.2885	1.110462	0.000629	6.287406	2.130231	0.050972
 233	1.1600e-01	9.3174	1.256096	0.000359	3.592803	1.217275	0.029127
 234	1.1650e-01	9.3848	1.292504	0.000090	0.898201	0.304319	0.007282
 235	1.1700e-01	9.3960	1.001236	-0.000719	-7.185606	-2.434549	-0.058254
 236	1.1750e-01	9.4345	1.328913	0.000808	8.083807	2.738868	0.065535
 237	1.1800e-01	9.4457	1.037644	-0.000719	-7.185606	-2.434549	-0.058254
 238	1.1850e-01	9.5275	1.765816	0.001796	17.964016	6.086373	0.145634
 239	1.1900e-01	9.5564	1.401730	-0.000898	-8.982008	-3.043187	-0.072817
 240	1.1950e-01	9.5757	1.365322	-0.000090	-0.898201	-0.304319	-0.007282
 241	1.2000e-01	9.6254	1.620182	0.000629	6.287406	2.130231	0.050972
 242	1.2050e-01	9.6719	1.256096	-0.000898	-8.982008	-3.043187	-0.072817
 243	1.2100e-01	9.7040	1.583773	0.000808	8.083807	2.738868	0.065535
 244	1.2150e-01	9.7890	1.438139	-0.000359	-3.592803	-1.217275	-0.029127
 245	1.2200e-01	9.7569	1.838633	-0.000988	-9.880209	-3.347505	0.080099
 246	1.2250e-01	9.8580	1.765816	-0.000180	-1.796402	-0.608637	-0.014563
 247	1.2300e-01	9.8436	2.093493	-0.000808	-8.083807	-2.738868	0.065535
 248	1.2350e-01	9.9254	1.292504	-0.001976	-19.760418	-6.695011	-0.160198
 249	1.2400e-01	9.9591	1.692999	0.000988	9.880209	3.347505	0.080099
 250	1.2450e-01	9.9703	1.838633	0.000359	3.592803	1.217275	0.029127
 251	1.2500e-01	10.0249	2.239127	0.000988	9.880209	3.347505	0.080099
 252	1.2550e-01	10.0778	1.984267	-0.000629	-6.287406	-2.130231	-0.050972
 253	1.2600e-01	10.1195	2.348353	0.000898	8.982008	3.043187	0.072817
 254	1.2650e-01	10.1436	2.129902	-0.000539	-5.389205	-1.825912	-0.043690
 255	1.2700e-01	10.2142	2.712439	0.001437	14.371213	4.869099	0.116507
 256	1.2750e-01	10.2174	2.093493	-0.001527	-15.269414	-5.173417	-0.123789
 257	1.2800e-01	10.2767	2.202719	0.000269	2.694602	0.912956	0.021845
 258	1.2850e-01	10.3072	2.639622	0.001078	10.778410	3.651824	0.087381
