»»»»»»»»»»»»»»»»»»»»»»»»»»»»»»»»»»»» Hysteresis ««««««««««««««««««««««««««««««««««««
»»»  Executed Version:	5.48.1
»»»  Vision Version:	5.48.4 (R)
»»»  Vision Compiled:	9/18/24
»»»  Driver Version:	5.47.0
»»»  Windows Version:	Windows 8 or 8.1
»»»  Processor Information:	x86 (AMD or Intel) - 32 Processors
»»»  Tester Name:	PMF21124-494 (100V)
»»»  Tester S/N:	PMF21124-494
»»»  Internal Amp Type:	100V RevK 270k
»»»  Internal Amp S/N:	iAB2-596/K     
»»»  Execution Count:	1
»»»»»»»»»»»»»»»»»»»»»»»»»»»»»»»»»»»»»»»»»»««««««««««««««««««««««««««««««««««««««««««

Stored:	10/8/2025 - 16:27:31
Configured:	10/08/25 04:22:59 PM
Executed:	10/08/25 04:27:00 PM

»»»»»»»»»»»»»»»»»»»»»»»»»»»»»»»»»»» Sample Info ««««««««««««««««««««««««««««««««««««
Sample Name:	Int. Ref. Ferroelectric
Lot Name:	N/A
Wafer Name:	N/A
Die Row/Column:	0/0
Capacitor Number:	0
Sample Area (cm2):	1.00e-04
Sample Thickness (microns):	3.00e-01

Amplifier:	Internal

»»»»»»»»»»»»»»»»»»»»»»»»»»»»»»»»»»» Tester Info «««««««««««««««««««««««««««««««««««
Tester Name:	PMF21124-494 (100V)
Tester Serial Number:	PMF21124-494
Return Signal Amp. Level:	0.02 [Index: 2]

»»»»»»»»»»»»»»»»»»»»»»»»»»»»»»»» Hysteresis Info ««««««««««««««««««««««««««««««««««
Task Name:	Hyst-8
Volts:	20.00
Field:	666.67 (kV/cm)
DCBias:	0.00
DCField:	0.00 (kV/cm)
Hysteresis Period (ms):	5.00e-01
Preset:	Enabled
Preset Delay (ms):	1.00e+03
Profile:	Standard Monopolar

»»»»»»»»»»»»»»»»»»»»»»»»»»»»»»»»»»»»»» Data «««««««««««««««««««««««««««««««««««««««
Points:	1001

Valid Data

Point	Time (ms)	Drive Voltage	Measured Polarization (uC/cm2)	Capacitance (uF)	Normalized Capacitance (uF/cm2)	Dielectric Constant	Instantaneous Current (mA)
   1	0.0000e+00	-0.0064	-32.312612	0.000445	4.454280	1.509151	0.036409
   2	5.0000e-04	0.0112	-32.130569	0.000445	4.454280	1.509151	0.036409
   3	1.0000e-03	0.1123	-32.130569	0.000000	0.000000	0.000000	0.000000
   4	1.5000e-03	0.1364	-32.094161	0.000089	0.890856	0.301830	0.007282
   5	2.0000e-03	0.1749	-32.021343	0.000178	1.781712	0.603660	0.014563
   6	2.5000e-03	0.1957	-32.166978	-0.000356	-3.563424	-1.207321	-0.029127
   7	3.0000e-03	0.2647	-31.766483	0.000980	9.799417	3.320132	0.080099
   8	3.5000e-03	0.2791	-32.385429	-0.001514	-15.144553	-5.131114	-0.123789
   9	4.0000e-03	0.3128	-31.875709	0.001247	12.471985	4.225623	0.101944
  10	4.5000e-03	0.3513	-32.276203	-0.000980	-9.799417	-3.320132	-0.080099
  11	5.0000e-03	0.4059	-31.948526	0.000802	8.017705	2.716472	0.065535
  12	5.5000e-03	0.4540	-32.021343	-0.000178	-1.781712	-0.603660	-0.014563
  13	6.0000e-03	0.4877	-32.130569	-0.000267	-2.672568	-0.905491	-0.021845
  14	6.5000e-03	0.5390	-32.166978	-0.000089	-0.890856	-0.301830	-0.007282
  15	7.0000e-03	0.6000	-31.875709	0.000713	7.126849	2.414642	0.058254
  16	7.5000e-03	0.6321	-32.021343	-0.000356	-3.563424	-1.207321	-0.029127
  17	8.0000e-03	0.6321	-32.421838	0.000980	9.799417	3.320132	-0.080099
  18	8.5000e-03	0.7107	-31.730075	0.001693	16.926265	5.734774	0.138353
  19	9.0000e-03	0.7636	-31.875709	-0.000356	-3.563424	-1.207321	-0.029127
  20	9.5000e-03	0.7476	-31.912118	0.000089	0.890856	0.301830	-0.007282
  21	1.0000e-02	0.8037	-31.912118	0.000000	0.000000	0.000000	0.000000
  22	1.0500e-02	0.8486	-31.984935	-0.000178	-1.781712	-0.603660	-0.014563
  23	1.1000e-02	0.9064	-31.839301	0.000356	3.563424	1.207321	0.029127
  24	1.1500e-02	0.9176	-31.766483	0.000178	1.781712	0.603660	0.014563
  25	1.2000e-02	0.9850	-31.948526	-0.000445	-4.454280	-1.509151	-0.036409
  26	1.2500e-02	0.9706	-31.693666	-0.000624	-6.235993	-2.112811	0.050972
  27	1.3000e-02	0.9994	-32.312612	-0.001514	-15.144553	-5.131114	-0.123789
  28	1.3500e-02	1.1021	-31.548032	0.001871	18.707978	6.338434	0.152916
  29	1.4000e-02	1.1550	-31.984935	-0.001069	-10.690273	-3.621963	-0.087381
  30	1.4500e-02	1.1743	-32.166978	-0.000445	-4.454280	-1.509151	-0.036409
  31	1.5000e-02	1.2256	-31.802892	0.000891	8.908561	3.018302	0.072817
  32	1.5500e-02	1.2465	-31.875709	-0.000178	-1.781712	-0.603660	-0.014563
  33	1.6000e-02	1.2722	-31.839301	0.000089	0.890856	0.301830	0.007282
  34	1.6500e-02	1.3315	-31.948526	-0.000267	-2.672568	-0.905491	-0.021845
  35	1.7000e-02	1.3588	-31.802892	0.000356	3.563424	1.207321	0.029127
  36	1.7500e-02	1.3989	-31.730075	0.000178	1.781712	0.603660	0.014563
  37	1.8000e-02	1.4486	-32.130569	-0.000980	-9.799417	-3.320132	-0.080099
  38	1.8500e-02	1.4647	-31.584441	0.001336	13.362841	4.527453	0.109226
  39	1.9000e-02	1.5192	-31.548032	0.000089	0.890856	0.301830	0.007282
  40	1.9500e-02	1.5834	-31.693666	-0.000356	-3.563424	-1.207321	-0.029127
  41	2.0000e-02	1.6187	-31.438806	0.000624	6.235993	2.112811	0.050972
  42	2.0500e-02	1.6604	-31.511623	-0.000178	-1.781712	-0.603660	-0.014563
  43	2.1000e-02	1.7278	-31.256763	0.000624	6.235993	2.112811	0.050972
  44	2.1500e-02	1.7181	-31.730075	0.001158	11.581129	3.923793	-0.094662
  45	2.2000e-02	1.7534	-31.147538	0.001425	14.253697	4.829283	0.116507
  46	2.2500e-02	1.8128	-31.475215	-0.000802	-8.017705	-2.716472	-0.065535
  47	2.3000e-02	1.8737	-31.220355	0.000624	6.235993	2.112811	0.050972
  48	2.3500e-02	1.8962	-31.074720	0.000356	3.563424	1.207321	0.029127
  49	2.4000e-02	1.9299	-31.256763	-0.000445	-4.454280	-1.509151	-0.036409
  50	2.4500e-02	1.9443	-30.856269	0.000980	9.799417	3.320132	0.080099
  51	2.5000e-02	1.9973	-30.929086	-0.000178	-1.781712	-0.603660	-0.014563
  52	2.5500e-02	2.0326	-31.111129	-0.000445	-4.454280	-1.509151	-0.036409
  53	2.6000e-02	2.0855	-30.856269	0.000624	6.235993	2.112811	0.050972
  54	2.6500e-02	2.1160	-30.892678	-0.000089	-0.890856	-0.301830	-0.007282
  55	2.7000e-02	2.1577	-30.310140	0.001425	14.253697	4.829283	0.116507
  56	2.7500e-02	2.1930	-30.382957	-0.000178	-1.781712	-0.603660	-0.014563
  57	2.8000e-02	2.2780	-30.419366	-0.000089	-0.890856	-0.301830	-0.007282
  58	2.8500e-02	2.3037	-30.382957	0.000089	0.890856	0.301830	0.007282
  59	2.9000e-02	2.3165	-30.200915	0.000445	4.454280	1.509151	0.036409
  60	2.9500e-02	2.3807	-30.164506	0.000089	0.890856	0.301830	0.007282
  61	3.0000e-02	2.3983	-29.836829	0.000802	8.017705	2.716472	0.065535
  62	3.0500e-02	2.4481	-29.654786	0.000445	4.454280	1.509151	0.036409
  63	3.1000e-02	2.4994	-29.727603	-0.000178	-1.781712	-0.603660	-0.014563
  64	3.1500e-02	2.5443	-29.800420	-0.000178	-1.781712	-0.603660	-0.014563
  65	3.2000e-02	2.5636	-29.399926	0.000980	9.799417	3.320132	0.080099
  66	3.2500e-02	2.6037	-29.327109	0.000178	1.781712	0.603660	0.014563
  67	3.3000e-02	2.6261	-29.217883	0.000267	2.672568	0.905491	0.021845
  68	3.3500e-02	2.7047	-28.999432	0.000535	5.345136	1.810981	0.043690
  69	3.4000e-02	2.7224	-29.072249	-0.000178	-1.781712	-0.603660	-0.014563
  70	3.4500e-02	2.7705	-28.598937	0.001158	11.581129	3.923793	0.094662
  71	3.5000e-02	2.8299	-28.598937	0.000000	0.000000	0.000000	0.000000
  72	3.5500e-02	2.8748	-28.708163	-0.000267	-2.672568	-0.905491	-0.021845
  73	3.6000e-02	2.8491	-28.416894	-0.000713	-7.126849	-2.414642	0.058254
  74	3.6500e-02	2.9165	-28.125626	0.000713	7.126849	2.414642	0.058254
  75	3.7000e-02	2.9694	-28.344077	-0.000535	-5.345136	-1.810981	-0.043690
  76	3.7500e-02	3.0272	-27.725131	0.001514	15.144553	5.131114	0.123789
  77	3.8000e-02	3.0545	-27.688723	0.000089	0.890856	0.301830	0.007282
  78	3.8500e-02	3.0930	-27.470271	0.000535	5.345136	1.810981	0.043690
  79	3.9000e-02	3.1395	-27.288228	0.000445	4.454280	1.509151	0.036409
  80	3.9500e-02	3.1603	-27.251820	0.000089	0.890856	0.301830	0.007282
  81	4.0000e-02	3.1972	-27.106186	0.000356	3.563424	1.207321	0.029127
  82	4.0500e-02	3.2197	-26.887734	0.000535	5.345136	1.810981	0.043690
  83	4.1000e-02	3.2807	-26.268788	0.001514	15.144553	5.131114	0.123789
  84	4.1500e-02	3.3625	-26.487240	-0.000535	-5.345136	-1.810981	-0.043690
  85	4.2000e-02	3.3785	-25.941111	0.001336	13.362841	4.527453	0.109226
  86	4.2500e-02	3.4298	-26.086745	-0.000356	-3.563424	-1.207321	-0.029127
  87	4.3000e-02	3.4491	-26.159563	-0.000178	-1.781712	-0.603660	-0.014563
  88	4.3500e-02	3.4988	-25.759068	0.000980	9.799417	3.320132	0.080099
  89	4.4000e-02	3.5373	-25.904703	-0.000356	-3.563424	-1.207321	-0.029127
  90	4.4500e-02	3.5758	-25.431391	0.001158	11.581129	3.923793	0.094662
  91	4.5000e-02	3.6240	-25.504208	-0.000178	-1.781712	-0.603660	-0.014563
  92	4.5500e-02	3.6705	-25.431391	0.000178	1.781712	0.603660	0.014563
  93	4.6000e-02	3.6978	-24.958080	0.001158	11.581129	3.923793	0.094662
  94	4.6500e-02	3.7154	-24.958080	0.000000	0.000000	0.000000	0.000000
  95	4.7000e-02	3.7748	-24.593994	0.000891	8.908561	3.018302	0.072817
  96	4.7500e-02	3.7940	-24.448359	0.000356	3.563424	1.207321	0.029127
  97	4.8000e-02	3.8437	-24.302725	0.000356	3.563424	1.207321	0.029127
  98	4.8500e-02	3.8550	-23.064834	0.003029	30.289107	10.262227	0.247578
  99	4.9000e-02	3.9047	-22.118211	0.002316	23.162258	7.847585	0.189325
 100	4.9500e-02	3.9769	-21.426448	0.001693	16.926265	5.734774	0.138353
 101	5.0000e-02	3.9817	-20.224965	0.002940	29.398250	9.960397	0.240297
 102	5.0500e-02	4.0683	-19.788062	0.001069	10.690273	3.621963	0.087381
 103	5.1000e-02	4.0860	-19.387567	0.000980	9.799417	3.320132	0.080099
 104	5.1500e-02	4.1181	-18.877847	0.001247	12.471985	4.225623	0.101944
 105	5.2000e-02	4.1790	-18.258901	0.001514	15.144553	5.131114	0.123789
 106	5.2500e-02	4.1887	-17.967633	0.000713	7.126849	2.414642	0.058254
 107	5.3000e-02	4.2673	-17.457913	0.001247	12.471985	4.225623	0.101944
 108	5.3500e-02	4.3314	-17.312278	0.000356	3.563424	1.207321	0.029127
 109	5.4000e-02	4.3234	-16.948193	-0.000891	-8.908561	-3.018302	0.072817
 110	5.4500e-02	4.3715	-16.438472	0.001247	12.471985	4.225623	0.101944
 111	5.5000e-02	4.4004	-16.511290	-0.000178	-1.781712	-0.603660	-0.014563
 112	5.5500e-02	4.4614	-15.928752	0.001425	14.253697	4.829283	0.116507
 113	5.6000e-02	4.4838	-16.074387	-0.000356	-3.563424	-1.207321	-0.029127
 114	5.6500e-02	4.5416	-16.037978	0.000089	0.890856	0.301830	0.007282
 115	5.7000e-02	4.5737	-15.091355	0.002316	23.162258	7.847585	0.189325
 116	5.7500e-02	4.5961	-15.200581	-0.000267	-2.672568	-0.905491	-0.021845
 117	5.8000e-02	4.6410	-15.127764	0.000178	1.781712	0.603660	0.014563
 118	5.8500e-02	4.7036	-14.945721	0.000445	4.454280	1.509151	0.036409
 119	5.9000e-02	4.7453	-14.253958	0.001693	16.926265	5.734774	0.138353
 120	5.9500e-02	4.7790	-14.363184	-0.000267	-2.672568	-0.905491	-0.021845
 121	6.0000e-02	4.8303	-14.217549	0.000356	3.563424	1.207321	0.029127
 122	6.0500e-02	4.8608	-13.926281	0.000713	7.126849	2.414642	0.058254
 123	6.1000e-02	4.8737	-14.217549	-0.000713	-7.126849	-2.414642	-0.058254
 124	6.1500e-02	4.9491	-13.307335	0.002227	22.271402	7.545755	0.182043
 125	6.2000e-02	4.9860	-13.416561	-0.000267	-2.672568	-0.905491	-0.021845
 126	6.2500e-02	5.0293	-13.198109	0.000535	5.345136	1.810981	0.043690
 127	6.3000e-02	5.0630	-12.979658	0.000535	5.345136	1.810981	0.043690
 128	6.3500e-02	5.0966	-13.234518	-0.000624	-6.235993	-2.112811	-0.050972
 129	6.4000e-02	5.1143	-12.797615	0.001069	10.690273	3.621963	0.087381
 130	6.4500e-02	5.1737	-12.360712	0.001069	10.690273	3.621963	0.087381
 131	6.5000e-02	5.1977	-12.433529	-0.000178	-1.781712	-0.603660	-0.014563
 132	6.5500e-02	5.2490	-12.324303	0.000267	2.672568	0.905491	0.021845
 133	6.6000e-02	5.2972	-12.542755	-0.000535	-5.345136	-1.810981	-0.043690
 134	6.6500e-02	5.2924	-11.705357	-0.002049	-20.489690	-6.942095	0.167479
 135	6.7000e-02	5.3630	-12.069443	-0.000891	-8.908561	-3.018302	-0.072817
 136	6.7500e-02	5.4383	-11.450497	0.001514	15.144553	5.131114	0.123789
 137	6.8000e-02	5.4448	-11.486906	-0.000089	-0.890856	-0.301830	-0.007282
 138	6.8500e-02	5.5073	-11.122820	0.000891	8.908561	3.018302	0.072817
 139	6.9000e-02	5.5202	-11.086412	0.000089	0.890856	0.301830	0.007282
 140	6.9500e-02	5.5747	-10.904369	0.000445	4.454280	1.509151	0.036409
 141	7.0000e-02	5.6196	-10.758734	0.000356	3.563424	1.207321	0.029127
 142	7.0500e-02	5.6389	-10.831552	-0.000178	-1.781712	-0.603660	-0.014563
 143	7.1000e-02	5.7063	-10.321832	0.001247	12.471985	4.225623	0.101944
 144	7.1500e-02	5.7159	-10.358240	-0.000089	-0.890856	-0.301830	-0.007282
 145	7.2000e-02	5.7720	-10.066972	0.000713	7.126849	2.414642	0.058254
 146	7.2500e-02	5.8073	-9.557251	0.001247	12.471985	4.225623	0.101944
 147	7.3000e-02	5.8843	-10.176197	-0.001514	-15.144553	-5.131114	-0.123789
 148	7.3500e-02	5.8907	-9.411617	0.001871	18.707978	6.338434	0.152916
 149	7.4000e-02	5.9469	-9.375209	0.000089	0.890856	0.301830	0.007282
 150	7.4500e-02	5.9645	-9.484434	-0.000267	-2.672568	-0.905491	-0.021845
 151	7.5000e-02	6.0303	-9.302391	0.000445	4.454280	1.509151	0.036409
 152	7.5500e-02	6.0608	-9.011123	0.000713	7.126849	2.414642	0.058254
 153	7.6000e-02	6.1009	-8.938306	0.000178	1.781712	0.603660	0.014563
 154	7.6500e-02	6.1298	-8.647037	0.000713	7.126849	2.414642	0.058254
 155	7.7000e-02	6.1923	-8.647037	0.000000	0.000000	0.000000	0.000000
 156	7.7500e-02	6.2228	-8.464994	0.000445	4.454280	1.509151	0.036409
 157	7.8000e-02	6.2324	-8.319360	0.000356	3.563424	1.207321	0.029127
 158	7.8500e-02	6.2918	-8.319360	0.000000	0.000000	0.000000	0.000000
 159	7.9000e-02	6.3239	-7.918865	0.000980	9.799417	3.320132	0.080099
 160	7.9500e-02	6.3752	-7.955274	-0.000089	-0.890856	-0.301830	-0.007282
 161	8.0000e-02	6.4025	-7.554780	0.000980	9.799417	3.320132	0.080099
 162	8.0500e-02	6.4169	-7.554780	0.000000	0.000000	0.000000	0.000000
 163	8.1000e-02	6.4394	-7.627597	-0.000178	-1.781712	-0.603660	-0.014563
 164	8.1500e-02	6.5421	-7.627597	0.000000	0.000000	0.000000	0.000000
 165	8.2000e-02	6.5645	-7.117877	0.001247	12.471985	4.225623	0.101944
 166	8.2500e-02	6.6303	-7.445554	-0.000802	-8.017705	-2.716472	-0.065535
 167	8.3000e-02	6.6945	-7.045060	0.000980	9.799417	3.320132	0.080099
 168	8.3500e-02	6.6897	-6.790200	-0.000624	-6.235993	-2.112811	0.050972
 169	8.4000e-02	6.7249	-6.790200	0.000000	0.000000	0.000000	0.000000
 170	8.4500e-02	6.7650	-6.863017	-0.000178	-1.781712	-0.603660	-0.014563
 171	8.5000e-02	6.8100	-6.316888	0.001336	13.362841	4.527453	0.109226
 172	8.5500e-02	6.8597	-6.462522	-0.000356	-3.563424	-1.207321	-0.029127
 173	8.6000e-02	6.8870	-5.807168	0.001604	16.035409	5.432944	0.131071
 174	8.6500e-02	6.9303	-6.062028	-0.000624	-6.235993	-2.112811	-0.050972
 175	8.7000e-02	6.9752	-5.879985	0.000445	4.454280	1.509151	0.036409
 176	8.7500e-02	7.0121	-5.697942	0.000445	4.454280	1.509151	0.036409
 177	8.8000e-02	7.0426	-5.588717	0.000267	2.672568	0.905491	0.021845
 178	8.8500e-02	7.0987	-5.443082	0.000356	3.563424	1.207321	0.029127
 179	8.9000e-02	7.1212	-5.224631	0.000535	5.345136	1.810981	0.043690
 180	8.9500e-02	7.1886	-5.370265	-0.000356	-3.563424	-1.207321	-0.029127
 181	9.0000e-02	7.2190	-4.933362	0.001069	10.690273	3.621963	0.087381
 182	9.0500e-02	7.2527	-4.933362	0.000000	0.000000	0.000000	0.000000
 183	9.1000e-02	7.3169	-4.751319	0.000445	4.454280	1.509151	0.036409
 184	9.1500e-02	7.3426	-4.678502	0.000178	1.781712	0.603660	0.014563
 185	9.2000e-02	7.3955	-4.678502	0.000000	0.000000	0.000000	0.000000
 186	9.2500e-02	7.4067	-4.350825	0.000802	8.017705	2.716472	0.065535
 187	9.3000e-02	7.4452	-3.986739	0.000891	8.908561	3.018302	0.072817
 188	9.3500e-02	7.4805	-4.095965	-0.000267	-2.672568	-0.905491	-0.021845
 189	9.4000e-02	7.5046	-4.132373	-0.000089	-0.890856	-0.301830	-0.007282
 190	9.4500e-02	7.5688	-3.768288	0.000891	8.908561	3.018302	0.072817
 191	9.5000e-02	7.6121	-3.804696	-0.000089	-0.890856	-0.301830	-0.007282
 192	9.5500e-02	7.6506	-3.586245	0.000535	5.345136	1.810981	0.043690
 193	9.6000e-02	7.6746	-3.258568	0.000802	8.017705	2.716472	0.065535
 194	9.6500e-02	7.7372	-3.258568	0.000000	0.000000	0.000000	0.000000
 195	9.7000e-02	7.7741	-3.149342	0.000267	2.672568	0.905491	0.021845
 196	9.7500e-02	7.7821	-2.967299	0.000445	4.454280	1.509151	0.036409
 197	9.8000e-02	7.8303	-3.149342	-0.000445	-4.454280	-1.509151	-0.036409
 198	9.8500e-02	7.8944	-2.493988	0.001604	16.035409	5.432944	0.131071
 199	9.9000e-02	7.9201	-2.493988	0.000000	0.000000	0.000000	0.000000
 200	9.9500e-02	8.0083	-2.311945	0.000445	4.454280	1.509151	0.036409
 201	1.0000e-01	8.0292	-2.421170	-0.000267	-2.672568	-0.905491	-0.021845
 202	1.0050e-01	8.0388	-1.911450	0.001247	12.471985	4.225623	0.101944
 203	1.0100e-01	8.1094	-1.947859	-0.000089	-0.890856	-0.301830	-0.007282
 204	1.0150e-01	8.1399	-1.984267	-0.000089	-0.890856	-0.301830	-0.007282
 205	1.0200e-01	8.1575	-1.802225	0.000445	4.454280	1.509151	0.036409
 206	1.0250e-01	8.1928	-1.328913	0.001158	11.581129	3.923793	0.094662
 207	1.0300e-01	8.2265	-1.474547	-0.000356	-3.563424	-1.207321	-0.029127
 208	1.0350e-01	8.2987	-1.510956	-0.000089	-0.890856	-0.301830	-0.007282
 209	1.0400e-01	8.3003	-1.074053	0.001069	10.690273	3.621963	0.087381
 210	1.0450e-01	8.3821	-0.964827	0.000267	2.672568	0.905491	0.021845
 211	1.0500e-01	8.4190	-0.855602	0.000267	2.672568	0.905491	0.021845
 212	1.0550e-01	8.4752	-0.673559	0.000445	4.454280	1.509151	0.036409
 213	1.0600e-01	8.5281	-0.709967	-0.000089	-0.890856	-0.301830	-0.007282
 214	1.0650e-01	8.5329	-0.309473	0.000980	9.799417	3.320132	0.080099
 215	1.0700e-01	8.5634	-0.236656	0.000178	1.781712	0.603660	0.014563
 216	1.0750e-01	8.6035	-0.309473	-0.000178	-1.781712	-0.603660	-0.014563
 217	1.0800e-01	8.6613	0.200247	0.001247	12.471985	4.225623	0.101944
 218	1.0850e-01	8.6645	0.018204	-0.000445	-4.454280	-1.509151	-0.036409
 219	1.0900e-01	8.7158	0.418699	0.000980	9.799417	3.320132	0.080099
 220	1.0950e-01	8.7639	0.637150	0.000535	5.345136	1.810981	0.043690
 221	1.1000e-01	8.8121	0.782784	0.000356	3.563424	1.207321	0.029127
 222	1.1050e-01	8.8489	0.709967	-0.000178	-1.781712	-0.603660	-0.014563
 223	1.1100e-01	8.8810	0.637150	-0.000178	-1.781712	-0.603660	-0.014563
 224	1.1150e-01	8.9179	1.001236	0.000891	8.908561	3.018302	0.072817
 225	1.1200e-01	8.9693	1.074053	0.000178	1.781712	0.603660	0.014563
 226	1.1250e-01	9.0286	1.183279	0.000267	2.672568	0.905491	0.021845
 227	1.1300e-01	9.0495	1.438139	0.000624	6.235993	2.112811	0.050972
 228	1.1350e-01	9.0944	1.365322	-0.000178	-1.781712	-0.603660	-0.014563
 229	1.1400e-01	9.1377	1.620182	0.000624	6.235993	2.112811	0.050972
 230	1.1450e-01	9.1313	1.875042	-0.000624	-6.235993	-2.112811	0.050972
 231	1.1500e-01	9.2035	1.802225	-0.000178	-1.781712	-0.603660	-0.014563
 232	1.1550e-01	9.2420	1.947859	0.000356	3.563424	1.207321	0.029127
 233	1.1600e-01	9.2644	2.348353	0.000980	9.799417	3.320132	0.080099
 234	1.1650e-01	9.3174	2.275536	-0.000178	-1.781712	-0.603660	-0.014563
 235	1.1700e-01	9.3447	2.530396	0.000624	6.235993	2.112811	0.050972
 236	1.1750e-01	9.4040	2.530396	0.000000	0.000000	0.000000	0.000000
 237	1.1800e-01	9.4249	2.676030	0.000356	3.563424	1.207321	0.029127
 238	1.1850e-01	9.4794	2.785256	0.000267	2.672568	0.905491	0.021845
 239	1.1900e-01	9.5211	3.112933	0.000802	8.017705	2.716472	0.065535
 240	1.1950e-01	9.5869	3.477019	0.000891	8.908561	3.018302	0.072817
 241	1.2000e-01	9.5917	3.040116	-0.001069	-10.690273	-3.621963	-0.087381
 242	1.2050e-01	9.6639	3.440611	0.000980	9.799417	3.320132	0.080099
 243	1.2100e-01	9.6767	3.586245	0.000356	3.563424	1.207321	0.029127
 244	1.2150e-01	9.7072	3.513428	-0.000178	-1.781712	-0.603660	-0.014563
 245	1.2200e-01	9.7553	4.059556	0.001336	13.362841	4.527453	0.109226
 246	1.2250e-01	9.8083	4.168782	0.000267	2.672568	0.905491	0.021845
 247	1.2300e-01	9.8500	3.913922	-0.000624	-6.235993	-2.112811	-0.050972
 248	1.2350e-01	9.8933	4.205191	0.000713	7.126849	2.414642	0.058254
 249	1.2400e-01	9.9238	4.350825	0.000356	3.563424	1.207321	0.029127
 250	1.2450e-01	9.9575	4.532868	0.000445	4.454280	1.509151	0.036409
 251	1.2500e-01	10.0152	4.896954	0.000891	8.908561	3.018302	0.072817
 252	1.2550e-01	10.0361	4.569276	-0.000802	-8.017705	-2.716472	-0.065535
 253	1.2600e-01	10.1115	4.787728	0.000535	5.345136	1.810981	0.043690
 254	1.2650e-01	10.1259	4.824136	0.000089	0.890856	0.301830	0.007282
 255	1.2700e-01	10.1692	4.933362	0.000267	2.672568	0.905491	0.021845
 256	1.2750e-01	10.1917	5.261039	0.000802	8.017705	2.716472	0.065535
 257	1.2800e-01	10.2430	5.078996	-0.000445	-4.454280	-1.509151	-0.036409
 258	1.2850e-01	10.2912	5.515899	0.001069	10.690273	3.621963	0.087381
