»»»»»»»»»»»»»»»»»»»»»»»»»»»»»»»»»»»» Hysteresis ««««««««««««««««««««««««««««««««««««
»»»  Executed Version:	5.48.1
»»»  Vision Version:	5.48.4 (R)
»»»  Vision Compiled:	9/18/24
»»»  Driver Version:	5.47.0
»»»  Windows Version:	Windows 8 or 8.1
»»»  Processor Information:	x86 (AMD or Intel) - 32 Processors
»»»  Tester Name:	PMF21124-494 (100V)
»»»  Tester S/N:	PMF21124-494
»»»  Internal Amp Type:	100V RevK 270k
»»»  Internal Amp S/N:	iAB2-596/K     
»»»  Execution Count:	1
»»»»»»»»»»»»»»»»»»»»»»»»»»»»»»»»»»»»»»»»»»««««««««««««««««««««««««««««««««««««««««««

Stored:	10/8/2025 - 16:33:33
Configured:	10/08/25 04:22:59 PM
Executed:	10/08/25 04:32:55 PM

»»»»»»»»»»»»»»»»»»»»»»»»»»»»»»»»»»» Sample Info ««««««««««««««««««««««««««««««««««««
Sample Name:	Int. Ref. Ferroelectric
Lot Name:	N/A
Wafer Name:	N/A
Die Row/Column:	0/0
Capacitor Number:	0
Sample Area (cm2):	1.00e-04
Sample Thickness (microns):	3.00e-01

Amplifier:	Internal

»»»»»»»»»»»»»»»»»»»»»»»»»»»»»»»»»»» Tester Info «««««««««««««««««««««««««««««««««««
Tester Name:	PMF21124-494 (100V)
Tester Serial Number:	PMF21124-494
Return Signal Amp. Level:	0.02 [Index: 2]

»»»»»»»»»»»»»»»»»»»»»»»»»»»»»»»» Hysteresis Info ««««««««««««««««««««««««««««««««««
Task Name:	Hyst-8
Volts:	20.00
Field:	666.67 (kV/cm)
DCBias:	0.00
DCField:	0.00 (kV/cm)
Hysteresis Period (ms):	5.00e-01
Preset:	Enabled
Preset Delay (ms):	1.00e+03
Profile:	Standard Monopolar

»»»»»»»»»»»»»»»»»»»»»»»»»»»»»»»»»»»»»» Data «««««««««««««««««««««««««««««««««««««««
Points:	1001

Valid Data

Point	Time (ms)	Drive Voltage	Measured Polarization (uC/cm2)	Capacitance (uF)	Normalized Capacitance (uF/cm2)	Dielectric Constant	Instantaneous Current (mA)
   1	0.0000e+00	0.0064	-45.528925	0.000000	0.000000	0.000000	0.000000
   2	5.0000e-04	0.0241	-45.528925	0.000000	0.000000	0.000000	0.000000
   3	1.0000e-03	0.1235	-45.419700	0.000269	2.690835	0.911680	0.021845
   4	1.5000e-03	0.1684	-45.383291	0.000090	0.896945	0.303893	0.007282
   5	2.0000e-03	0.1813	-45.383291	0.000000	0.000000	0.000000	0.000000
   6	2.5000e-03	0.2342	-45.419700	-0.000090	-0.896945	-0.303893	-0.007282
   7	3.0000e-03	0.2615	-45.528925	-0.000269	-2.690835	-0.911680	-0.021845
   8	3.5000e-03	0.2759	-45.383291	0.000359	3.587780	1.215573	0.029127
   9	4.0000e-03	0.3545	-45.237657	0.000359	3.587780	1.215573	0.029127
  10	4.5000e-03	0.3850	-45.055614	0.000448	4.484726	1.519466	0.036409
  11	5.0000e-03	0.3962	-44.837163	0.000538	5.381671	1.823359	0.043690
  12	5.5000e-03	0.4829	-44.727937	0.000269	2.690835	0.911680	0.021845
  13	6.0000e-03	0.5182	-44.691528	0.000090	0.896945	0.303893	0.007282
  14	6.5000e-03	0.5230	-44.837163	-0.000359	-3.587780	-1.215573	-0.029127
  15	7.0000e-03	0.6112	-43.963357	0.002153	21.526683	7.293438	0.174761
  16	7.5000e-03	0.6337	-44.473077	-0.001256	-12.557232	-4.254505	-0.101944
  17	8.0000e-03	0.6561	-43.744905	0.001794	17.938902	6.077865	0.145634
  18	8.5000e-03	0.7075	-43.708497	0.000090	0.896945	0.303893	0.007282
  19	9.0000e-03	0.7171	-43.672088	0.000090	0.896945	0.303893	0.007282
  20	9.5000e-03	0.7829	-43.162368	0.001256	12.557232	4.254505	0.101944
  21	1.0000e-02	0.8214	-42.943917	0.000538	5.381671	1.823359	0.043690
  22	1.0500e-02	0.8551	-42.798282	0.000359	3.587780	1.215573	0.029127
  23	1.1000e-02	0.9080	-42.252154	0.001345	13.454177	4.558398	0.109226
  24	1.1500e-02	0.9545	-42.288562	-0.000090	-0.896945	-0.303893	-0.007282
  25	1.2000e-02	0.9850	-41.851659	0.001076	10.763341	3.646719	0.087381
  26	1.2500e-02	1.0315	-41.451165	0.000987	9.866396	3.342826	0.080099
  27	1.3000e-02	1.0540	-41.305531	0.000359	3.587780	1.215573	0.029127
  28	1.3500e-02	1.0796	-40.868628	0.001076	10.763341	3.646719	0.087381
  29	1.4000e-02	1.1454	-40.686585	0.000448	4.484726	1.519466	0.036409
  30	1.4500e-02	1.1919	-40.540950	0.000359	3.587780	1.215573	0.029127
  31	1.5000e-02	1.2561	-40.286090	0.000628	6.278616	2.127253	0.050972
  32	1.5500e-02	1.2385	-39.958413	-0.000807	-8.072506	-2.735039	0.065535
  33	1.6000e-02	1.2946	-39.230242	0.001794	17.938902	6.077865	0.145634
  34	1.6500e-02	1.3363	-39.412285	-0.000448	-4.484726	-1.519466	-0.036409
  35	1.7000e-02	1.3909	-39.048199	0.000897	8.969451	3.038932	0.072817
  36	1.7500e-02	1.4005	-38.938973	0.000269	2.690835	0.911680	0.021845
  37	1.8000e-02	1.4615	-38.210802	0.001794	17.938902	6.077865	0.145634
  38	1.8500e-02	1.4951	-38.465662	-0.000628	-6.278616	-2.127253	-0.050972
  39	1.9000e-02	1.5320	-37.810307	0.001615	16.145012	5.470078	0.131071
  40	1.9500e-02	1.5946	-38.137984	-0.000807	-8.072506	-2.735039	-0.065535
  41	2.0000e-02	1.6267	-37.373404	0.001884	18.835847	6.381758	0.152916
  42	2.0500e-02	1.6524	-36.863684	0.001256	12.557232	4.254505	0.101944
  43	2.1000e-02	1.6941	-36.900093	-0.000090	-0.896945	-0.303893	-0.007282
  44	2.1500e-02	1.7550	-36.463190	0.001076	10.763341	3.646719	0.087381
  45	2.2000e-02	1.7775	-36.608824	-0.000359	-3.587780	-1.215573	-0.029127
  46	2.2500e-02	1.8352	-36.135513	0.001166	11.660286	3.950612	0.094662
  47	2.3000e-02	1.8561	-35.662201	0.001166	11.660286	3.950612	0.094662
  48	2.3500e-02	1.9074	-35.443750	0.000538	5.381671	1.823359	0.043690
  49	2.4000e-02	1.9716	-35.261707	0.000448	4.484726	1.519466	0.036409
  50	2.4500e-02	1.9844	-34.897621	0.000897	8.969451	3.038932	0.072817
  51	2.5000e-02	2.0053	-34.679170	0.000538	5.381671	1.823359	0.043690
  52	2.5500e-02	2.0534	-34.533535	0.000359	3.587780	1.215573	0.029127
  53	2.6000e-02	2.1031	-34.351492	0.000448	4.484726	1.519466	0.036409
  54	2.6500e-02	2.1256	-33.659729	0.001704	17.041957	5.773971	0.138353
  55	2.7000e-02	2.1769	-33.696138	-0.000090	-0.896945	-0.303893	-0.007282
  56	2.7500e-02	2.2138	-33.514095	0.000448	4.484726	1.519466	0.036409
  57	2.8000e-02	2.2732	-32.931558	0.001435	14.351122	4.862292	0.116507
  58	2.8500e-02	2.3165	-32.676698	0.000628	6.278616	2.127253	0.050972
  59	2.9000e-02	2.3277	-32.385429	0.000718	7.175561	2.431146	0.058254
  60	2.9500e-02	2.3743	-32.349021	0.000090	0.896945	0.303893	0.007282
  61	3.0000e-02	2.4240	-32.094161	0.000628	6.278616	2.127253	0.050972
  62	3.0500e-02	2.4272	-31.766483	0.000807	8.072506	2.735039	0.065535
  63	3.1000e-02	2.4817	-31.584441	0.000448	4.484726	1.519466	0.036409
  64	3.1500e-02	2.5459	-31.365989	0.000538	5.381671	1.823359	0.043690
  65	3.2000e-02	2.5973	-30.455775	0.002242	22.423628	7.597331	0.182043
  66	3.2500e-02	2.6502	-30.783452	-0.000807	-8.072506	-2.735039	-0.065535
  67	3.3000e-02	2.6486	-30.200915	-0.001435	-14.351122	-4.862292	0.116507
  68	3.3500e-02	2.6887	-30.055280	0.000359	3.587780	1.215573	0.029127
  69	3.4000e-02	2.7464	-29.982463	0.000179	1.793890	0.607786	0.014563
  70	3.4500e-02	2.7737	-29.800420	0.000448	4.484726	1.519466	0.036409
  71	3.5000e-02	2.7994	-29.545560	0.000628	6.278616	2.127253	0.050972
  72	3.5500e-02	2.8652	-28.780980	0.001884	18.835847	6.381758	0.152916
  73	3.6000e-02	2.8780	-29.072249	-0.000718	-7.175561	-2.431146	-0.058254
  74	3.6500e-02	2.9438	-28.198443	0.002153	21.526683	7.293438	0.174761
  75	3.7000e-02	2.9823	-28.671754	-0.001166	-11.660286	-3.950612	-0.094662
  76	3.7500e-02	3.0384	-28.052809	0.001525	15.248067	5.166185	0.123789
  77	3.8000e-02	3.0849	-27.834357	0.000538	5.381671	1.823359	0.043690
  78	3.8500e-02	3.0994	-27.615906	0.000538	5.381671	1.823359	0.043690
  79	3.9000e-02	3.1299	-27.506680	0.000269	2.690835	0.911680	0.021845
  80	3.9500e-02	3.1764	-27.288228	0.000538	5.381671	1.823359	0.043690
  81	4.0000e-02	3.2133	-26.851326	0.001076	10.763341	3.646719	0.087381
  82	4.0500e-02	3.2470	-26.814917	0.000090	0.896945	0.303893	0.007282
  83	4.1000e-02	3.3015	-26.050337	0.001884	18.835847	6.381758	0.152916
  84	4.1500e-02	3.3512	-26.523648	-0.001166	-11.660286	-3.950612	-0.094662
  85	4.2000e-02	3.3946	-25.831885	0.001704	17.041957	5.773971	0.138353
  86	4.2500e-02	3.4074	-25.613434	0.000538	5.381671	1.823359	0.043690
  87	4.3000e-02	3.4427	-25.358574	0.000628	6.278616	2.127253	0.050972
  88	4.3500e-02	3.4860	-25.285757	0.000179	1.793890	0.607786	0.014563
  89	4.4000e-02	3.5389	-25.067305	0.000538	5.381671	1.823359	0.043690
  90	4.4500e-02	3.6031	-24.776037	0.000718	7.175561	2.431146	0.058254
  91	4.5000e-02	3.6256	-24.047865	0.001794	17.938902	6.077865	0.145634
  92	4.5500e-02	3.6897	-24.157091	-0.000269	-2.690835	-0.911680	-0.021845
  93	4.6000e-02	3.7058	-24.302725	-0.000359	-3.587780	-1.215573	-0.029127
  94	4.6500e-02	3.7202	-23.756596	0.001345	13.454177	4.558398	0.109226
  95	4.7000e-02	3.7956	-23.246876	0.001256	12.557232	4.254505	0.101944
  96	4.7500e-02	3.8325	-23.610962	-0.000897	-8.969451	-3.038932	-0.072817
  97	4.8000e-02	3.9015	-22.919199	0.001704	17.041957	5.773971	0.138353
  98	4.8500e-02	3.9175	-22.992016	-0.000179	-1.793890	-0.607786	-0.014563
  99	4.9000e-02	3.9544	-22.700748	0.000718	7.175561	2.431146	0.058254
 100	4.9500e-02	3.9929	-22.809973	-0.000269	-2.690835	-0.911680	-0.021845
 101	5.0000e-02	4.0330	-22.118211	0.001704	17.041957	5.773971	0.138353
 102	5.0500e-02	4.0571	-22.045393	0.000179	1.793890	0.607786	0.014563
 103	5.1000e-02	4.0908	-21.899759	0.000359	3.587780	1.215573	0.029127
 104	5.1500e-02	4.1405	-21.280813	0.001525	15.248067	5.166185	0.123789
 105	5.2000e-02	4.1903	-21.535673	-0.000628	-6.278616	-2.127253	-0.050972
 106	5.2500e-02	4.2368	-21.025953	0.001256	12.557232	4.254505	0.101944
 107	5.3000e-02	4.2641	-20.807502	0.000538	5.381671	1.823359	0.043690
 108	5.3500e-02	4.3122	-20.370599	0.001076	10.763341	3.646719	0.087381
 109	5.4000e-02	4.3106	-20.407007	0.000090	0.896945	0.303893	-0.007282
 110	5.4500e-02	4.3539	-20.297782	0.000269	2.690835	0.911680	0.021845
 111	5.5000e-02	4.4261	-19.387567	0.002242	22.423628	7.597331	0.182043
 112	5.5500e-02	4.4726	-19.423976	-0.000090	-0.896945	-0.303893	-0.007282
 113	5.6000e-02	4.5015	-19.606019	-0.000448	-4.484726	-1.519466	-0.036409
 114	5.6500e-02	4.5271	-19.460384	0.000359	3.587780	1.215573	0.029127
 115	5.7000e-02	4.5913	-19.096299	0.000897	8.969451	3.038932	0.072817
 116	5.7500e-02	4.6426	-18.622987	0.001166	11.660286	3.950612	0.094662
 117	5.8000e-02	4.6587	-18.550170	0.000179	1.793890	0.607786	0.014563
 118	5.8500e-02	4.7229	-18.258901	0.000718	7.175561	2.431146	0.058254
 119	5.9000e-02	4.7421	-18.368127	-0.000269	-2.690835	-0.911680	-0.021845
 120	5.9500e-02	4.7549	-17.894816	0.001166	11.660286	3.950612	0.094662
 121	6.0000e-02	4.8127	-17.712773	0.000448	4.484726	1.519466	0.036409
 122	6.0500e-02	4.8656	-17.348687	0.000897	8.969451	3.038932	0.072817
 123	6.1000e-02	4.9122	-17.457913	-0.000269	-2.690835	-0.911680	-0.021845
 124	6.1500e-02	4.9795	-16.948193	0.001256	12.557232	4.254505	0.101944
 125	6.2000e-02	4.9747	-16.511290	-0.001076	-10.763341	-3.646719	0.087381
 126	6.2500e-02	5.0373	-16.402064	0.000269	2.690835	0.911680	0.021845
 127	6.3000e-02	5.0453	-16.584107	-0.000448	-4.484726	-1.519466	-0.036409
 128	6.3500e-02	5.0790	-16.365655	0.000538	5.381671	1.823359	0.043690
 129	6.4000e-02	5.1576	-15.710301	0.001615	16.145012	5.470078	0.131071
 130	6.4500e-02	5.1865	-15.783118	-0.000179	-1.793890	-0.607786	-0.014563
 131	6.5000e-02	5.2330	-15.346215	0.001076	10.763341	3.646719	0.087381
 132	6.5500e-02	5.2908	-15.200581	0.000359	3.587780	1.215573	0.029127
 133	6.6000e-02	5.3004	-15.127764	0.000179	1.793890	0.607786	0.014563
 134	6.6500e-02	5.3437	-14.909312	0.000538	5.381671	1.823359	0.043690
 135	6.7000e-02	5.3950	-14.472409	0.001076	10.763341	3.646719	0.087381
 136	6.7500e-02	5.4335	-14.581635	-0.000269	-2.690835	-0.911680	-0.021845
 137	6.8000e-02	5.4544	-14.253958	0.000807	8.072506	2.735039	0.065535
 138	6.8500e-02	5.5057	-13.962689	0.000718	7.175561	2.431146	0.058254
 139	6.9000e-02	5.5410	-13.926281	0.000090	0.896945	0.303893	0.007282
 140	6.9500e-02	5.5667	-13.562195	0.000897	8.969451	3.038932	0.072817
 141	7.0000e-02	5.6405	-13.452969	0.000269	2.690835	0.911680	0.021845
 142	7.0500e-02	5.6710	-13.416561	0.000090	0.896945	0.303893	0.007282
 143	7.1000e-02	5.7127	-12.724798	0.001704	17.041957	5.773971	0.138353
 144	7.1500e-02	5.7448	-12.979658	-0.000628	-6.278616	-2.127253	-0.050972
 145	7.2000e-02	5.7945	-12.506346	0.001166	11.660286	3.950612	0.094662
 146	7.2500e-02	5.8121	-12.105852	0.000987	9.866396	3.342826	0.080099
 147	7.3000e-02	5.8683	-11.814583	0.000718	7.175561	2.431146	0.058254
 148	7.3500e-02	5.8940	-11.923809	-0.000269	-2.690835	-0.911680	-0.021845
 149	7.4000e-02	5.9581	-11.632540	0.000718	7.175561	2.431146	0.058254
 150	7.4500e-02	5.9758	-11.705357	-0.000179	-1.793890	-0.607786	-0.014563
 151	7.5000e-02	6.0095	-11.414089	0.000718	7.175561	2.431146	0.058254
 152	7.5500e-02	6.0512	-11.013595	0.000987	9.866396	3.342826	0.080099
 153	7.6000e-02	6.0784	-10.904369	0.000269	2.690835	0.911680	0.021845
 154	7.6500e-02	6.1282	-10.540283	0.000897	8.969451	3.038932	0.072817
 155	7.7000e-02	6.1715	-10.867960	-0.000807	-8.072506	-2.735039	-0.065535
 156	7.7500e-02	6.2116	-10.030563	0.002063	20.629738	6.989544	0.167479
 157	7.8000e-02	6.2437	-10.358240	-0.000807	-8.072506	-2.735039	-0.065535
 158	7.8500e-02	6.3255	-9.630069	0.001794	17.938902	6.077865	0.145634
 159	7.9000e-02	6.3592	-9.775703	-0.000359	-3.587780	-1.215573	-0.029127
 160	7.9500e-02	6.3816	-9.593660	0.000448	4.484726	1.519466	0.036409
 161	8.0000e-02	6.4362	-8.829080	0.001884	18.835847	6.381758	0.152916
 162	8.0500e-02	6.4667	-9.083940	-0.000628	-6.278616	-2.127253	-0.050972
 163	8.1000e-02	6.4474	-8.537811	-0.001345	-13.454177	-4.558398	0.109226
 164	8.1500e-02	6.5340	-8.792671	-0.000628	-6.278616	-2.127253	-0.050972
 165	8.2000e-02	6.5725	-8.647037	0.000359	3.587780	1.215573	0.029127
 166	8.2500e-02	6.6078	-8.246543	0.000987	9.866396	3.342826	0.080099
 167	8.3000e-02	6.6624	-8.355768	-0.000269	-2.690835	-0.911680	-0.021845
 168	8.3500e-02	6.7041	-7.736823	0.001525	15.248067	5.166185	0.123789
 169	8.4000e-02	6.7442	-7.591188	0.000359	3.587780	1.215573	0.029127
 170	8.4500e-02	6.7955	-7.627597	-0.000090	-0.896945	-0.303893	-0.007282
 171	8.5000e-02	6.8292	-7.409145	0.000538	5.381671	1.823359	0.043690
 172	8.5500e-02	6.8822	-7.227103	0.000448	4.484726	1.519466	0.036409
 173	8.6000e-02	6.9046	-7.190694	0.000090	0.896945	0.303893	0.007282
 174	8.6500e-02	6.9415	-6.717382	0.001166	11.660286	3.950612	0.094662
 175	8.7000e-02	6.9880	-6.571748	0.000359	3.587780	1.215573	0.029127
 176	8.7500e-02	7.0265	-6.244071	0.000807	8.072506	2.735039	0.065535
 177	8.8000e-02	7.0634	-6.062028	0.000448	4.484726	1.519466	0.036409
 178	8.8500e-02	7.1100	-5.770759	0.000718	7.175561	2.431146	0.058254
 179	8.9000e-02	7.1501	-5.916394	-0.000359	-3.587780	-1.215573	-0.029127
 180	8.9500e-02	7.2014	-5.333857	0.001435	14.351122	4.862292	0.116507
 181	9.0000e-02	7.1934	-5.479491	0.000359	3.587780	1.215573	-0.029127
 182	9.0500e-02	7.2736	-4.896954	0.001435	14.351122	4.862292	0.116507
 183	9.1000e-02	7.2944	-4.569276	0.000807	8.072506	2.735039	0.065535
 184	9.1500e-02	7.3442	-4.787728	-0.000538	-5.381671	-1.823359	-0.043690
 185	9.2000e-02	7.3714	-4.460051	0.000807	8.072506	2.735039	0.065535
 186	9.2500e-02	7.3955	-4.314416	0.000359	3.587780	1.215573	0.029127
 187	9.3000e-02	7.4677	-4.460051	-0.000359	-3.587780	-1.215573	-0.029127
 188	9.3500e-02	7.4757	-3.950331	0.001256	12.557232	4.254505	0.101944
 189	9.4000e-02	7.5559	-3.549836	0.000987	9.866396	3.342826	0.080099
 190	9.4500e-02	7.5848	-3.404202	0.000359	3.587780	1.215573	0.029127
 191	9.5000e-02	7.6249	-3.331385	0.000179	1.793890	0.607786	0.014563
 192	9.5500e-02	7.6811	-3.076525	0.000628	6.278616	2.127253	0.050972
 193	9.6000e-02	7.7099	-3.185750	-0.000269	-2.690835	-0.911680	-0.021845
 194	9.6500e-02	7.7805	-2.821665	0.000897	8.969451	3.038932	0.072817
 195	9.7000e-02	7.8078	-2.785256	0.000090	0.896945	0.303893	0.007282
 196	9.7500e-02	7.7982	-2.457579	-0.000807	-8.072506	-2.735039	0.065535
 197	9.8000e-02	7.8527	-2.603213	-0.000359	-3.587780	-1.215573	-0.029127
 198	9.8500e-02	7.8623	-1.729407	0.002153	21.526683	7.293438	0.174761
 199	9.9000e-02	7.9634	-1.911450	-0.000448	-4.484726	-1.519466	-0.036409
 200	9.9500e-02	7.9923	-1.729407	0.000448	4.484726	1.519466	0.036409
 201	1.0000e-01	8.0099	-1.583773	0.000359	3.587780	1.215573	0.029127
 202	1.0050e-01	8.0597	-1.001236	0.001435	14.351122	4.862292	0.116507
 203	1.0100e-01	8.1062	-0.892010	0.000269	2.690835	0.911680	0.021845
 204	1.0150e-01	8.1303	-1.037644	-0.000359	-3.587780	-1.215573	-0.029127
 205	1.0200e-01	8.1864	-1.001236	0.000090	0.896945	0.303893	0.007282
 206	1.0250e-01	8.2121	-0.709967	0.000718	7.175561	2.431146	0.058254
 207	1.0300e-01	8.2409	-0.564333	0.000359	3.587780	1.215573	0.029127
 208	1.0350e-01	8.2843	-0.273064	0.000718	7.175561	2.431146	0.058254
 209	1.0400e-01	8.3452	0.018204	0.000718	7.175561	2.431146	0.058254
 210	1.0450e-01	8.3837	0.309473	0.000718	7.175561	2.431146	0.058254
 211	1.0500e-01	8.4335	0.127430	-0.000448	-4.484726	-1.519466	-0.036409
 212	1.0550e-01	8.4190	0.928419	-0.001973	-19.732792	-6.685651	0.160198
 213	1.0600e-01	8.4944	0.709967	-0.000538	-5.381671	-1.823359	-0.043690
 214	1.0650e-01	8.5329	0.964827	0.000628	6.278616	2.127253	0.050972
 215	1.0700e-01	8.5842	1.037644	0.000179	1.793890	0.607786	0.014563
 216	1.0750e-01	8.6099	1.074053	0.000090	0.896945	0.303893	0.007282
 217	1.0800e-01	8.6677	0.964827	-0.000269	-2.690835	-0.911680	-0.021845
 218	1.0850e-01	8.7046	1.911450	0.002332	23.320573	7.901224	0.189325
 219	1.0900e-01	8.7238	1.256096	-0.001615	-16.145012	-5.470078	-0.131071
 220	1.0950e-01	8.7800	1.911450	0.001615	16.145012	5.470078	0.131071
 221	1.1000e-01	8.8137	1.947859	0.000090	0.896945	0.303893	0.007282
 222	1.1050e-01	8.8313	2.676030	0.001794	17.938902	6.077865	0.145634
 223	1.1100e-01	8.8794	2.603213	-0.000179	-1.793890	-0.607786	-0.014563
 224	1.1150e-01	8.9147	2.457579	-0.000359	-3.587780	-1.215573	-0.029127
 225	1.1200e-01	8.9693	2.967299	0.001256	12.557232	4.254505	0.101944
 226	1.1250e-01	9.0094	3.040116	0.000179	1.793890	0.607786	0.014563
 227	1.1300e-01	9.0366	3.404202	0.000897	8.969451	3.038932	0.072817
 228	1.1350e-01	9.1088	3.294976	-0.000269	-2.690835	-0.911680	-0.021845
 229	1.1400e-01	9.1425	3.440611	0.000359	3.587780	1.215573	0.029127
 230	1.1450e-01	9.1826	3.731879	0.000718	7.175561	2.431146	0.058254
 231	1.1500e-01	9.2003	4.059556	0.000807	8.072506	2.735039	0.065535
 232	1.1550e-01	9.2885	3.804696	-0.000628	-6.278616	-2.127253	-0.050972
 233	1.1600e-01	9.2885	4.132373	-0.000807	-8.072506	-2.735039	0.065535
 234	1.1650e-01	9.3559	4.496459	0.000897	8.969451	3.038932	0.072817
 235	1.1700e-01	9.3671	4.751319	0.000628	6.278616	2.127253	0.050972
 236	1.1750e-01	9.4152	4.787728	0.000090	0.896945	0.303893	0.007282
 237	1.1800e-01	9.4537	5.115405	0.000807	8.072506	2.735039	0.065535
 238	1.1850e-01	9.4586	4.933362	-0.000448	-4.484726	-1.519466	-0.036409
 239	1.1900e-01	9.4938	5.261039	0.000807	8.072506	2.735039	0.065535
 240	1.1950e-01	9.5789	5.261039	0.000000	0.000000	0.000000	0.000000
 241	1.2000e-01	9.6286	5.625125	0.000897	8.969451	3.038932	0.072817
 242	1.2050e-01	9.6446	5.843577	0.000538	5.381671	1.823359	0.043690
 243	1.2100e-01	9.6848	5.952802	0.000269	2.690835	0.911680	0.021845
 244	1.2150e-01	9.7505	6.389705	0.001076	10.763341	3.646719	0.087381
 245	1.2200e-01	9.7954	6.062028	-0.000807	-8.072506	-2.735039	-0.065535
 246	1.2250e-01	9.8388	7.154285	0.002691	26.908353	9.116797	0.218451
 247	1.2300e-01	9.8885	6.644565	-0.001256	-12.557232	-4.254505	-0.101944
 248	1.2350e-01	9.9334	6.863017	0.000538	5.381671	1.823359	0.043690
 249	1.2400e-01	9.9478	7.081468	0.000538	5.381671	1.823359	0.043690
 250	1.2450e-01	10.0008	7.263511	0.000448	4.484726	1.519466	0.036409
 251	1.2500e-01	10.0008	7.445554	-0.000448	-4.484726	-1.519466	0.036409
 252	1.2550e-01	10.0457	7.627597	0.000448	4.484726	1.519466	0.036409
 253	1.2600e-01	10.1355	7.882457	0.000628	6.278616	2.127253	0.050972
 254	1.2650e-01	10.1243	7.918865	-0.000090	-0.896945	-0.303893	0.007282
 255	1.2700e-01	10.1869	8.282951	0.000897	8.969451	3.038932	0.072817
 256	1.2750e-01	10.2462	8.282951	0.000000	0.000000	0.000000	0.000000
 257	1.2800e-01	10.2671	8.610628	0.000807	8.072506	2.735039	0.065535
 258	1.2850e-01	10.3216	8.647037	0.000090	0.896945	0.303893	0.007282
 259	1.2900e-01	10.3393	8.610628	-0.000090	-0.896945	-0.303893	-0.007282
