»»»»»»»»»»»»»»»»»»»»»»»»»»»»»»»»»»»» Hysteresis ««««««««««««««««««««««««««««««««««««
»»»  Executed Version:	5.48.1
»»»  Vision Version:	5.48.4 (R)
»»»  Vision Compiled:	9/18/24
»»»  Driver Version:	5.47.0
»»»  Windows Version:	Windows 8 or 8.1
»»»  Processor Information:	x86 (AMD or Intel) - 32 Processors
»»»  Tester Name:	PMF21124-494 (100V)
»»»  Tester S/N:	PMF21124-494
»»»  Internal Amp Type:	100V RevK 270k
»»»  Internal Amp S/N:	iAB2-596/K     
»»»  Execution Count:	1
»»»»»»»»»»»»»»»»»»»»»»»»»»»»»»»»»»»»»»»»»»««««««««««««««««««««««««««««««««««««««««««

Stored:	10/8/2025 - 17:23:59
Configured:	10/08/25 04:22:59 PM
Executed:	10/08/25 05:23:35 PM

»»»»»»»»»»»»»»»»»»»»»»»»»»»»»»»»»»» Sample Info ««««««««««««««««««««««««««««««««««««
Sample Name:	Int. Ref. Ferroelectric
Lot Name:	N/A
Wafer Name:	N/A
Die Row/Column:	0/0
Capacitor Number:	0
Sample Area (cm2):	1.00e-04
Sample Thickness (microns):	3.00e-01

Amplifier:	Internal

»»»»»»»»»»»»»»»»»»»»»»»»»»»»»»»»»»» Tester Info «««««««««««««««««««««««««««««««««««
Tester Name:	PMF21124-494 (100V)
Tester Serial Number:	PMF21124-494
Return Signal Amp. Level:	1.9 [Index: 2]

»»»»»»»»»»»»»»»»»»»»»»»»»»»»»»»» Hysteresis Info ««««««««««««««««««««««««««««««««««
Task Name:	Hyst-8
Volts:	20.00
Field:	666.67 (kV/cm)
DCBias:	0.00
DCField:	0.00 (kV/cm)
Hysteresis Period (ms):	1.00e+02
Preset:	Enabled
Preset Delay (ms):	1.00e+03
Profile:	Standard Monopolar

»»»»»»»»»»»»»»»»»»»»»»»»»»»»»»»»»»»»»» Data «««««««««««««««««««««««««««««««««««««««
Points:	2001

Valid Data

Point	Time (ms)	Drive Voltage	Measured Polarization (uC/cm2)	Capacitance (uF)	Normalized Capacitance (uF/cm2)	Dielectric Constant	Instantaneous Current (mA)
   1	0.0000e+00	0.0401	-18.660159	-0.000093	-0.928066	-0.314437	0.000045
   2	5.0000e-02	0.0369	-18.637755	-0.000093	-0.928066	-0.314437	0.000045
   3	1.0000e-01	0.0642	-18.594576	0.000179	1.788636	0.606006	0.000086
   4	1.5000e-01	0.0834	-18.548954	0.000189	1.889880	0.640309	0.000091
   5	2.0000e-01	0.0401	-18.500888	-0.000199	-1.991124	-0.674611	0.000096
   6	2.5000e-01	0.1171	-18.454043	0.000194	1.940502	0.657460	0.000094
   7	3.0000e-01	0.1428	-18.402311	0.000214	2.142989	0.726064	0.000103
   8	3.5000e-01	0.1556	-18.352615	0.000206	2.058619	0.697479	0.000099
   9	4.0000e-01	0.1829	-18.304549	0.000199	1.991124	0.674611	0.000096
  10	4.5000e-01	0.1765	-18.256889	-0.000197	-1.974250	-0.668894	0.000095
  11	5.0000e-01	0.2198	-18.208008	0.000202	2.024871	0.686045	0.000098
  12	5.5000e-01	0.2358	-18.156683	0.000213	2.126115	0.720347	0.000103
  13	6.0000e-01	0.2519	-18.105765	0.000211	2.109241	0.714630	0.000102
  14	6.5000e-01	0.2615	-18.057292	0.000201	2.007997	0.680328	0.000097
  15	7.0000e-01	0.3048	-18.006781	0.000209	2.092367	0.708913	0.000101
  16	7.5000e-01	0.3016	-17.959937	-0.000194	-1.940502	-0.657460	0.000094
  17	8.0000e-01	0.3353	-17.907797	0.000216	2.159863	0.731781	0.000104
  18	8.5000e-01	0.3257	-17.861360	-0.000192	-1.923628	-0.651743	0.000093
  19	9.0000e-01	0.4059	-17.810849	0.000209	2.092367	0.708913	0.000101
  20	9.5000e-01	0.3802	-17.765227	-0.000189	-1.889880	-0.640309	0.000091
  21	1.0000e+00	0.4107	-17.718383	0.000194	1.940502	0.657460	0.000094
  22	1.0500e+00	0.4412	-17.666650	0.000214	2.142989	0.726064	0.000103
  23	1.1000e+00	0.4668	-17.620213	0.000192	1.923628	0.651743	0.000093
  24	1.1500e+00	0.5069	-17.569295	0.000211	2.109241	0.714630	0.000102
  25	1.2000e+00	0.4684	-17.526117	-0.000179	-1.788636	-0.606006	0.000086
  26	1.2500e+00	0.5390	-17.478865	0.000196	1.957376	0.663177	0.000095
  27	1.3000e+00	0.5230	-17.428762	-0.000208	-2.075493	-0.703196	0.000100
  28	1.3500e+00	0.5631	-17.382325	0.000192	1.923628	0.651743	0.000093
  29	1.4000e+00	0.5871	-17.331815	0.000209	2.092367	0.708913	0.000101
  30	1.4500e+00	0.6064	-17.289044	0.000177	1.771762	0.600289	0.000086
  31	1.5000e+00	0.5952	-17.234052	-0.000228	-2.277980	-0.771801	0.000110
  32	1.5500e+00	0.6144	-17.189245	0.000186	1.856132	0.628875	0.000090
  33	1.6000e+00	0.6625	-17.135475	0.000223	2.227359	0.754649	0.000108
  34	1.6500e+00	0.6433	-17.089038	-0.000192	-1.923628	-0.651743	0.000093
  35	1.7000e+00	0.6962	-17.040972	0.000199	1.991124	0.674611	0.000096
  36	1.7500e+00	0.6706	-16.993720	-0.000196	-1.957376	-0.663177	0.000095
  37	1.8000e+00	0.7235	-16.946061	0.000197	1.974250	0.668894	0.000095
  38	1.8500e+00	0.7540	-16.902476	0.000181	1.805510	0.611723	0.000087
  39	1.9000e+00	0.7781	-16.852372	0.000208	2.075493	0.703196	0.000100
  40	1.9500e+00	0.7829	-16.803899	0.000201	2.007997	0.680328	0.000097
  41	2.0000e+00	0.8246	-16.757462	0.000192	1.923628	0.651743	0.000093
  42	2.0500e+00	0.8390	-16.711025	0.000192	1.923628	0.651743	0.000093
  43	2.1000e+00	0.8631	-16.660514	0.000209	2.092367	0.708913	0.000101
  44	2.1500e+00	0.8583	-16.614077	-0.000192	-1.923628	-0.651743	0.000093
  45	2.2000e+00	0.9080	-16.561530	0.000218	2.176737	0.737498	0.000105
  46	2.2500e+00	0.9032	-16.520388	-0.000170	-1.704267	-0.577421	0.000082
  47	2.3000e+00	0.9240	-16.476395	0.000182	1.822384	0.617440	0.000088
  48	2.3500e+00	0.9690	-16.424255	0.000216	2.159863	0.731781	0.000104
  49	2.4000e+00	1.0059	-16.372116	0.000216	2.159863	0.731781	0.000104
  50	2.4500e+00	0.9818	-16.325271	-0.000194	-1.940502	-0.657460	0.000094
  51	2.5000e+00	1.0283	-16.282093	0.000179	1.788636	0.606006	0.000086
  52	2.5500e+00	1.0588	-16.232804	0.000204	2.041745	0.691762	0.000099
  53	2.6000e+00	1.0460	-16.183923	-0.000202	-2.024871	-0.686045	0.000098
  54	2.6500e+00	1.1101	-16.139930	0.000182	1.822384	0.617440	0.000088
  55	2.7000e+00	1.1037	-16.093086	-0.000194	-1.940502	-0.657460	0.000094
  56	2.7500e+00	1.0893	-16.040946	-0.000216	-2.159863	-0.731781	0.000104
  57	2.8000e+00	1.1518	-16.000619	0.000167	1.670519	0.565987	0.000081
  58	2.8500e+00	1.1711	-15.946035	0.000226	2.261106	0.766084	0.000109
  59	2.9000e+00	1.1422	-15.900005	-0.000191	-1.906754	-0.646026	0.000092
  60	2.9500e+00	1.1759	-15.851532	0.000201	2.007997	0.680328	0.000097
  61	3.0000e+00	1.2144	-15.805095	0.000192	1.923628	0.651743	0.000093
  62	3.0500e+00	1.2064	-15.760287	-0.000186	-1.856132	-0.628875	0.000090
  63	3.1000e+00	1.2738	-15.710999	0.000204	2.041745	0.691762	0.000099
  64	3.1500e+00	1.2689	-15.666191	-0.000186	-1.856132	-0.628875	0.000090
  65	3.2000e+00	1.2994	-15.618532	0.000197	1.974250	0.668894	0.000095
  66	3.2500e+00	1.3042	-15.568021	0.000209	2.092367	0.708913	0.000101
  67	3.3000e+00	1.3074	-15.523621	0.000184	1.839258	0.623158	0.000089
  68	3.3500e+00	1.3363	-15.475962	0.000197	1.974250	0.668894	0.000095
  69	3.4000e+00	1.3748	-15.429117	0.000194	1.940502	0.657460	0.000094
  70	3.4500e+00	1.4053	-15.381458	0.000197	1.974250	0.668894	0.000095
  71	3.5000e+00	1.3941	-15.336243	-0.000187	-1.873006	-0.634592	0.000090
  72	3.5500e+00	1.4262	-15.292658	0.000181	1.805510	0.611723	0.000087
  73	3.6000e+00	1.4518	-15.246628	0.000191	1.906754	0.646026	0.000092
  74	3.6500e+00	1.4759	-15.197747	0.000202	2.024871	0.686045	0.000098
  75	3.7000e+00	1.5288	-15.148866	0.000202	2.024871	0.686045	0.000098
  76	3.7500e+00	1.5128	-15.103243	-0.000189	-1.889880	-0.640309	0.000091
  77	3.8000e+00	1.5417	-15.056399	0.000194	1.940502	0.657460	0.000094
  78	3.8500e+00	1.5545	-15.011184	0.000187	1.873006	0.634592	0.000090
  79	3.9000e+00	1.6042	-14.962710	0.000201	2.007997	0.680328	0.000097
  80	3.9500e+00	1.6058	-14.915459	0.000196	1.957376	0.663177	0.000095
  81	4.0000e+00	1.6267	-14.873910	0.000172	1.721141	0.583138	0.000083
  82	4.0500e+00	1.6363	-14.825843	0.000199	1.991124	0.674611	0.000096
  83	4.1000e+00	1.6508	-14.778999	0.000194	1.940502	0.657460	0.000094
  84	4.1500e+00	1.6492	-14.730932	-0.000199	-1.991124	-0.674611	0.000096
  85	4.2000e+00	1.7133	-14.689383	0.000172	1.721141	0.583138	0.000083
  86	4.2500e+00	1.7246	-14.638466	0.000211	2.109241	0.714630	0.000102
  87	4.3000e+00	1.7374	-14.592436	0.000191	1.906754	0.646026	0.000092
  88	4.3500e+00	1.7679	-14.546406	0.000191	1.906754	0.646026	0.000092
  89	4.4000e+00	1.7502	-14.504043	-0.000175	-1.754889	-0.594572	0.000085
  90	4.4500e+00	1.8096	-14.458420	0.000189	1.889880	0.640309	0.000091
  91	4.5000e+00	1.7903	-14.412798	-0.000189	-1.889880	-0.640309	0.000091
  92	4.5500e+00	1.8304	-14.363917	0.000202	2.024871	0.686045	0.000098
  93	4.6000e+00	1.8625	-14.317480	0.000192	1.923628	0.651743	0.000093
  94	4.6500e+00	1.8721	-14.275116	0.000175	1.754889	0.594572	0.000085
  95	4.7000e+00	1.8850	-14.225828	0.000204	2.041745	0.691762	0.000099
  96	4.7500e+00	1.9090	-14.185093	0.000169	1.687393	0.571704	0.000081
  97	4.8000e+00	1.9315	-14.135805	0.000204	2.041745	0.691762	0.000099
  98	4.8500e+00	1.9475	-14.095478	0.000167	1.670519	0.565987	0.000081
  99	4.9000e+00	1.9668	-14.051892	0.000181	1.805510	0.611723	0.000087
 100	4.9500e+00	1.9909	-14.005455	0.000192	1.923628	0.651743	0.000093
 101	5.0000e+00	2.0245	-13.961870	0.000181	1.805510	0.611723	0.000087
 102	5.0500e+00	2.0406	-13.913396	0.000201	2.007997	0.680328	0.000097
 103	5.1000e+00	2.0759	-13.869810	0.000181	1.805510	0.611723	0.000087
 104	5.1500e+00	2.0807	-13.830298	0.000164	1.636771	0.554553	0.000079
 105	5.2000e+00	2.0887	-13.787934	0.000175	1.754889	0.594572	0.000085
 106	5.2500e+00	2.1320	-13.741497	0.000192	1.923628	0.651743	0.000093
 107	5.3000e+00	2.1529	-13.699134	0.000175	1.754889	0.594572	0.000085
 108	5.3500e+00	2.1368	-13.651067	-0.000199	-1.991124	-0.674611	0.000096
 109	5.4000e+00	2.1577	-13.605038	0.000191	1.906754	0.646026	0.000092
 110	5.4500e+00	2.1850	-13.567562	0.000155	1.552401	0.525968	0.000075
 111	5.5000e+00	2.2251	-13.525198	0.000175	1.754889	0.594572	0.000085
 112	5.5500e+00	2.2347	-13.484057	0.000170	1.704267	0.577421	0.000082
 113	5.6000e+00	2.2331	-13.438027	-0.000191	-1.906754	-0.646026	0.000092
 114	5.6500e+00	2.2796	-13.387517	0.000209	2.092367	0.708913	0.000101
 115	5.7000e+00	2.3117	-13.343116	0.000184	1.839258	0.623158	0.000089
 116	5.7500e+00	2.3245	-13.301975	0.000170	1.704267	0.577421	0.000082
 117	5.8000e+00	2.3470	-13.255538	0.000192	1.923628	0.651743	0.000093
 118	5.8500e+00	2.3165	-13.210323	-0.000187	-1.873006	-0.634592	0.000090
 119	5.9000e+00	2.3486	-13.168366	0.000174	1.738015	0.588855	0.000084
 120	5.9500e+00	2.4096	-13.127225	0.000170	1.704267	0.577421	0.000082
 121	6.0000e+00	2.4047	-13.082824	-0.000184	-1.839258	-0.623158	0.000089
 122	6.0500e+00	2.4320	-13.037202	0.000189	1.889880	0.640309	0.000091
 123	6.1000e+00	2.4737	-12.995653	0.000172	1.721141	0.583138	0.000083
 124	6.1500e+00	2.4625	-12.953289	-0.000175	-1.754889	-0.594572	0.000085
 125	6.2000e+00	2.5090	-12.912148	0.000170	1.704267	0.577421	0.000082
 126	6.2500e+00	2.4946	-12.871414	-0.000169	-1.687393	-0.571704	0.000081
 127	6.3000e+00	2.5363	-12.825384	0.000191	1.906754	0.646026	0.000092
 128	6.3500e+00	2.5844	-12.781798	0.000181	1.805510	0.611723	0.000087
 129	6.4000e+00	2.5989	-12.740249	0.000172	1.721141	0.583138	0.000083
 130	6.4500e+00	2.5860	-12.691776	-0.000201	-2.007997	-0.680328	0.000097
 131	6.5000e+00	2.6374	-12.651041	0.000169	1.687393	0.571704	0.000081
 132	6.5500e+00	2.6342	-12.609900	-0.000170	-1.704267	-0.577421	0.000082
 133	6.6000e+00	2.6470	-12.565499	0.000184	1.839258	0.623158	0.000089
 134	6.6500e+00	2.6662	-12.519062	0.000192	1.923628	0.651743	0.000093
 135	6.7000e+00	2.6999	-12.479957	0.000162	1.619897	0.548836	0.000078
 136	6.7500e+00	2.7192	-12.431076	0.000202	2.024871	0.686045	0.000098
 137	6.8000e+00	2.7224	-12.389120	0.000174	1.738015	0.588855	0.000084
 138	6.8500e+00	2.7513	-12.345942	0.000179	1.788636	0.606006	0.000086
 139	6.9000e+00	2.8058	-12.296246	0.000206	2.058619	0.697479	0.000099
 140	6.9500e+00	2.7914	-12.253475	-0.000177	-1.771762	-0.600289	0.000086
 141	7.0000e+00	2.8283	-12.209889	0.000181	1.805510	0.611723	0.000087
 142	7.0500e+00	2.8379	-12.169970	0.000165	1.653645	0.560270	0.000080
 143	7.1000e+00	2.8636	-12.125977	0.000182	1.822384	0.617440	0.000088
 144	7.1500e+00	2.8571	-12.076281	-0.000206	-2.058619	-0.697479	0.000099
 145	7.2000e+00	2.8812	-12.033103	0.000179	1.788636	0.606006	0.000086
 146	7.2500e+00	2.9197	-11.988295	0.000186	1.856132	0.628875	0.000090
 147	7.3000e+00	2.9438	-11.946746	0.000172	1.721141	0.583138	0.000083
 148	7.3500e+00	2.9550	-11.903568	0.000179	1.788636	0.606006	0.000086
 149	7.4000e+00	2.9614	-11.861204	0.000175	1.754889	0.594572	0.000085
 150	7.4500e+00	2.9823	-11.815989	0.000187	1.873006	0.634592	0.000090
 151	7.5000e+00	3.0352	-11.774033	0.000174	1.738015	0.588855	0.000084
 152	7.5500e+00	3.0384	-11.734928	0.000162	1.619897	0.548836	0.000078
 153	7.6000e+00	3.0368	-11.688898	-0.000191	-1.906754	-0.646026	0.000092
 154	7.6500e+00	3.0833	-11.642868	0.000191	1.906754	0.646026	0.000092
 155	7.7000e+00	3.0801	-11.600505	-0.000175	-1.754889	-0.594572	0.000085
 156	7.7500e+00	3.1170	-11.560993	0.000164	1.636771	0.554553	0.000079
 157	7.8000e+00	3.1266	-11.519036	0.000174	1.738015	0.588855	0.000084
 158	7.8500e+00	3.1571	-11.481561	0.000155	1.552401	0.525968	0.000075
 159	7.9000e+00	3.1668	-11.434716	0.000194	1.940502	0.657460	0.000094
 160	7.9500e+00	3.2117	-11.395612	0.000162	1.619897	0.548836	0.000078
 161	8.0000e+00	3.2149	-11.348767	0.000194	1.940502	0.657460	0.000094
 162	8.0500e+00	3.2101	-11.310070	-0.000160	-1.603023	-0.543119	0.000077
 163	8.1000e+00	3.2550	-11.264447	0.000189	1.889880	0.640309	0.000091
 164	8.1500e+00	3.2855	-11.223306	0.000170	1.704267	0.577421	0.000082
 165	8.2000e+00	3.3159	-11.176869	0.000192	1.923628	0.651743	0.000093
 166	8.2500e+00	3.3063	-11.135727	-0.000170	-1.704267	-0.577421	0.000082
 167	8.3000e+00	3.3256	-11.095400	0.000167	1.670519	0.565987	0.000081
 168	8.3500e+00	3.3641	-11.056703	0.000160	1.603023	0.543119	0.000077
 169	8.4000e+00	3.3625	-11.011080	-0.000189	-1.889880	-0.640309	0.000091
 170	8.4500e+00	3.3849	-10.969531	0.000172	1.721141	0.583138	0.000083
 171	8.5000e+00	3.4523	-10.925538	0.000182	1.822384	0.617440	0.000088
 172	8.5500e+00	3.4379	-10.880731	-0.000186	-1.856132	-0.628875	0.000090
 173	8.6000e+00	3.4459	-10.838367	0.000175	1.754889	0.594572	0.000085
 174	8.6500e+00	3.4667	-10.800077	0.000159	1.586149	0.537402	0.000077
 175	8.7000e+00	3.4892	-10.754862	0.000187	1.873006	0.634592	0.000090
 176	8.7500e+00	3.5085	-10.710869	0.000182	1.822384	0.617440	0.000088
 177	8.8000e+00	3.5534	-10.675837	0.000145	1.451158	0.491666	0.000070
 178	8.8500e+00	3.5438	-10.634288	-0.000172	-1.721141	-0.583138	0.000083
 179	8.9000e+00	3.5839	-10.590703	0.000181	1.805510	0.611723	0.000087
 180	8.9500e+00	3.5919	-10.549154	0.000172	1.721141	0.583138	0.000083
 181	9.0000e+00	3.6288	-10.507605	0.000172	1.721141	0.583138	0.000083
 182	9.0500e+00	3.6400	-10.467278	0.000167	1.670519	0.565987	0.000081
 183	9.1000e+00	3.6577	-10.421656	0.000189	1.889880	0.640309	0.000091
 184	9.1500e+00	3.6769	-10.379292	0.000175	1.754889	0.594572	0.000085
 185	9.2000e+00	3.7058	-10.337336	0.000174	1.738015	0.588855	0.000084
 186	9.2500e+00	3.7122	-10.295787	0.000172	1.721141	0.583138	0.000083
 187	9.3000e+00	3.7250	-10.251794	0.000182	1.822384	0.617440	0.000088
 188	9.3500e+00	3.7379	-10.209430	0.000175	1.754889	0.594572	0.000085
 189	9.4000e+00	3.7780	-10.166659	0.000177	1.771762	0.600289	0.000086
 190	9.4500e+00	3.7555	-10.123888	-0.000177	-1.771762	-0.600289	0.000086
 191	9.5000e+00	3.7796	-10.079895	0.000182	1.822384	0.617440	0.000088
 192	9.5500e+00	3.8630	-10.039568	0.000167	1.670519	0.565987	0.000081
 193	9.6000e+00	3.8710	-9.994761	0.000186	1.856132	0.628875	0.000090
 194	9.6500e+00	3.9063	-9.956470	0.000159	1.586149	0.537402	0.000077
 195	9.7000e+00	3.9031	-9.915736	-0.000169	-1.687393	-0.571704	0.000081
 196	9.7500e+00	3.9111	-9.872965	0.000177	1.771762	0.600289	0.000086
 197	9.8000e+00	3.9352	-9.828972	0.000182	1.822384	0.617440	0.000088
 198	9.8500e+00	3.9609	-9.787016	0.000174	1.738015	0.588855	0.000084
 199	9.9000e+00	3.9705	-9.745874	0.000170	1.704267	0.577421	0.000082
 200	9.9500e+00	3.9785	-9.702696	0.000179	1.788636	0.606006	0.000086
 201	1.0000e+01	4.0042	-9.658296	0.000184	1.839258	0.623158	0.000089
 202	1.0050e+01	4.0491	-9.616747	0.000172	1.721141	0.583138	0.000083
 203	1.0100e+01	4.0491	-9.574383	-0.000175	-1.754889	-0.594572	0.000085
 204	1.0150e+01	4.0748	-9.530797	0.000181	1.805510	0.611723	0.000087
 205	1.0200e+01	4.0844	-9.490470	0.000167	1.670519	0.565987	0.000081
 206	1.0250e+01	4.1052	-9.443626	0.000194	1.940502	0.657460	0.000094
 207	1.0300e+01	4.1469	-9.402077	0.000172	1.721141	0.583138	0.000083
 208	1.0350e+01	4.1694	-9.360121	0.000174	1.738015	0.588855	0.000084
 209	1.0400e+01	4.1838	-9.318165	0.000174	1.738015	0.588855	0.000084
 210	1.0450e+01	4.1822	-9.275394	-0.000177	-1.771762	-0.600289	0.000086
 211	1.0500e+01	4.2239	-9.232623	0.000177	1.771762	0.600289	0.000086
 212	1.0550e+01	4.2512	-9.190259	0.000175	1.754889	0.594572	0.000085
 213	1.0600e+01	4.2368	-9.144637	-0.000189	-1.889880	-0.640309	0.000091
 214	1.0650e+01	4.2785	-9.103495	0.000170	1.704267	0.577421	0.000082
 215	1.0700e+01	4.2977	-9.061539	0.000174	1.738015	0.588855	0.000084
 216	1.0750e+01	4.2977	-9.018360	-0.000179	-1.788636	-0.606006	0.000086
 217	1.0800e+01	4.3170	-8.973960	0.000184	1.839258	0.623158	0.000089
 218	1.0850e+01	4.3667	-8.933226	0.000169	1.687393	0.571704	0.000081
 219	1.0900e+01	4.3908	-8.888825	0.000184	1.839258	0.623158	0.000089
 220	1.0950e+01	4.4052	-8.844425	0.000184	1.839258	0.623158	0.000089
 221	1.1000e+01	4.4084	-8.810208	0.000142	1.417410	0.480231	0.000068
 222	1.1050e+01	4.4341	-8.766623	0.000181	1.805510	0.611723	0.000087
 223	1.1100e+01	4.4566	-8.722222	0.000184	1.839258	0.623158	0.000089
 224	1.1150e+01	4.4694	-8.677007	0.000187	1.873006	0.634592	0.000090
 225	1.1200e+01	4.4838	-8.633422	0.000181	1.805510	0.611723	0.000087
 226	1.1250e+01	4.5287	-8.591058	0.000175	1.754889	0.594572	0.000085
 227	1.1300e+01	4.5127	-8.552361	-0.000160	-1.603023	-0.543119	0.000077
 228	1.1350e+01	4.5673	-8.512848	0.000164	1.636771	0.554553	0.000079
 229	1.1400e+01	4.5785	-8.470892	0.000174	1.738015	0.588855	0.000084
 230	1.1450e+01	4.5961	-8.422418	0.000201	2.007997	0.680328	0.000097
 231	1.1500e+01	4.5993	-8.385350	0.000154	1.535527	0.520251	0.000074
 232	1.1550e+01	4.6378	-8.340950	0.000184	1.839258	0.623158	0.000089
 233	1.1600e+01	4.6507	-8.300216	0.000169	1.687393	0.571704	0.000081
 234	1.1650e+01	4.6779	-8.256630	0.000181	1.805510	0.611723	0.000087
 235	1.1700e+01	4.7052	-8.209785	0.000194	1.940502	0.657460	0.000094
 236	1.1750e+01	4.7052	-8.174754	-0.000145	-1.451158	-0.491666	0.000070
 237	1.1800e+01	4.7469	-8.133205	0.000172	1.721141	0.583138	0.000083
 238	1.1850e+01	4.7678	-8.088805	0.000184	1.839258	0.623158	0.000089
 239	1.1900e+01	4.7838	-8.043997	0.000186	1.856132	0.628875	0.000090
 240	1.1950e+01	4.8223	-8.002041	0.000174	1.738015	0.588855	0.000084
 241	1.2000e+01	4.8191	-7.957233	-0.000186	-1.856132	-0.628875	0.000090
 242	1.2050e+01	4.8255	-7.914869	0.000175	1.754889	0.594572	0.000085
 243	1.2100e+01	4.8416	-7.874135	0.000169	1.687393	0.571704	0.000081
 244	1.2150e+01	4.9025	-7.832994	0.000170	1.704267	0.577421	0.000082
 245	1.2200e+01	4.8961	-7.790630	-0.000175	-1.754889	-0.594572	0.000085
 246	1.2250e+01	4.9298	-7.744600	0.000191	1.906754	0.646026	0.000092
 247	1.2300e+01	4.9442	-7.712013	0.000135	1.349914	0.457363	0.000065
 248	1.2350e+01	4.9507	-7.668835	0.000179	1.788636	0.606006	0.000086
 249	1.2400e+01	4.9523	-7.626471	0.000175	1.754889	0.594572	0.000085
 250	1.2450e+01	4.9908	-7.582071	0.000184	1.839258	0.623158	0.000089
 251	1.2500e+01	5.0084	-7.539300	0.000177	1.771762	0.600289	0.000086
 252	1.2550e+01	5.0357	-7.498565	0.000169	1.687393	0.571704	0.000081
 253	1.2600e+01	5.0598	-7.458238	0.000167	1.670519	0.565987	0.000081
 254	1.2650e+01	5.0630	-7.416690	0.000172	1.721141	0.583138	0.000083
 255	1.2700e+01	5.1223	-7.375548	0.000170	1.704267	0.577421	0.000082
 256	1.2750e+01	5.0966	-7.336036	-0.000164	-1.636771	-0.554553	0.000079
 257	1.2800e+01	5.1384	-7.289191	0.000194	1.940502	0.657460	0.000094
 258	1.2850e+01	5.1528	-7.251308	0.000157	1.569275	0.531685	0.000076
 259	1.2900e+01	5.1945	-7.206908	0.000184	1.839258	0.623158	0.000089
 260	1.2950e+01	5.1801	-7.164952	-0.000174	-1.738015	-0.588855	0.000084
