»»»»»»»»»»»»»»»»»»»»»»»»»»»»»»»»»»»» Hysteresis ««««««««««««««««««««««««««««««««««««
»»»  Executed Version:	5.48.1
»»»  Vision Version:	5.48.4 (R)
»»»  Vision Compiled:	9/18/24
»»»  Driver Version:	5.47.0
»»»  Windows Version:	Windows 8 or 8.1
»»»  Processor Information:	x86 (AMD or Intel) - 32 Processors
»»»  Tester Name:	PMF21124-494 (100V)
»»»  Tester S/N:	PMF21124-494
»»»  Internal Amp Type:	100V RevK 270k
»»»  Internal Amp S/N:	iAB2-596/K     
»»»  Execution Count:	1
»»»»»»»»»»»»»»»»»»»»»»»»»»»»»»»»»»»»»»»»»»««««««««««««««««««««««««««««««««««««««««««

Stored:	10/8/2025 - 17:23:28
Configured:	10/08/25 04:22:59 PM
Executed:	10/08/25 05:22:50 PM

»»»»»»»»»»»»»»»»»»»»»»»»»»»»»»»»»»» Sample Info ««««««««««««««««««««««««««««««««««««
Sample Name:	Int. Ref. Ferroelectric
Lot Name:	N/A
Wafer Name:	N/A
Die Row/Column:	0/0
Capacitor Number:	0
Sample Area (cm2):	1.00e-04
Sample Thickness (microns):	3.00e-01

Amplifier:	Internal

»»»»»»»»»»»»»»»»»»»»»»»»»»»»»»»»»»» Tester Info «««««««««««««««««««««««««««««««««««
Tester Name:	PMF21124-494 (100V)
Tester Serial Number:	PMF21124-494
Return Signal Amp. Level:	0.02 [Index: 2]

»»»»»»»»»»»»»»»»»»»»»»»»»»»»»»»» Hysteresis Info ««««««««««««««««««««««««««««««««««
Task Name:	Hyst-8
Volts:	20.00
Field:	666.67 (kV/cm)
DCBias:	0.00
DCField:	0.00 (kV/cm)
Hysteresis Period (ms):	5.00e-01
Preset:	Enabled
Preset Delay (ms):	1.00e+03
Profile:	Standard Monopolar

»»»»»»»»»»»»»»»»»»»»»»»»»»»»»»»»»»»»»» Data «««««««««««««««««««««««««««««««««««««««
Points:	1001

Valid Data

Point	Time (ms)	Drive Voltage	Measured Polarization (uC/cm2)	Capacitance (uF)	Normalized Capacitance (uF/cm2)	Dielectric Constant	Instantaneous Current (mA)
   1	0.0000e+00	0.0385	-18.404536	0.000449	4.486452	1.520051	0.036409
   2	5.0000e-04	0.0642	-18.222493	0.000449	4.486452	1.520051	0.036409
   3	1.0000e-03	0.1075	-18.186084	0.000090	0.897290	0.304010	0.007282
   4	1.5000e-03	0.1540	-18.295310	-0.000269	-2.691871	-0.912031	-0.021845
   5	2.0000e-03	0.2069	-18.149676	0.000359	3.589161	1.216041	0.029127
   6	2.5000e-03	0.2551	-18.076858	0.000179	1.794581	0.608020	0.014563
   7	3.0000e-03	0.2422	-18.404536	0.000808	8.075613	2.736092	-0.065535
   8	3.5000e-03	0.3192	-17.821998	0.001436	14.356646	4.864163	0.116507
   9	4.0000e-03	0.3610	-17.894816	-0.000179	-1.794581	-0.608020	-0.014563
  10	4.5000e-03	0.4155	-17.858407	0.000090	0.897290	0.304010	0.007282
  11	5.0000e-03	0.4107	-17.567138	-0.000718	-7.178323	-2.432082	0.058254
  12	5.5000e-03	0.4588	-17.530730	0.000090	0.897290	0.304010	0.007282
  13	6.0000e-03	0.5085	-17.603547	-0.000179	-1.794581	-0.608020	-0.014563
  14	6.5000e-03	0.5663	-17.457913	0.000359	3.589161	1.216041	0.029127
  15	7.0000e-03	0.5984	-17.093827	0.000897	8.972904	3.040102	0.072817
  16	7.5000e-03	0.6545	-17.457913	-0.000897	-8.972904	-3.040102	-0.072817
  17	8.0000e-03	0.6754	-17.093827	0.000897	8.972904	3.040102	0.072817
  18	8.5000e-03	0.7492	-17.130235	-0.000090	-0.897290	-0.304010	-0.007282
  19	9.0000e-03	0.7764	-17.021010	0.000269	2.691871	0.912031	0.021845
  20	9.5000e-03	0.7861	-16.984601	0.000090	0.897290	0.304010	0.007282
  21	1.0000e-02	0.8470	-16.474881	0.001256	12.562065	4.256143	0.101944
  22	1.0500e-02	0.8807	-16.584107	-0.000269	-2.691871	-0.912031	-0.021845
  23	1.1000e-02	0.9080	-16.620515	-0.000090	-0.897290	-0.304010	-0.007282
  24	1.1500e-02	0.9898	-16.474881	0.000359	3.589161	1.216041	0.029127
  25	1.2000e-02	1.0171	-16.256430	0.000538	5.383742	1.824061	0.043690
  26	1.2500e-02	1.0444	-16.110795	0.000359	3.589161	1.216041	0.029127
  27	1.3000e-02	1.0636	-16.365655	-0.000628	-6.281033	-2.128071	-0.050972
  28	1.3500e-02	1.1198	-16.110795	0.000628	6.281033	2.128071	0.050972
  29	1.4000e-02	1.1374	-15.928752	0.000449	4.486452	1.520051	0.036409
  30	1.4500e-02	1.1855	-16.037978	-0.000269	-2.691871	-0.912031	-0.021845
  31	1.5000e-02	1.2625	-16.001570	0.000090	0.897290	0.304010	0.007282
  32	1.5500e-02	1.2962	-15.491849	0.001256	12.562065	4.256143	0.101944
  33	1.6000e-02	1.3010	-15.783118	-0.000718	-7.178323	-2.432082	-0.058254
  34	1.6500e-02	1.3556	-15.455441	0.000808	8.075613	2.736092	0.065535
  35	1.7000e-02	1.3796	-15.637484	-0.000449	-4.486452	-1.520051	-0.036409
  36	1.7500e-02	1.4486	-15.382624	0.000628	6.281033	2.128071	0.050972
  37	1.8000e-02	1.4951	-15.273398	0.000269	2.691871	0.912031	0.021845
  38	1.8500e-02	1.5208	-15.236989	0.000090	0.897290	0.304010	0.007282
  39	1.9000e-02	1.5673	-15.127764	0.000269	2.691871	0.912031	0.021845
  40	1.9500e-02	1.6058	-14.690861	0.001077	10.767484	3.648122	0.087381
  41	2.0000e-02	1.6251	-14.982129	-0.000718	-7.178323	-2.432082	-0.058254
  42	2.0500e-02	1.6812	-14.581635	0.000987	9.870194	3.344112	0.080099
  43	2.1000e-02	1.7037	-14.508818	0.000179	1.794581	0.608020	0.014563
  44	2.1500e-02	1.7470	-14.690861	-0.000449	-4.486452	-1.520051	-0.036409
  45	2.2000e-02	1.7999	-14.399592	0.000718	7.178323	2.432082	0.058254
  46	2.2500e-02	1.8208	-14.363184	0.000090	0.897290	0.304010	0.007282
  47	2.3000e-02	1.8657	-14.326775	0.000090	0.897290	0.304010	0.007282
  48	2.3500e-02	1.9138	-14.290366	0.000090	0.897290	0.304010	0.007282
  49	2.4000e-02	1.9748	-14.035506	0.000628	6.281033	2.128071	0.050972
  50	2.4500e-02	2.0037	-13.999098	0.000090	0.897290	0.304010	0.007282
  51	2.5000e-02	2.0326	-13.744238	0.000628	6.281033	2.128071	0.050972
  52	2.5500e-02	2.0775	-13.926281	-0.000449	-4.486452	-1.520051	-0.036409
  53	2.6000e-02	2.1417	-13.635012	0.000718	7.178323	2.432082	0.058254
  54	2.6500e-02	2.1433	-14.071915	-0.001077	-10.767484	-3.648122	-0.087381
  55	2.7000e-02	2.1962	-13.452969	0.001525	15.253936	5.168174	0.123789
  56	2.7500e-02	2.2347	-13.452969	0.000000	0.000000	0.000000	0.000000
  57	2.8000e-02	2.2844	-13.161701	0.000718	7.178323	2.432082	0.058254
  58	2.8500e-02	2.3181	-13.234518	-0.000179	-1.794581	-0.608020	-0.014563
  59	2.9000e-02	2.3614	-13.525786	-0.000718	-7.178323	-2.432082	-0.058254
  60	2.9500e-02	2.4176	-13.016066	0.001256	12.562065	4.256143	0.101944
  61	3.0000e-02	2.4497	-12.979658	0.000090	0.897290	0.304010	0.007282
  62	3.0500e-02	2.4721	-13.125292	-0.000359	-3.589161	-1.216041	-0.029127
  63	3.1000e-02	2.5459	-12.724798	0.000987	9.870194	3.344112	0.080099
  64	3.1500e-02	2.5764	-12.542755	0.000449	4.486452	1.520051	0.036409
  65	3.2000e-02	2.6085	-12.615572	-0.000179	-1.794581	-0.608020	-0.014563
  66	3.2500e-02	2.6358	-12.542755	0.000179	1.794581	0.608020	0.014563
  67	3.3000e-02	2.6614	-12.651980	-0.000269	-2.691871	-0.912031	-0.021845
  68	3.3500e-02	2.6999	-12.033035	0.001525	15.253936	5.168174	0.123789
  69	3.4000e-02	2.7577	-12.397120	-0.000897	-8.972904	-3.040102	-0.072817
  70	3.4500e-02	2.8299	-11.923809	0.001166	11.664775	3.952133	0.094662
  71	3.5000e-02	2.8411	-12.069443	-0.000359	-3.589161	-1.216041	-0.029127
  72	3.5500e-02	2.8844	-12.215078	-0.000359	-3.589161	-1.216041	-0.029127
  73	3.6000e-02	2.9197	-11.778175	0.001077	10.767484	3.648122	0.087381
  74	3.6500e-02	2.9486	-11.778175	0.000000	0.000000	0.000000	0.000000
  75	3.7000e-02	3.0079	-11.850992	-0.000179	-1.794581	-0.608020	-0.014563
  76	3.7500e-02	3.0432	-11.705357	0.000359	3.589161	1.216041	0.029127
  77	3.8000e-02	3.0496	-11.632540	0.000179	1.794581	0.608020	0.014563
  78	3.8500e-02	3.1154	-11.414089	0.000538	5.383742	1.824061	0.043690
  79	3.9000e-02	3.1700	-11.559723	-0.000359	-3.589161	-1.216041	-0.029127
  80	3.9500e-02	3.1956	-11.341272	0.000538	5.383742	1.824061	0.043690
  81	4.0000e-02	3.2277	-11.486906	-0.000359	-3.589161	-1.216041	-0.029127
  82	4.0500e-02	3.2197	-11.377680	-0.000269	-2.691871	-0.912031	0.021845
  83	4.1000e-02	3.3111	-11.086412	0.000718	7.178323	2.432082	0.058254
  84	4.1500e-02	3.3416	-10.795143	0.000718	7.178323	2.432082	0.058254
  85	4.2000e-02	3.4138	-10.867960	-0.000179	-1.794581	-0.608020	-0.014563
  86	4.2500e-02	3.4523	-10.904369	-0.000090	-0.897290	-0.304010	-0.007282
  87	4.3000e-02	3.4716	-10.394649	0.001256	12.562065	4.256143	0.101944
  88	4.3500e-02	3.5261	-10.831552	-0.001077	-10.767484	-3.648122	-0.087381
  89	4.4000e-02	3.5550	-10.358240	0.001166	11.664775	3.952133	0.094662
  90	4.4500e-02	3.5630	-10.576692	-0.000538	-5.383742	-1.824061	-0.043690
  91	4.5000e-02	3.6657	-10.540283	0.000090	0.897290	0.304010	0.007282
  92	4.5500e-02	3.6817	-10.503874	0.000090	0.897290	0.304010	0.007282
  93	4.6000e-02	3.7282	-9.812111	0.001705	17.048517	5.776194	0.138353
  94	4.6500e-02	3.7587	-9.921337	-0.000269	-2.691871	-0.912031	-0.021845
  95	4.7000e-02	3.8020	-10.103380	-0.000449	-4.486452	-1.520051	-0.036409
  96	4.7500e-02	3.8197	-9.994154	0.000269	2.691871	0.912031	0.021845
  97	4.8000e-02	3.8774	-9.884929	0.000269	2.691871	0.912031	0.021845
  98	4.8500e-02	3.8999	-10.066972	-0.000449	-4.486452	-1.520051	-0.036409
  99	4.9000e-02	3.9191	-9.775703	0.000718	7.178323	2.432082	0.058254
 100	4.9500e-02	3.9913	-9.338800	0.001077	10.767484	3.648122	0.087381
 101	5.0000e-02	4.0571	-9.448026	-0.000269	-2.691871	-0.912031	-0.021845
 102	5.0500e-02	4.0796	-9.520843	-0.000179	-1.794581	-0.608020	-0.014563
 103	5.1000e-02	4.1293	-9.775703	-0.000628	-6.281033	-2.128071	-0.050972
 104	5.1500e-02	4.1453	-9.011123	0.001884	18.843098	6.384214	0.152916
 105	5.2000e-02	4.2047	-8.974714	0.000090	0.897290	0.304010	0.007282
 106	5.2500e-02	4.2336	-9.338800	-0.000897	-8.972904	-3.040102	-0.072817
 107	5.3000e-02	4.2657	-8.938306	0.000987	9.870194	3.344112	0.080099
 108	5.3500e-02	4.3298	-8.792671	0.000359	3.589161	1.216041	0.029127
 109	5.4000e-02	4.3780	-8.829080	-0.000090	-0.897290	-0.304010	-0.007282
 110	5.4500e-02	4.4277	-9.011123	-0.000449	-4.486452	-1.520051	-0.036409
 111	5.5000e-02	4.4550	-8.756263	0.000628	6.281033	2.128071	0.050972
 112	5.5500e-02	4.4774	-8.683446	0.000179	1.794581	0.608020	0.014563
 113	5.6000e-02	4.5448	-8.719854	-0.000090	-0.897290	-0.304010	-0.007282
 114	5.6500e-02	4.5352	-7.991683	-0.001795	-17.945807	-6.080204	0.145634
 115	5.7000e-02	4.6025	-8.683446	-0.001705	-17.048517	-5.776194	-0.138353
 116	5.7500e-02	4.6635	-8.574220	0.000269	2.691871	0.912031	0.021845
 117	5.8000e-02	4.6795	-8.282951	0.000718	7.178323	2.432082	0.058254
 118	5.8500e-02	4.7148	-8.100908	0.000449	4.486452	1.520051	0.036409
 119	5.9000e-02	4.7533	-7.846048	0.000628	6.281033	2.128071	0.050972
 120	5.9500e-02	4.7886	-8.028091	-0.000449	-4.486452	-1.520051	-0.036409
 121	6.0000e-02	4.8368	-7.773231	0.000628	6.281033	2.128071	0.050972
 122	6.0500e-02	4.8705	-8.064500	-0.000718	-7.178323	-2.432082	-0.058254
 123	6.1000e-02	4.8961	-7.736823	0.000808	8.075613	2.736092	0.065535
 124	6.1500e-02	4.9555	-7.882457	-0.000359	-3.589161	-1.216041	-0.029127
 125	6.2000e-02	5.0100	-7.736823	0.000359	3.589161	1.216041	0.029127
 126	6.2500e-02	5.0485	-7.409145	0.000808	8.075613	2.736092	0.065535
 127	6.3000e-02	5.0758	-7.445554	-0.000090	-0.897290	-0.304010	-0.007282
 128	6.3500e-02	5.1335	-7.409145	0.000090	0.897290	0.304010	0.007282
 129	6.4000e-02	5.1303	-7.372737	-0.000090	-0.897290	-0.304010	0.007282
 130	6.4500e-02	5.2170	-7.190694	0.000449	4.486452	1.520051	0.036409
 131	6.5000e-02	5.2924	-7.117877	0.000179	1.794581	0.608020	0.014563
 132	6.5500e-02	5.2924	-6.935834	-0.000449	-4.486452	-1.520051	0.036409
 133	6.6000e-02	5.3228	-6.863017	0.000179	1.794581	0.608020	0.014563
 134	6.6500e-02	5.3902	-6.826608	0.000090	0.897290	0.304010	0.007282
 135	6.7000e-02	5.3934	-6.826608	0.000000	0.000000	0.000000	0.000000
 136	6.7500e-02	5.4496	-6.790200	0.000090	0.897290	0.304010	0.007282
 137	6.8000e-02	5.4704	-6.790200	0.000000	0.000000	0.000000	0.000000
 138	6.8500e-02	5.5041	-6.608157	0.000449	4.486452	1.520051	0.036409
 139	6.9000e-02	5.5731	-6.535340	0.000179	1.794581	0.608020	0.014563
 140	6.9500e-02	5.6293	-6.426114	0.000269	2.691871	0.912031	0.021845
 141	7.0000e-02	5.6501	-6.316888	0.000269	2.691871	0.912031	0.021845
 142	7.0500e-02	5.6902	-6.389705	-0.000179	-1.794581	-0.608020	-0.014563
 143	7.1000e-02	5.7287	-6.062028	0.000808	8.075613	2.736092	0.065535
 144	7.1500e-02	5.7801	-6.098437	-0.000090	-0.897290	-0.304010	-0.007282
 145	7.2000e-02	5.8057	-5.843577	0.000628	6.281033	2.128071	0.050972
 146	7.2500e-02	5.8490	-6.025619	-0.000449	-4.486452	-1.520051	-0.036409
 147	7.3000e-02	5.8635	-5.625125	0.000987	9.870194	3.344112	0.080099
 148	7.3500e-02	5.9068	-5.770759	-0.000359	-3.589161	-1.216041	-0.029127
 149	7.4000e-02	5.9613	-5.661534	0.000269	2.691871	0.912031	0.021845
 150	7.4500e-02	5.9918	-5.552308	0.000269	2.691871	0.912031	0.021845
 151	7.5000e-02	6.0175	-5.625125	-0.000179	-1.794581	-0.608020	-0.014563
 152	7.5500e-02	6.0913	-5.515899	0.000269	2.691871	0.912031	0.021845
 153	7.6000e-02	6.1410	-5.443082	0.000179	1.794581	0.608020	0.014563
 154	7.6500e-02	6.1795	-5.552308	-0.000269	-2.691871	-0.912031	-0.021845
 155	7.7000e-02	6.2180	-4.969771	0.001436	14.356646	4.864163	0.116507
 156	7.7500e-02	6.2308	-5.370265	-0.000987	-9.870194	-3.344112	-0.080099
 157	7.8000e-02	6.2742	-5.224631	0.000359	3.589161	1.216041	0.029127
 158	7.8500e-02	6.3223	-4.969771	0.000628	6.281033	2.128071	0.050972
 159	7.9000e-02	6.3463	-4.824136	0.000359	3.589161	1.216041	0.029127
 160	7.9500e-02	6.4233	-4.605685	0.000538	5.383742	1.824061	0.043690
 161	8.0000e-02	6.4362	-4.678502	-0.000179	-1.794581	-0.608020	-0.014563
 162	8.0500e-02	6.4731	-5.042588	-0.000897	-8.972904	-3.040102	-0.072817
 163	8.1000e-02	6.5084	-4.714911	0.000808	8.075613	2.736092	0.065535
 164	8.1500e-02	6.5709	-3.950331	0.001884	18.843098	6.384214	0.152916
 165	8.2000e-02	6.5709	-4.496459	0.001346	13.459356	4.560153	-0.109226
 166	8.2500e-02	6.6319	-4.423642	0.000179	1.794581	0.608020	0.014563
 167	8.3000e-02	6.6752	-4.314416	0.000269	2.691871	0.912031	0.021845
 168	8.3500e-02	6.7185	-4.132373	0.000449	4.486452	1.520051	0.036409
 169	8.4000e-02	6.7634	-4.168782	-0.000090	-0.897290	-0.304010	-0.007282
 170	8.4500e-02	6.7859	-4.095965	0.000179	1.794581	0.608020	0.014563
 171	8.5000e-02	6.8324	-3.877513	0.000538	5.383742	1.824061	0.043690
 172	8.5500e-02	6.8629	-3.950331	-0.000179	-1.794581	-0.608020	-0.014563
 173	8.6000e-02	6.9463	-3.950331	0.000000	0.000000	0.000000	0.000000
 174	8.6500e-02	6.9431	-3.913922	-0.000090	-0.897290	-0.304010	0.007282
 175	8.7000e-02	7.0009	-3.222159	0.001705	17.048517	5.776194	0.138353
 176	8.7500e-02	7.0522	-3.367793	-0.000359	-3.589161	-1.216041	-0.029127
 177	8.8000e-02	7.0859	-3.440611	-0.000179	-1.794581	-0.608020	-0.014563
 178	8.8500e-02	7.1356	-3.331385	0.000269	2.691871	0.912031	0.021845
 179	8.9000e-02	7.1613	-3.185750	0.000359	3.589161	1.216041	0.029127
 180	8.9500e-02	7.1886	-3.149342	0.000090	0.897290	0.304010	0.007282
 181	9.0000e-02	7.2415	-3.367793	-0.000538	-5.383742	-1.824061	-0.043690
 182	9.0500e-02	7.2656	-3.149342	0.000538	5.383742	1.824061	0.043690
 183	9.1000e-02	7.2993	-2.821665	0.000808	8.075613	2.736092	0.065535
 184	9.1500e-02	7.3506	-3.003708	-0.000449	-4.486452	-1.520051	-0.036409
 185	9.2000e-02	7.3955	-2.930890	0.000179	1.794581	0.608020	0.014563
 186	9.2500e-02	7.4324	-2.676030	0.000628	6.281033	2.128071	0.050972
 187	9.3000e-02	7.5062	-3.185750	-0.001256	-12.562065	-4.256143	-0.101944
 188	9.3500e-02	7.5287	-2.530396	0.001615	16.151227	5.472184	0.131071
 189	9.4000e-02	7.5559	-2.566805	-0.000090	-0.897290	-0.304010	-0.007282
 190	9.4500e-02	7.6073	-2.493988	0.000179	1.794581	0.608020	0.014563
 191	9.5000e-02	7.6281	-2.129902	0.000897	8.972904	3.040102	0.072817
 192	9.5500e-02	7.6907	-2.348353	-0.000538	-5.383742	-1.824061	-0.043690
 193	9.6000e-02	7.7228	-2.457579	-0.000269	-2.691871	-0.912031	-0.021845
 194	9.6500e-02	7.7645	-2.275536	0.000449	4.486452	1.520051	0.036409
 195	9.7000e-02	7.8126	-1.765816	0.001256	12.562065	4.256143	0.101944
 196	9.7500e-02	7.8415	-2.129902	-0.000897	-8.972904	-3.040102	-0.072817
 197	9.8000e-02	7.8607	-2.202719	-0.000179	-1.794581	-0.608020	-0.014563
 198	9.8500e-02	7.9410	-1.692999	0.001256	12.562065	4.256143	0.101944
 199	9.9000e-02	7.9474	-1.911450	-0.000538	-5.383742	-1.824061	-0.043690
 200	9.9500e-02	7.9891	-1.911450	0.000000	0.000000	0.000000	0.000000
 201	1.0000e-01	8.0484	-1.838633	0.000179	1.794581	0.608020	0.014563
 202	1.0050e-01	8.0966	-1.656590	0.000449	4.486452	1.520051	0.036409
 203	1.0100e-01	8.1367	-1.729407	-0.000179	-1.794581	-0.608020	-0.014563
 204	1.0150e-01	8.1431	-1.292504	0.001077	10.767484	3.648122	0.087381
 205	1.0200e-01	8.1976	-1.401730	-0.000269	-2.691871	-0.912031	-0.021845
 206	1.0250e-01	8.2538	-1.656590	-0.000628	-6.281033	-2.128071	-0.050972
 207	1.0300e-01	8.3147	-1.037644	0.001525	15.253936	5.168174	0.123789
 208	1.0350e-01	8.3356	-0.855602	0.000449	4.486452	1.520051	0.036409
 209	1.0400e-01	8.3725	-0.928419	-0.000179	-1.794581	-0.608020	-0.014563
 210	1.0450e-01	8.4351	-1.183279	-0.000628	-6.281033	-2.128071	-0.050972
 211	1.0500e-01	8.4447	-0.928419	0.000628	6.281033	2.128071	0.050972
 212	1.0550e-01	8.4768	-0.855602	0.000179	1.794581	0.608020	0.014563
 213	1.0600e-01	8.5008	-0.892010	-0.000090	-0.897290	-0.304010	-0.007282
 214	1.0650e-01	8.5506	-0.673559	0.000538	5.383742	1.824061	0.043690
 215	1.0700e-01	8.6019	-0.527924	0.000359	3.589161	1.216041	0.029127
 216	1.0750e-01	8.6420	-0.564333	-0.000090	-0.897290	-0.304010	-0.007282
 217	1.0800e-01	8.6789	-0.746376	-0.000449	-4.486452	-1.520051	-0.036409
 218	1.0850e-01	8.7046	-0.382290	0.000897	8.972904	3.040102	0.072817
 219	1.0900e-01	8.7399	-0.273064	0.000269	2.691871	0.912031	0.021845
 220	1.0950e-01	8.8024	-0.200247	0.000179	1.794581	0.608020	0.014563
 221	1.1000e-01	8.8201	-0.163839	0.000090	0.897290	0.304010	0.007282
 222	1.1050e-01	8.8971	0.091021	0.000628	6.281033	2.128071	0.050972
 223	1.1100e-01	8.9484	0.236656	0.000359	3.589161	1.216041	0.029127
 224	1.1150e-01	8.9628	-0.127430	-0.000897	-8.972904	-3.040102	-0.072817
 225	1.1200e-01	8.9869	0.236656	0.000897	8.972904	3.040102	0.072817
 226	1.1250e-01	9.0479	0.309473	0.000179	1.794581	0.608020	0.014563
 227	1.1300e-01	9.0880	0.309473	0.000000	0.000000	0.000000	0.000000
 228	1.1350e-01	9.1521	0.527924	0.000538	5.383742	1.824061	0.043690
 229	1.1400e-01	9.1586	0.455107	-0.000179	-1.794581	-0.608020	-0.014563
 230	1.1450e-01	9.2308	0.637150	0.000449	4.486452	1.520051	0.036409
 231	1.1500e-01	9.2484	0.455107	-0.000449	-4.486452	-1.520051	-0.036409
 232	1.1550e-01	9.2709	0.746376	0.000718	7.178323	2.432082	0.058254
 233	1.1600e-01	9.3334	0.527924	-0.000538	-5.383742	-1.824061	-0.043690
 234	1.1650e-01	9.3527	0.673559	0.000359	3.589161	1.216041	0.029127
 235	1.1700e-01	9.4008	0.637150	-0.000090	-0.897290	-0.304010	-0.007282
 236	1.1750e-01	9.4377	0.892010	0.000628	6.281033	2.128071	0.050972
 237	1.1800e-01	9.4826	1.219687	0.000808	8.075613	2.736092	0.065535
 238	1.1850e-01	9.5115	1.110462	-0.000269	-2.691871	-0.912031	-0.021845
 239	1.1900e-01	9.5692	1.110462	0.000000	0.000000	0.000000	0.000000
 240	1.1950e-01	9.6045	1.438139	0.000808	8.075613	2.736092	0.065535
 241	1.2000e-01	9.6463	1.110462	-0.000808	-8.075613	-2.736092	-0.065535
 242	1.2050e-01	9.6623	0.892010	-0.000538	-5.383742	-1.824061	-0.043690
 243	1.2100e-01	9.7200	1.438139	0.001346	13.459356	4.560153	0.109226
 244	1.2150e-01	9.7634	1.547365	0.000269	2.691871	0.912031	0.021845
 245	1.2200e-01	9.8099	1.656590	0.000269	2.691871	0.912031	0.021845
 246	1.2250e-01	9.8436	1.692999	0.000090	0.897290	0.304010	0.007282
 247	1.2300e-01	9.8997	1.583773	-0.000269	-2.691871	-0.912031	-0.021845
 248	1.2350e-01	9.9302	1.984267	0.000987	9.870194	3.344112	0.080099
 249	1.2400e-01	9.9350	1.692999	-0.000718	-7.178323	-2.432082	-0.058254
 250	1.2450e-01	9.9783	1.911450	0.000538	5.383742	1.824061	0.043690
 251	1.2500e-01	10.0409	2.057085	0.000359	3.589161	1.216041	0.029127
 252	1.2550e-01	10.0954	1.765816	-0.000718	-7.178323	-2.432082	-0.058254
 253	1.2600e-01	10.1355	1.984267	0.000538	5.383742	1.824061	0.043690
 254	1.2650e-01	10.1291	2.384762	-0.000987	-9.870194	-3.344112	0.080099
 255	1.2700e-01	10.1901	2.348353	-0.000090	-0.897290	-0.304010	-0.007282
 256	1.2750e-01	10.2366	2.239127	-0.000269	-2.691871	-0.912031	-0.021845
 257	1.2800e-01	10.2831	2.093493	-0.000359	-3.589161	-1.216041	-0.029127
 258	1.2850e-01	10.3200	2.493988	0.000987	9.870194	3.344112	0.080099
