»»»»»»»»»»»»»»»»»»»»»»»»»»»»»»»»»»»» Hysteresis ««««««««««««««««««««««««««««««««««««
»»»  Executed Version:	5.48.1
»»»  Vision Version:	5.48.4 (R)
»»»  Vision Compiled:	9/18/24
»»»  Driver Version:	5.47.0
»»»  Windows Version:	Windows 8 or 8.1
»»»  Processor Information:	x86 (AMD or Intel) - 32 Processors
»»»  Tester Name:	PMF21124-494 (100V)
»»»  Tester S/N:	PMF21124-494
»»»  Internal Amp Type:	100V RevK 270k
»»»  Internal Amp S/N:	iAB2-596/K     
»»»  Execution Count:	1
»»»»»»»»»»»»»»»»»»»»»»»»»»»»»»»»»»»»»»»»»»««««««««««««««««««««««««««««««««««««««««««

Stored:	10/8/2025 - 18:14:6
Configured:	10/08/25 04:22:59 PM
Executed:	10/08/25 06:13:41 PM

»»»»»»»»»»»»»»»»»»»»»»»»»»»»»»»»»»» Sample Info ««««««««««««««««««««««««««««««««««««
Sample Name:	Int. Ref. Ferroelectric
Lot Name:	N/A
Wafer Name:	N/A
Die Row/Column:	0/0
Capacitor Number:	0
Sample Area (cm2):	1.00e-04
Sample Thickness (microns):	3.00e-01

Amplifier:	Internal

»»»»»»»»»»»»»»»»»»»»»»»»»»»»»»»»»»» Tester Info «««««««««««««««««««««««««««««««««««
Tester Name:	PMF21124-494 (100V)
Tester Serial Number:	PMF21124-494
Return Signal Amp. Level:	0.02 [Index: 2]

»»»»»»»»»»»»»»»»»»»»»»»»»»»»»»»» Hysteresis Info ««««««««««««««««««««««««««««««««««
Task Name:	\
Volts:	20.00
Field:	666.67 (kV/cm)
DCBias:	0.00
DCField:	0.00 (kV/cm)
Hysteresis Period (ms):	5.00e-01
Preset:	Enabled
Preset Delay (ms):	1.00e+03
Profile:	Standard Monopolar

»»»»»»»»»»»»»»»»»»»»»»»»»»»»»»»»»»»»»» Data «««««««««««««««««««««««««««««««««««««««
Points:	1001

Valid Data

Point	Time (ms)	Drive Voltage	Measured Polarization (uC/cm2)	Capacitance (uF)	Normalized Capacitance (uF/cm2)	Dielectric Constant	Instantaneous Current (mA)
   1	0.0000e+00	0.0193	-33.641525	-0.002057	-20.571434	-6.969790	-0.167479
   2	5.0000e-04	0.0545	-34.478922	-0.002057	-20.571434	-6.969790	-0.167479
   3	1.0000e-03	0.1315	-33.896385	0.001431	14.310563	4.848550	0.116507
   4	1.5000e-03	0.1717	-34.478922	-0.001431	-14.310563	-4.848550	-0.116507
   5	2.0000e-03	0.1893	-33.969202	0.001252	12.521742	4.242481	0.101944
   6	2.5000e-03	0.2326	-34.114837	-0.000358	-3.577641	-1.212137	-0.029127
   7	3.0000e-03	0.2872	-33.641525	0.001163	11.627332	3.939447	0.094662
   8	3.5000e-03	0.3241	-33.823568	-0.000447	-4.472051	-1.515172	-0.036409
   9	4.0000e-03	0.3754	-33.677934	0.000358	3.577641	1.212137	0.029127
  10	4.5000e-03	0.4027	-33.896385	-0.000537	-5.366461	-1.818206	-0.043690
  11	5.0000e-03	0.4267	-33.241031	0.001610	16.099383	5.454619	0.131071
  12	5.5000e-03	0.4909	-32.913354	0.000805	8.049692	2.727309	0.065535
  13	6.0000e-03	0.5085	-33.241031	-0.000805	-8.049692	-2.727309	-0.065535
  14	6.5000e-03	0.6064	-32.913354	0.000805	8.049692	2.727309	0.065535
  15	7.0000e-03	0.5888	-32.549268	-0.000894	-8.944102	-3.030344	0.072817
  16	7.5000e-03	0.6417	-32.440042	0.000268	2.683231	0.909103	0.021845
  17	8.0000e-03	0.7107	-32.257999	0.000447	4.472051	1.515172	0.036409
  18	8.5000e-03	0.7107	-31.966731	-0.000716	-7.155281	-2.424275	0.058254
  19	9.0000e-03	0.7412	-31.675462	0.000716	7.155281	2.424275	0.058254
  20	9.5000e-03	0.8246	-31.457010	0.000537	5.366461	1.818206	0.043690
  21	1.0000e-02	0.8551	-30.838065	0.001520	15.204973	5.151584	0.123789
  22	1.0500e-02	0.8887	-30.983699	-0.000358	-3.577641	-1.212137	-0.029127
  23	1.1000e-02	0.9289	-30.765248	0.000537	5.366461	1.818206	0.043690
  24	1.1500e-02	1.0075	-30.728839	0.000089	0.894410	0.303034	0.007282
  25	1.2000e-02	0.9930	-30.401162	-0.000805	-8.049692	-2.727309	0.065535
  26	1.2500e-02	1.0444	-30.328345	0.000179	1.788820	0.606069	0.014563
  27	1.3000e-02	1.0796	-30.109893	0.000537	5.366461	1.818206	0.043690
  28	1.3500e-02	1.1182	-29.782216	0.000805	8.049692	2.727309	0.065535
  29	1.4000e-02	1.1567	-29.600173	0.000447	4.472051	1.515172	0.036409
  30	1.4500e-02	1.1935	-29.345313	0.000626	6.260871	2.121241	0.050972
  31	1.5000e-02	1.2625	-29.163270	0.000447	4.472051	1.515172	0.036409
  32	1.5500e-02	1.2834	-29.199679	-0.000089	-0.894410	-0.303034	-0.007282
  33	1.6000e-02	1.3395	-28.762776	0.001073	10.732922	3.636412	0.087381
  34	1.6500e-02	1.3492	-28.471507	0.000716	7.155281	2.424275	0.058254
  35	1.7000e-02	1.4037	-28.435099	0.000089	0.894410	0.303034	0.007282
  36	1.7500e-02	1.4727	-27.925379	0.001252	12.521742	4.242481	0.101944
  37	1.8000e-02	1.4967	-27.925379	0.000000	0.000000	0.000000	0.000000
  38	1.8500e-02	1.5176	-27.852561	0.000179	1.788820	0.606069	0.014563
  39	1.9000e-02	1.5625	-27.597701	0.000626	6.260871	2.121241	0.050972
  40	1.9500e-02	1.5946	-27.197207	0.000984	9.838512	3.333378	0.080099
  41	2.0000e-02	1.6283	-27.233616	-0.000089	-0.894410	-0.303034	-0.007282
  42	2.0500e-02	1.6780	-26.942347	0.000716	7.155281	2.424275	0.058254
  43	2.1000e-02	1.7326	-26.614670	0.000805	8.049692	2.727309	0.065535
  44	2.1500e-02	1.7438	-26.505444	0.000268	2.683231	0.909103	0.021845
  45	2.2000e-02	1.8304	-26.032133	0.001163	11.627332	3.939447	0.094662
  46	2.2500e-02	1.8433	-25.959315	0.000179	1.788820	0.606069	0.014563
  47	2.3000e-02	1.8609	-25.850090	0.000268	2.683231	0.909103	0.021845
  48	2.3500e-02	1.9475	-25.486004	0.000894	8.944102	3.030344	0.072817
  49	2.4000e-02	1.9732	-25.740864	-0.000626	-6.260871	-2.121241	-0.050972
  50	2.4500e-02	2.0085	-24.939875	0.001968	19.677024	6.666756	0.160198
  51	2.5000e-02	2.0663	-24.976284	-0.000089	-0.894410	-0.303034	-0.007282
  52	2.5500e-02	2.1015	-24.794241	0.000447	4.472051	1.515172	0.036409
  53	2.6000e-02	2.1224	-25.012692	-0.000537	-5.366461	-1.818206	-0.043690
  54	2.6500e-02	2.1657	-24.466564	0.001342	13.416153	4.545516	0.109226
  55	2.7000e-02	2.1962	-24.138887	0.000805	8.049692	2.727309	0.065535
  56	2.7500e-02	2.2395	-23.847618	0.000716	7.155281	2.424275	0.058254
  57	2.8000e-02	2.2748	-24.066069	-0.000537	-5.366461	-1.818206	-0.043690
  58	2.8500e-02	2.3021	-23.811209	0.000626	6.260871	2.121241	0.050972
  59	2.9000e-02	2.3646	-23.410715	0.000984	9.838512	3.333378	0.080099
  60	2.9500e-02	2.4080	-23.228672	0.000447	4.472051	1.515172	0.036409
  61	3.0000e-02	2.4641	-23.301489	-0.000179	-1.788820	-0.606069	-0.014563
  62	3.0500e-02	2.4866	-22.791769	0.001252	12.521742	4.242481	0.101944
  63	3.1000e-02	2.5459	-22.937403	-0.000358	-3.577641	-1.212137	-0.029127
  64	3.1500e-02	2.5459	-22.391275	-0.001342	-13.416153	-4.545516	0.109226
  65	3.2000e-02	2.5989	-22.354866	0.000089	0.894410	0.303034	0.007282
  66	3.2500e-02	2.6197	-22.136415	0.000537	5.366461	1.818206	0.043690
  67	3.3000e-02	2.6646	-21.808738	0.000805	8.049692	2.727309	0.065535
  68	3.3500e-02	2.7368	-21.626695	0.000447	4.472051	1.515172	0.036409
  69	3.4000e-02	2.7625	-21.517469	0.000268	2.683231	0.909103	0.021845
  70	3.4500e-02	2.7994	-21.699512	-0.000447	-4.472051	-1.515172	-0.036409
  71	3.5000e-02	2.8523	-21.553878	0.000358	3.577641	1.212137	0.029127
  72	3.5500e-02	2.8652	-21.299018	0.000626	6.260871	2.121241	0.050972
  73	3.6000e-02	2.9101	-20.789297	0.001252	12.521742	4.242481	0.101944
  74	3.6500e-02	2.9678	-20.643663	0.000358	3.577641	1.212137	0.029127
  75	3.7000e-02	2.9823	-20.534437	0.000268	2.683231	0.909103	0.021845
  76	3.7500e-02	3.0272	-20.352395	0.000447	4.472051	1.515172	0.036409
  77	3.8000e-02	3.0978	-20.388803	-0.000089	-0.894410	-0.303034	-0.007282
  78	3.8500e-02	3.1026	-19.879083	0.001252	12.521742	4.242481	0.101944
  79	3.9000e-02	3.2117	-20.024717	-0.000358	-3.577641	-1.212137	-0.029127
  80	3.9500e-02	3.2165	-19.369363	0.001610	16.099383	5.454619	0.131071
  81	4.0000e-02	3.2486	-19.514997	-0.000358	-3.577641	-1.212137	-0.029127
  82	4.0500e-02	3.2710	-19.114503	0.000984	9.838512	3.333378	0.080099
  83	4.1000e-02	3.3432	-19.332954	-0.000537	-5.366461	-1.818206	-0.043690
  84	4.1500e-02	3.3657	-18.786826	0.001342	13.416153	4.545516	0.109226
  85	4.2000e-02	3.3946	-18.823234	-0.000089	-0.894410	-0.303034	-0.007282
  86	4.2500e-02	3.4507	-18.459149	0.000894	8.944102	3.030344	0.072817
  87	4.3000e-02	3.4748	-18.386331	0.000179	1.788820	0.606069	0.014563
  88	4.3500e-02	3.5181	-18.204288	0.000447	4.472051	1.515172	0.036409
  89	4.4000e-02	3.5871	-18.022246	0.000447	4.472051	1.515172	0.036409
  90	4.4500e-02	3.6159	-17.767386	0.000626	6.260871	2.121241	0.050972
  91	4.5000e-02	3.6368	-17.694568	0.000179	1.788820	0.606069	0.014563
  92	4.5500e-02	3.6689	-17.694568	0.000000	0.000000	0.000000	0.000000
  93	4.6000e-02	3.7282	-17.039214	0.001610	16.099383	5.454619	0.131071
  94	4.6500e-02	3.7796	-17.039214	0.000000	0.000000	0.000000	0.000000
  95	4.7000e-02	3.8197	-17.184848	-0.000358	-3.577641	-1.212137	-0.029127
  96	4.7500e-02	3.8357	-16.675128	0.001252	12.521742	4.242481	0.101944
  97	4.8000e-02	3.8967	-16.529494	0.000358	3.577641	1.212137	0.029127
  98	4.8500e-02	3.9272	-16.638720	-0.000268	-2.683231	-0.909103	-0.021845
  99	4.9000e-02	3.9544	-15.910548	0.001789	17.888203	6.060687	0.145634
 100	4.9500e-02	3.9913	-16.165408	-0.000626	-6.260871	-2.121241	-0.050972
 101	5.0000e-02	4.0250	-15.946957	0.000537	5.366461	1.818206	0.043690
 102	5.0500e-02	4.0796	-15.837731	0.000268	2.683231	0.909103	0.021845
 103	5.1000e-02	4.1309	-15.764914	0.000179	1.788820	0.606069	0.014563
 104	5.1500e-02	4.1838	-15.619280	0.000358	3.577641	1.212137	0.029127
 105	5.2000e-02	4.1806	-15.000334	-0.001520	-15.204973	-5.151584	0.123789
 106	5.2500e-02	4.2464	-15.291602	-0.000716	-7.155281	-2.424275	-0.058254
 107	5.3000e-02	4.2528	-15.036742	0.000626	6.260871	2.121241	0.050972
 108	5.3500e-02	4.3042	-14.927517	0.000268	2.683231	0.909103	0.021845
 109	5.4000e-02	4.3667	-14.417796	0.001252	12.521742	4.242481	0.101944
 110	5.4500e-02	4.3940	-14.162936	0.000626	6.260871	2.121241	0.050972
 111	5.5000e-02	4.4405	-14.308571	-0.000358	-3.577641	-1.212137	-0.029127
 112	5.5500e-02	4.4902	-14.235754	0.000179	1.788820	0.606069	0.014563
 113	5.6000e-02	4.5239	-14.199345	0.000089	0.894410	0.303034	0.007282
 114	5.6500e-02	4.5673	-13.471173	0.001789	17.888203	6.060687	0.145634
 115	5.7000e-02	4.6074	-13.653216	-0.000447	-4.472051	-1.515172	-0.036409
 116	5.7500e-02	4.6362	-13.361948	0.000716	7.155281	2.424275	0.058254
 117	5.8000e-02	4.6844	-13.434765	-0.000179	-1.788820	-0.606069	-0.014563
 118	5.8500e-02	4.7261	-13.216313	0.000537	5.366461	1.818206	0.043690
 119	5.9000e-02	4.7662	-13.179905	0.000089	0.894410	0.303034	0.007282
 120	5.9500e-02	4.7983	-12.925045	0.000626	6.260871	2.121241	0.050972
 121	6.0000e-02	4.8512	-12.706593	0.000537	5.366461	1.818206	0.043690
 122	6.0500e-02	4.8801	-12.488142	0.000537	5.366461	1.818206	0.043690
 123	6.1000e-02	4.8785	-12.488142	-0.000000	-0.000000	-0.000000	0.000000
 124	6.1500e-02	4.9667	-12.124056	0.000894	8.944102	3.030344	0.072817
 125	6.2000e-02	5.0084	-11.978422	0.000358	3.577641	1.212137	0.029127
 126	6.2500e-02	5.0501	-11.978422	0.000000	0.000000	0.000000	0.000000
 127	6.3000e-02	5.0710	-11.541519	0.001073	10.732922	3.636412	0.087381
 128	6.3500e-02	5.1384	-11.577927	-0.000089	-0.894410	-0.303034	-0.007282
 129	6.4000e-02	5.1817	-11.286659	0.000716	7.155281	2.424275	0.058254
 130	6.4500e-02	5.1913	-11.104616	0.000447	4.472051	1.515172	0.036409
 131	6.5000e-02	5.2202	-11.250250	-0.000358	-3.577641	-1.212137	-0.029127
 132	6.5500e-02	5.2859	-10.849756	0.000984	9.838512	3.333378	0.080099
 133	6.6000e-02	5.2924	-10.995390	-0.000358	-3.577641	-1.212137	-0.029127
 134	6.6500e-02	5.3549	-10.813347	0.000447	4.472051	1.515172	0.036409
 135	6.7000e-02	5.3902	-10.412853	0.000984	9.838512	3.333378	0.080099
 136	6.7500e-02	5.4528	-10.267219	0.000358	3.577641	1.212137	0.029127
 137	6.8000e-02	5.4656	-10.594896	-0.000805	-8.049692	-2.727309	-0.065535
 138	6.8500e-02	5.5234	-10.157993	0.001073	10.732922	3.636412	0.087381
 139	6.9000e-02	5.5442	-9.757499	0.000984	9.838512	3.333378	0.080099
 140	6.9500e-02	5.6068	-9.793907	-0.000089	-0.894410	-0.303034	-0.007282
 141	7.0000e-02	5.6421	-9.721090	0.000179	1.788820	0.606069	0.014563
 142	7.0500e-02	5.6870	-9.320596	0.000984	9.838512	3.333378	0.080099
 143	7.1000e-02	5.7367	-9.247779	0.000179	1.788820	0.606069	0.014563
 144	7.1500e-02	5.7223	-9.320596	0.000179	1.788820	0.606069	-0.014563
 145	7.2000e-02	5.7977	-8.920101	0.000984	9.838512	3.333378	0.080099
 146	7.2500e-02	5.8442	-8.665241	0.000626	6.260871	2.121241	0.050972
 147	7.3000e-02	5.8763	-8.810876	-0.000358	-3.577641	-1.212137	-0.029127
 148	7.3500e-02	5.9180	-8.592424	0.000537	5.366461	1.818206	0.043690
 149	7.4000e-02	5.9517	-8.228338	0.000894	8.944102	3.030344	0.072817
 150	7.4500e-02	5.9918	-8.337564	-0.000268	-2.683231	-0.909103	-0.021845
 151	7.5000e-02	6.0095	-7.973478	0.000894	8.944102	3.030344	0.072817
 152	7.5500e-02	6.0768	-7.645801	0.000805	8.049692	2.727309	0.065535
 153	7.6000e-02	6.0913	-7.900661	-0.000626	-6.260871	-2.121241	-0.050972
 154	7.6500e-02	6.1683	-7.718618	0.000447	4.472051	1.515172	0.036409
 155	7.7000e-02	6.1988	-7.245307	0.001163	11.627332	3.939447	0.094662
 156	7.7500e-02	6.2485	-7.354533	-0.000268	-2.683231	-0.909103	-0.021845
 157	7.8000e-02	6.2774	-7.172490	0.000447	4.472051	1.515172	0.036409
 158	7.8500e-02	6.3046	-6.954038	0.000537	5.366461	1.818206	0.043690
 159	7.9000e-02	6.3479	-6.954038	0.000000	0.000000	0.000000	0.000000
 160	7.9500e-02	6.3913	-6.662770	0.000716	7.155281	2.424275	0.058254
 161	8.0000e-02	6.4394	-6.480727	0.000447	4.472051	1.515172	0.036409
 162	8.0500e-02	6.4907	-6.881221	-0.000984	-9.838512	-3.333378	-0.080099
 163	8.1000e-02	6.5164	-6.298684	0.001431	14.310563	4.848550	0.116507
 164	8.1500e-02	6.5806	-6.371501	-0.000179	-1.788820	-0.606069	-0.014563
 165	8.2000e-02	6.5822	-5.934598	0.001073	10.732922	3.636412	0.087381
 166	8.2500e-02	6.6511	-5.788964	0.000358	3.577641	1.212137	0.029127
 167	8.3000e-02	6.6752	-5.643329	0.000358	3.577641	1.212137	0.029127
 168	8.3500e-02	6.7169	-5.424878	0.000537	5.366461	1.818206	0.043690
 169	8.4000e-02	6.7650	-5.825372	-0.000984	-9.838512	-3.333378	-0.080099
 170	8.4500e-02	6.8019	-5.024384	0.001968	19.677024	6.666756	0.160198
 171	8.5000e-02	6.8501	-4.878749	0.000358	3.577641	1.212137	0.029127
 172	8.5500e-02	6.8597	-5.388469	-0.001252	-12.521742	-4.242481	-0.101944
 173	8.6000e-02	6.9078	-4.805932	0.001431	14.310563	4.848550	0.116507
 174	8.6500e-02	6.9527	-4.805932	0.000000	0.000000	0.000000	0.000000
 175	8.7000e-02	6.9929	-4.696706	0.000268	2.683231	0.909103	0.021845
 176	8.7500e-02	7.0346	-4.150578	0.001342	13.416153	4.545516	0.109226
 177	8.8000e-02	7.0715	-4.623889	-0.001163	-11.627332	-3.939447	-0.094662
 178	8.8500e-02	7.0971	-3.895718	0.001789	17.888203	6.060687	0.145634
 179	8.9000e-02	7.1902	-4.150578	-0.000626	-6.260871	-2.121241	-0.050972
 180	8.9500e-02	7.2158	-3.750083	0.000984	9.838512	3.333378	0.080099
 181	9.0000e-02	7.2367	-3.531632	0.000537	5.366461	1.818206	0.043690
 182	9.0500e-02	7.2944	-3.604449	-0.000179	-1.788820	-0.606069	-0.014563
 183	9.1000e-02	7.2944	-3.276772	-0.000805	-8.049692	-2.727309	0.065535
 184	9.1500e-02	7.3506	-3.167546	0.000268	2.683231	0.909103	0.021845
 185	9.2000e-02	7.3971	-3.021912	0.000358	3.577641	1.212137	0.029127
 186	9.2500e-02	7.4485	-2.912686	0.000268	2.683231	0.909103	0.021845
 187	9.3000e-02	7.4934	-2.949095	-0.000089	-0.894410	-0.303034	-0.007282
 188	9.3500e-02	7.5062	-2.839869	0.000268	2.683231	0.909103	0.021845
 189	9.4000e-02	7.5784	-2.585009	0.000626	6.260871	2.121241	0.050972
 190	9.4500e-02	7.5912	-2.330149	0.000626	6.260871	2.121241	0.050972
 191	9.5000e-02	7.6185	-2.184515	0.000358	3.577641	1.212137	0.029127
 192	9.5500e-02	7.6811	-2.184515	0.000000	0.000000	0.000000	0.000000
 193	9.6000e-02	7.7388	-1.966063	0.000537	5.366461	1.818206	0.043690
 194	9.6500e-02	7.7837	-1.674795	0.000716	7.155281	2.424275	0.058254
 195	9.7000e-02	7.8142	-1.711203	-0.000089	-0.894410	-0.303034	-0.007282
 196	9.7500e-02	7.8415	-1.529160	0.000447	4.472051	1.515172	0.036409
 197	9.8000e-02	7.8768	-1.638386	-0.000268	-2.683231	-0.909103	-0.021845
 198	9.8500e-02	7.9458	-1.237892	0.000984	9.838512	3.333378	0.080099
 199	9.9000e-02	7.9377	-1.237892	-0.000000	-0.000000	-0.000000	0.000000
 200	9.9500e-02	8.0083	-0.837397	0.000984	9.838512	3.333378	0.080099
 201	1.0000e-01	8.0324	-0.509720	0.000805	8.049692	2.727309	0.065535
 202	1.0050e-01	8.0725	-1.019440	-0.001252	-12.521742	-4.242481	-0.101944
 203	1.0100e-01	8.1030	-0.582537	0.001073	10.732922	3.636412	0.087381
 204	1.0150e-01	8.1591	-0.618946	-0.000089	-0.894410	-0.303034	-0.007282
 205	1.0200e-01	8.1816	-0.254860	0.000894	8.944102	3.030344	0.072817
 206	1.0250e-01	8.2169	-0.109226	0.000358	3.577641	1.212137	0.029127
 207	1.0300e-01	8.2618	0.109226	0.000537	5.366461	1.818206	0.043690
 208	1.0350e-01	8.3308	0.036409	-0.000179	-1.788820	-0.606069	-0.014563
 209	1.0400e-01	8.3998	-0.072817	-0.000268	-2.683231	-0.909103	-0.021845
 210	1.0450e-01	8.3998	0.291269	-0.000894	-8.944102	-3.030344	0.072817
 211	1.0500e-01	8.4639	0.582537	0.000716	7.155281	2.424275	0.058254
 212	1.0550e-01	8.4703	0.364086	-0.000537	-5.366461	-1.818206	-0.043690
 213	1.0600e-01	8.5185	0.983032	0.001520	15.204973	5.151584	0.123789
 214	1.0650e-01	8.5698	0.618946	-0.000894	-8.944102	-3.030344	-0.072817
 215	1.0700e-01	8.5971	1.237892	0.001520	15.204973	5.151584	0.123789
 216	1.0750e-01	8.6548	1.347117	0.000268	2.683231	0.909103	0.021845
 217	1.0800e-01	8.6532	1.347117	-0.000000	-0.000000	-0.000000	0.000000
 218	1.0850e-01	8.7286	1.456343	0.000268	2.683231	0.909103	0.021845
 219	1.0900e-01	8.7655	1.601977	0.000358	3.577641	1.212137	0.029127
 220	1.0950e-01	8.8169	1.565569	-0.000089	-0.894410	-0.303034	-0.007282
 221	1.1000e-01	8.8153	1.820429	-0.000626	-6.260871	-2.121241	0.050972
 222	1.1050e-01	8.8441	1.856837	0.000089	0.894410	0.303034	0.007282
 223	1.1100e-01	8.8955	2.075289	0.000537	5.366461	1.818206	0.043690
 224	1.1150e-01	8.9484	2.621418	0.001342	13.416153	4.545516	0.109226
 225	1.1200e-01	8.9821	2.548600	-0.000179	-1.788820	-0.606069	-0.014563
 226	1.1250e-01	9.0479	2.439375	-0.000268	-2.683231	-0.909103	-0.021845
 227	1.1300e-01	9.0639	2.694235	0.000626	6.260871	2.121241	0.050972
 228	1.1350e-01	9.1201	2.839869	0.000358	3.577641	1.212137	0.029127
 229	1.1400e-01	9.1923	2.985503	0.000358	3.577641	1.212137	0.029127
 230	1.1450e-01	9.2003	3.058320	0.000179	1.788820	0.606069	0.014563
 231	1.1500e-01	9.2612	3.094729	0.000089	0.894410	0.303034	0.007282
 232	1.1550e-01	9.2789	3.313181	0.000537	5.366461	1.818206	0.043690
 233	1.1600e-01	9.3238	3.349589	0.000089	0.894410	0.303034	0.007282
 234	1.1650e-01	9.3479	3.895718	0.001342	13.416153	4.545516	0.109226
 235	1.1700e-01	9.4168	3.750083	-0.000358	-3.577641	-1.212137	-0.029127
 236	1.1750e-01	9.4361	3.568041	-0.000447	-4.472051	-1.515172	-0.036409
 237	1.1800e-01	9.4858	4.004943	0.001073	10.732922	3.636412	0.087381
 238	1.1850e-01	9.5211	4.114169	0.000268	2.683231	0.909103	0.021845
 239	1.1900e-01	9.5869	4.369029	0.000626	6.260871	2.121241	0.050972
 240	1.1950e-01	9.6270	4.587481	0.000537	5.366461	1.818206	0.043690
 241	1.2000e-01	9.6414	4.696706	0.000268	2.683231	0.909103	0.021845
 242	1.2050e-01	9.6880	4.369029	-0.000805	-8.049692	-2.727309	-0.065535
 243	1.2100e-01	9.7297	4.769524	0.000984	9.838512	3.333378	0.080099
 244	1.2150e-01	9.7377	4.915158	0.000358	3.577641	1.212137	0.029127
 245	1.2200e-01	9.7906	5.352061	0.001073	10.732922	3.636412	0.087381
 246	1.2250e-01	9.8468	5.242835	-0.000268	-2.683231	-0.909103	-0.021845
 247	1.2300e-01	9.8436	5.315652	-0.000179	-1.788820	-0.606069	0.014563
 248	1.2350e-01	9.9286	5.206427	-0.000268	-2.683231	-0.909103	-0.021845
 249	1.2400e-01	9.9607	5.825372	0.001520	15.204973	5.151584	0.123789
 250	1.2450e-01	10.0168	6.043824	0.000537	5.366461	1.818206	0.043690
 251	1.2500e-01	10.0297	5.497695	-0.001342	-13.416153	-4.545516	-0.109226
 252	1.2550e-01	10.0794	5.934598	0.001073	10.732922	3.636412	0.087381
 253	1.2600e-01	10.1339	6.189458	0.000626	6.260871	2.121241	0.050972
 254	1.2650e-01	10.1596	6.189458	0.000000	0.000000	0.000000	0.000000
 255	1.2700e-01	10.1805	6.444318	0.000626	6.260871	2.121241	0.050972
 256	1.2750e-01	10.2543	6.662770	0.000537	5.366461	1.818206	0.043690
 257	1.2800e-01	10.2831	6.080232	-0.001431	-14.310563	-4.848550	-0.116507
 258	1.2850e-01	10.3056	6.990447	0.002236	22.360254	7.575859	0.182043
 259	1.2900e-01	10.3746	6.917630	-0.000179	-1.788820	-0.606069	-0.014563
