»»»»»»»»»»»»»»»»»»»»»»»»»»»»»»»»»»»» Hysteresis ««««««««««««««««««««««««««««««««««««
»»»  Executed Version:	5.48.1
»»»  Vision Version:	5.48.4 (R)
»»»  Vision Compiled:	9/18/24
»»»  Driver Version:	5.47.0
»»»  Windows Version:	Windows 8 or 8.1
»»»  Processor Information:	x86 (AMD or Intel) - 32 Processors
»»»  Tester Name:	PMF21124-494 (100V)
»»»  Tester S/N:	PMF21124-494
»»»  Internal Amp Type:	100V RevK 270k
»»»  Internal Amp S/N:	iAB2-596/K     
»»»  Execution Count:	1
»»»»»»»»»»»»»»»»»»»»»»»»»»»»»»»»»»»»»»»»»»««««««««««««««««««««««««««««««««««««««««««

Stored:	10/8/2025 - 18:22:34
Configured:	10/08/25 04:22:59 PM
Executed:	10/08/25 06:22:07 PM

»»»»»»»»»»»»»»»»»»»»»»»»»»»»»»»»»»» Sample Info ««««««««««««««««««««««««««««««««««««
Sample Name:	Int. Ref. Ferroelectric
Lot Name:	N/A
Wafer Name:	N/A
Die Row/Column:	0/0
Capacitor Number:	0
Sample Area (cm2):	1.00e-04
Sample Thickness (microns):	3.00e-01

Amplifier:	Internal

»»»»»»»»»»»»»»»»»»»»»»»»»»»»»»»»»»» Tester Info «««««««««««««««««««««««««««««««««««
Tester Name:	PMF21124-494 (100V)
Tester Serial Number:	PMF21124-494
Return Signal Amp. Level:	1.9 [Index: 2]

»»»»»»»»»»»»»»»»»»»»»»»»»»»»»»»» Hysteresis Info ««««««««««««««««««««««««««««««««««
Task Name:	\
Volts:	20.00
Field:	666.67 (kV/cm)
DCBias:	0.00
DCField:	0.00 (kV/cm)
Hysteresis Period (ms):	1.00e+02
Preset:	Enabled
Preset Delay (ms):	1.00e+03
Profile:	Standard Monopolar

»»»»»»»»»»»»»»»»»»»»»»»»»»»»»»»»»»»»»» Data «««««««««««««««««««««««««««««««««««««««
Points:	2001

Valid Data

Point	Time (ms)	Drive Voltage	Measured Polarization (uC/cm2)	Capacitance (uF)	Normalized Capacitance (uF/cm2)	Dielectric Constant	Instantaneous Current (mA)
   1	0.0000e+00	0.0353	-12.614584	0.000088	0.882471	0.298989	0.000039
   2	5.0000e-02	0.0545	-12.595032	0.000088	0.882471	0.298989	0.000039
   3	1.0000e-01	0.0658	-12.560408	0.000156	1.562708	0.529460	0.000069
   4	1.5000e-01	0.0786	-12.528228	0.000145	1.452399	0.492086	0.000064
   5	2.0000e-01	0.0995	-12.491159	0.000167	1.673017	0.566834	0.000074
   6	2.5000e-01	0.0898	-12.454906	-0.000164	-1.636247	-0.554376	0.000073
   7	3.0000e-01	0.1380	-12.411320	0.000197	1.967174	0.666497	0.000087
   8	3.5000e-01	0.1636	-12.375474	0.000162	1.617863	0.548147	0.000072
   9	4.0000e-01	0.1877	-12.336369	0.000176	1.764941	0.597978	0.000078
  10	4.5000e-01	0.1861	-12.298079	-0.000173	-1.728172	-0.585520	0.000077
  11	5.0000e-01	0.2198	-12.264270	0.000153	1.525939	0.517002	0.000068
  12	5.5000e-01	0.2471	-12.224757	0.000178	1.783326	0.604207	0.000079
  13	6.0000e-01	0.2487	-12.190541	0.000154	1.544323	0.523231	0.000068
  14	6.5000e-01	0.2920	-12.156324	0.000154	1.544323	0.523231	0.000068
  15	7.0000e-01	0.3000	-12.114775	0.000188	1.875250	0.635352	0.000083
  16	7.5000e-01	0.3353	-12.081373	0.000151	1.507554	0.510773	0.000067
  17	8.0000e-01	0.3449	-12.039009	0.000191	1.912020	0.647810	0.000085
  18	8.5000e-01	0.3561	-11.998682	0.000182	1.820096	0.616665	0.000081
  19	9.0000e-01	0.3754	-11.963651	0.000158	1.581093	0.535689	0.000070
  20	9.5000e-01	0.4155	-11.930656	0.000149	1.489169	0.504544	0.000066
  21	1.0000e+00	0.4155	-11.892773	-0.000171	-1.709787	-0.579291	0.000076
  22	1.0500e+00	0.4347	-11.853668	0.000176	1.764941	0.597978	0.000078
  23	1.1000e+00	0.4508	-11.812527	0.000186	1.856865	0.629123	0.000082
  24	1.1500e+00	0.4700	-11.779125	0.000151	1.507554	0.510773	0.000067
  25	1.2000e+00	0.4893	-11.739612	0.000178	1.783326	0.604207	0.000079
  26	1.2500e+00	0.5198	-11.703359	0.000164	1.636247	0.554376	0.000073
  27	1.3000e+00	0.5454	-11.668327	0.000158	1.581093	0.535689	0.000070
  28	1.3500e+00	0.5599	-11.628815	0.000178	1.783326	0.604207	0.000079
  29	1.4000e+00	0.6032	-11.592969	0.000162	1.617863	0.548147	0.000072
  30	1.4500e+00	0.5823	-11.555901	-0.000167	-1.673017	-0.566834	0.000074
  31	1.5000e+00	0.6176	-11.522091	0.000153	1.525939	0.517002	0.000068
  32	1.5500e+00	0.6353	-11.478913	0.000195	1.948789	0.660268	0.000086
  33	1.6000e+00	0.6513	-11.441845	0.000167	1.673017	0.566834	0.000074
  34	1.6500e+00	0.7043	-11.405999	0.000162	1.617863	0.548147	0.000072
  35	1.7000e+00	0.6946	-11.366079	-0.000180	-1.801711	-0.610436	0.000080
  36	1.7500e+00	0.7155	-11.330233	0.000162	1.617863	0.548147	0.000072
  37	1.8000e+00	0.7476	-11.293572	0.000165	1.654632	0.560605	0.000073
  38	1.8500e+00	0.7444	-11.258541	-0.000158	-1.581093	-0.535689	0.000070
  39	1.9000e+00	0.7797	-11.217807	0.000184	1.838480	0.622894	0.000081
  40	1.9500e+00	0.8150	-11.180738	0.000167	1.673017	0.566834	0.000074
  41	2.0000e+00	0.8214	-11.146114	0.000156	1.562708	0.529460	0.000069
  42	2.0500e+00	0.8454	-11.109046	0.000167	1.673017	0.566834	0.000074
  43	2.1000e+00	0.8775	-11.069534	0.000178	1.783326	0.604207	0.000079
  44	2.1500e+00	0.8583	-11.036132	-0.000151	-1.507554	-0.510773	0.000067
  45	2.2000e+00	0.9032	-10.997027	0.000176	1.764941	0.597978	0.000078
  46	2.2500e+00	0.9128	-10.961181	0.000162	1.617863	0.548147	0.000072
  47	2.3000e+00	0.9577	-10.925742	0.000160	1.599478	0.541918	0.000071
  48	2.3500e+00	0.9545	-10.891932	-0.000153	-1.525939	-0.517002	0.000068
  49	2.4000e+00	0.9722	-10.852013	0.000180	1.801711	0.610436	0.000080
  50	2.4500e+00	1.0010	-10.814130	0.000171	1.709787	0.579291	0.000076
  51	2.5000e+00	1.0251	-10.783172	0.000140	1.397245	0.473399	0.000062
  52	2.5500e+00	1.0347	-10.746104	0.000167	1.673017	0.566834	0.000074
  53	2.6000e+00	1.0428	-10.706999	0.000176	1.764941	0.597978	0.000078
  54	2.6500e+00	1.0780	-10.674819	0.000145	1.452399	0.492086	0.000064
  55	2.7000e+00	1.1085	-10.637343	0.000169	1.691402	0.573062	0.000075
  56	2.7500e+00	1.1149	-10.597831	0.000178	1.783326	0.604207	0.000079
  57	2.8000e+00	1.1198	-10.564836	0.000149	1.489169	0.504544	0.000066
  58	2.8500e+00	1.1470	-10.530212	0.000156	1.562708	0.529460	0.000069
  59	2.9000e+00	1.1743	-10.493144	0.000167	1.673017	0.566834	0.000074
  60	2.9500e+00	1.1984	-10.449151	0.000199	1.985559	0.672726	0.000088
  61	3.0000e+00	1.2096	-10.418193	0.000140	1.397245	0.473399	0.000062
  62	3.0500e+00	1.2385	-10.382347	0.000162	1.617863	0.548147	0.000072
  63	3.1000e+00	1.2706	-10.349352	0.000149	1.489169	0.504544	0.000066
  64	3.1500e+00	1.3058	-10.311877	0.000169	1.691402	0.573062	0.000075
  65	3.2000e+00	1.2994	-10.276845	-0.000158	-1.581093	-0.535689	0.000070
  66	3.2500e+00	1.3299	-10.238148	0.000175	1.746556	0.591749	0.000077
  67	3.3000e+00	1.3604	-10.204338	0.000153	1.525939	0.517002	0.000068
  68	3.3500e+00	1.3556	-10.163197	-0.000186	-1.856865	-0.629123	0.000082
  69	3.4000e+00	1.3989	-10.130202	0.000149	1.489169	0.504544	0.000066
  70	3.4500e+00	1.4005	-10.089875	0.000182	1.820096	0.616665	0.000081
  71	3.5000e+00	1.4101	-10.047919	0.000189	1.893635	0.641581	0.000084
  72	3.5500e+00	1.4246	-10.018997	0.000131	1.305321	0.442255	0.000058
  73	3.6000e+00	1.4470	-9.984373	0.000156	1.562708	0.529460	0.000069
  74	3.6500e+00	1.4727	-9.947305	0.000167	1.673017	0.566834	0.000074
  75	3.7000e+00	1.5128	-9.914310	0.000149	1.489169	0.504544	0.000066
  76	3.7500e+00	1.5144	-9.882130	0.000145	1.452399	0.492086	0.000064
  77	3.8000e+00	1.5320	-9.843025	0.000176	1.764941	0.597978	0.000078
  78	3.8500e+00	1.5609	-9.811660	0.000142	1.415630	0.479628	0.000063
  79	3.9000e+00	1.5738	-9.777036	0.000156	1.562708	0.529460	0.000069
  80	3.9500e+00	1.5866	-9.742004	0.000158	1.581093	0.535689	0.000070
  81	4.0000e+00	1.6123	-9.706973	0.000158	1.581093	0.535689	0.000070
  82	4.0500e+00	1.6427	-9.673164	0.000153	1.525939	0.517002	0.000068
  83	4.1000e+00	1.6652	-9.642206	0.000140	1.397245	0.473399	0.000062
  84	4.1500e+00	1.6925	-9.608396	0.000153	1.525939	0.517002	0.000068
  85	4.2000e+00	1.7037	-9.569699	0.000175	1.746556	0.591749	0.000077
  86	4.2500e+00	1.7133	-9.533038	0.000165	1.654632	0.560605	0.000073
  87	4.3000e+00	1.7342	-9.500043	0.000149	1.489169	0.504544	0.000066
  88	4.3500e+00	1.7614	-9.469492	0.000138	1.378860	0.467170	0.000061
  89	4.4000e+00	1.7743	-9.434461	0.000158	1.581093	0.535689	0.000070
  90	4.4500e+00	1.8016	-9.402281	0.000145	1.452399	0.492086	0.000064
  91	4.5000e+00	1.8192	-9.364398	0.000171	1.709787	0.579291	0.000076
  92	4.5500e+00	1.8417	-9.329774	0.000156	1.562708	0.529460	0.000069
  93	4.6000e+00	1.8657	-9.292706	0.000167	1.673017	0.566834	0.000074
  94	4.6500e+00	1.8850	-9.260118	0.000147	1.470784	0.498315	0.000065
  95	4.7000e+00	1.9010	-9.226716	0.000151	1.507554	0.510773	0.000067
  96	4.7500e+00	1.9283	-9.190463	0.000164	1.636247	0.554376	0.000073
  97	4.8000e+00	1.9315	-9.155839	0.000156	1.562708	0.529460	0.000069
  98	4.8500e+00	1.9748	-9.128954	0.000121	1.213397	0.411110	0.000054
  99	4.9000e+00	1.9973	-9.091478	0.000169	1.691402	0.573062	0.000075
 100	4.9500e+00	2.0149	-9.060113	0.000142	1.415630	0.479628	0.000063
 101	5.0000e+00	2.0069	-9.028340	-0.000143	-1.434015	-0.485857	0.000064
 102	5.0500e+00	2.0486	-8.994124	0.000154	1.544323	0.523231	0.000068
 103	5.1000e+00	2.0534	-8.963166	0.000140	1.397245	0.473399	0.000062
 104	5.1500e+00	2.0935	-8.930171	0.000149	1.489169	0.504544	0.000066
 105	5.2000e+00	2.0823	-8.901249	-0.000131	-1.305321	-0.442255	0.000058
 106	5.2500e+00	2.1224	-8.863774	0.000169	1.691402	0.573062	0.000075
 107	5.3000e+00	2.1433	-8.834853	0.000131	1.305321	0.442255	0.000058
 108	5.3500e+00	2.1769	-8.799821	0.000158	1.581093	0.535689	0.000070
 109	5.4000e+00	2.1753	-8.767641	-0.000145	-1.452399	-0.492086	0.000064
 110	5.4500e+00	2.2074	-8.736276	0.000142	1.415630	0.479628	0.000063
 111	5.5000e+00	2.2138	-8.702466	0.000153	1.525939	0.517002	0.000068
 112	5.5500e+00	2.2459	-8.670286	0.000145	1.452399	0.492086	0.000064
 113	5.6000e+00	2.2812	-8.631996	0.000173	1.728172	0.585520	0.000077
 114	5.6500e+00	2.2620	-8.602667	-0.000132	-1.323706	-0.448484	0.000059
 115	5.7000e+00	2.3101	-8.570895	0.000143	1.434015	0.485857	0.000064
 116	5.7500e+00	2.3213	-8.538307	0.000147	1.470784	0.498315	0.000065
 117	5.8000e+00	2.3598	-8.504905	0.000151	1.507554	0.510773	0.000067
 118	5.8500e+00	2.3646	-8.471910	0.000149	1.489169	0.504544	0.000066
 119	5.9000e+00	2.3887	-8.437286	0.000156	1.562708	0.529460	0.000069
 120	5.9500e+00	2.3999	-8.403069	0.000154	1.544323	0.523231	0.000068
 121	6.0000e+00	2.4192	-8.371297	0.000143	1.434015	0.485857	0.000064
 122	6.0500e+00	2.4481	-8.341968	0.000132	1.323706	0.448484	0.000059
 123	6.1000e+00	2.4817	-8.310195	0.000143	1.434015	0.485857	0.000064
 124	6.1500e+00	2.4946	-8.274349	0.000162	1.617863	0.548147	0.000072
 125	6.2000e+00	2.5315	-8.247465	0.000121	1.213397	0.411110	0.000054
 126	6.2500e+00	2.5090	-8.212841	-0.000156	-1.562708	-0.529460	0.000069
 127	6.3000e+00	2.5251	-8.179846	0.000149	1.489169	0.504544	0.000066
 128	6.3500e+00	2.5491	-8.148073	0.000143	1.434015	0.485857	0.000064
 129	6.4000e+00	2.5989	-8.115486	0.000147	1.470784	0.498315	0.000065
 130	6.4500e+00	2.6053	-8.081676	0.000153	1.525939	0.517002	0.000068
 131	6.5000e+00	2.6069	-8.051940	0.000134	1.342091	0.454713	0.000059
 132	6.5500e+00	2.6293	-8.019760	0.000145	1.452399	0.492086	0.000064
 133	6.6000e+00	2.6534	-7.989617	0.000136	1.360475	0.460942	0.000060
 134	6.6500e+00	2.6823	-7.955807	0.000153	1.525939	0.517002	0.000068
 135	6.7000e+00	2.6839	-7.924442	0.000142	1.415630	0.479628	0.000063
 136	6.7500e+00	2.7256	-7.893484	0.000140	1.397245	0.473399	0.000062
 137	6.8000e+00	2.7577	-7.860489	0.000149	1.489169	0.504544	0.000066
 138	6.8500e+00	2.7673	-7.826272	0.000154	1.544323	0.523231	0.000068
 139	6.9000e+00	2.7737	-7.797351	0.000131	1.305321	0.442255	0.000058
 140	6.9500e+00	2.7994	-7.765986	0.000142	1.415630	0.479628	0.000063
 141	7.0000e+00	2.8154	-7.731769	0.000154	1.544323	0.523231	0.000068
 142	7.0500e+00	2.8411	-7.707736	0.000108	1.084703	0.367507	0.000048
 143	7.1000e+00	2.8587	-7.671482	0.000164	1.636247	0.554376	0.000073
 144	7.1500e+00	2.8748	-7.638895	0.000147	1.470784	0.498315	0.000065
 145	7.2000e+00	2.8860	-7.602641	0.000164	1.636247	0.554376	0.000073
 146	7.2500e+00	2.9325	-7.574127	0.000129	1.286936	0.436026	0.000057
 147	7.3000e+00	2.9454	-7.541540	0.000147	1.470784	0.498315	0.000065
 148	7.3500e+00	2.9614	-7.513433	0.000127	1.268551	0.429797	0.000056
 149	7.4000e+00	2.9759	-7.483290	0.000136	1.360475	0.460942	0.000060
 150	7.4500e+00	2.9807	-7.446629	0.000165	1.654632	0.560605	0.000073
 151	7.5000e+00	3.0063	-7.422189	0.000110	1.103088	0.373736	0.000049
 152	7.5500e+00	3.0513	-7.389194	0.000149	1.489169	0.504544	0.000066
 153	7.6000e+00	3.0593	-7.357014	0.000145	1.452399	0.492086	0.000064
 154	7.6500e+00	3.0833	-7.328907	0.000127	1.268551	0.429797	0.000056
 155	7.7000e+00	3.1106	-7.295505	0.000151	1.507554	0.510773	0.000067
 156	7.7500e+00	3.1106	-7.263325	-0.000145	-1.452399	-0.492086	0.000064
 157	7.8000e+00	3.1587	-7.234404	0.000131	1.305321	0.442255	0.000058
 158	7.8500e+00	3.1652	-7.196928	0.000169	1.691402	0.573062	0.000075
 159	7.9000e+00	3.1748	-7.173302	0.000107	1.066319	0.361279	0.000047
 160	7.9500e+00	3.1924	-7.139493	0.000153	1.525939	0.517002	0.000068
 161	8.0000e+00	3.2373	-7.108535	0.000140	1.397245	0.473399	0.000062
 162	8.0500e+00	3.2438	-7.081650	0.000121	1.213397	0.411110	0.000054
 163	8.1000e+00	3.2774	-7.050285	0.000142	1.415630	0.479628	0.000063
 164	8.1500e+00	3.3031	-7.020142	0.000136	1.360475	0.460942	0.000060
 165	8.2000e+00	3.3047	-6.988369	0.000143	1.434015	0.485857	0.000064
 166	8.2500e+00	3.2983	-6.953745	-0.000156	-1.562708	-0.529460	0.000069
 167	8.3000e+00	3.3304	-6.926860	0.000121	1.213397	0.411110	0.000054
 168	8.3500e+00	3.3480	-6.899161	0.000125	1.250167	0.423568	0.000055
 169	8.4000e+00	3.3930	-6.867795	0.000142	1.415630	0.479628	0.000063
 170	8.4500e+00	3.3881	-6.836837	-0.000140	-1.397245	-0.473399	0.000062
 171	8.5000e+00	3.4122	-6.807916	0.000131	1.305321	0.442255	0.000058
 172	8.5500e+00	3.4234	-6.776143	0.000143	1.434015	0.485857	0.000064
 173	8.6000e+00	3.4555	-6.749259	0.000121	1.213397	0.411110	0.000054
 174	8.6500e+00	3.4860	-6.715449	0.000153	1.525939	0.517002	0.000068
 175	8.7000e+00	3.5197	-6.686528	0.000131	1.305321	0.442255	0.000058
 176	8.7500e+00	3.5309	-6.657199	0.000132	1.323706	0.448484	0.000059
 177	8.8000e+00	3.5389	-6.626241	0.000140	1.397245	0.473399	0.000062
 178	8.8500e+00	3.5486	-6.596913	0.000132	1.323706	0.448484	0.000059
 179	8.9000e+00	3.5742	-6.568806	0.000127	1.268551	0.429797	0.000056
 180	8.9500e+00	3.5887	-6.540292	0.000129	1.286936	0.436026	0.000057
 181	9.0000e+00	3.6224	-6.508112	0.000145	1.452399	0.492086	0.000064
 182	9.0500e+00	3.6384	-6.476747	0.000142	1.415630	0.479628	0.000063
 183	9.1000e+00	3.6673	-6.444159	0.000147	1.470784	0.498315	0.000065
 184	9.1500e+00	3.6881	-6.416053	0.000127	1.268551	0.429797	0.000056
 185	9.2000e+00	3.6962	-6.386724	0.000132	1.323706	0.448484	0.000059
 186	9.2500e+00	3.7218	-6.355358	0.000142	1.415630	0.479628	0.000063
 187	9.3000e+00	3.7475	-6.327252	0.000127	1.268551	0.429797	0.000056
 188	9.3500e+00	3.7587	-6.295479	0.000143	1.434015	0.485857	0.000064
 189	9.4000e+00	3.7844	-6.267372	0.000127	1.268551	0.429797	0.000056
 190	9.4500e+00	3.7908	-6.235600	0.000143	1.434015	0.485857	0.000064
 191	9.5000e+00	3.8373	-6.206271	0.000132	1.323706	0.448484	0.000059
 192	9.5500e+00	3.8277	-6.175313	-0.000140	-1.397245	-0.473399	0.000062
 193	9.6000e+00	3.8678	-6.148428	0.000121	1.213397	0.411110	0.000054
 194	9.6500e+00	3.8983	-6.115026	0.000151	1.507554	0.510773	0.000067
 195	9.7000e+00	3.8774	-6.089364	-0.000116	-1.158243	-0.392423	0.000051
 196	9.7500e+00	3.9256	-6.064923	0.000110	1.103088	0.373736	0.000049
 197	9.8000e+00	3.9320	-6.032336	0.000147	1.470784	0.498315	0.000065
 198	9.8500e+00	3.9432	-6.002192	0.000136	1.360475	0.460942	0.000060
 199	9.9000e+00	3.9913	-5.976123	0.000118	1.176627	0.398652	0.000052
 200	9.9500e+00	3.9961	-5.944757	0.000142	1.415630	0.479628	0.000063
 201	1.0000e+01	4.0138	-5.912984	0.000143	1.434015	0.485857	0.000064
 202	1.0050e+01	4.0491	-5.881619	0.000142	1.415630	0.479628	0.000063
 203	1.0100e+01	4.0683	-5.857993	0.000107	1.066319	0.361279	0.000047
 204	1.0150e+01	4.0764	-5.828257	0.000134	1.342091	0.454713	0.000059
 205	1.0200e+01	4.1084	-5.798114	0.000136	1.360475	0.460942	0.000060
 206	1.0250e+01	4.1133	-5.768378	0.000134	1.342091	0.454713	0.000059
 207	1.0300e+01	4.1245	-5.737827	0.000138	1.378860	0.467170	0.000061
 208	1.0350e+01	4.1630	-5.709721	0.000127	1.268551	0.429797	0.000056
 209	1.0400e+01	4.1806	-5.681614	0.000127	1.268551	0.429797	0.000056
 210	1.0450e+01	4.1903	-5.649434	0.000145	1.452399	0.492086	0.000064
 211	1.0500e+01	4.2191	-5.624993	0.000110	1.103088	0.373736	0.000049
 212	1.0550e+01	4.2272	-5.595257	0.000134	1.342091	0.454713	0.000059
 213	1.0600e+01	4.2576	-5.569595	0.000116	1.158243	0.392423	0.000051
 214	1.0650e+01	4.2913	-5.537007	0.000147	1.470784	0.498315	0.000065
 215	1.0700e+01	4.3154	-5.510937	0.000118	1.176627	0.398652	0.000052
 216	1.0750e+01	4.3314	-5.481201	0.000134	1.342091	0.454713	0.000059
 217	1.0800e+01	4.3475	-5.450243	0.000140	1.397245	0.473399	0.000062
 218	1.0850e+01	4.3651	-5.421322	0.000131	1.305321	0.442255	0.000058
 219	1.0900e+01	4.3715	-5.391586	0.000134	1.342091	0.454713	0.000059
 220	1.0950e+01	4.3940	-5.360628	0.000140	1.397245	0.473399	0.000062
 221	1.1000e+01	4.4084	-5.334965	0.000116	1.158243	0.392423	0.000051
 222	1.1050e+01	4.4421	-5.306859	0.000127	1.268551	0.429797	0.000056
 223	1.1100e+01	4.4357	-5.277937	-0.000131	-1.305321	-0.442255	0.000058
 224	1.1150e+01	4.4726	-5.246572	0.000142	1.415630	0.479628	0.000063
 225	1.1200e+01	4.4999	-5.221724	0.000112	1.121473	0.379965	0.000050
 226	1.1250e+01	4.5159	-5.195247	0.000120	1.195012	0.404881	0.000053
 227	1.1300e+01	4.5320	-5.163882	0.000142	1.415630	0.479628	0.000063
 228	1.1350e+01	4.5576	-5.136997	0.000121	1.213397	0.411110	0.000054
 229	1.1400e+01	4.5769	-5.107668	0.000132	1.323706	0.448484	0.000059
 230	1.1450e+01	4.6041	-5.079969	0.000125	1.250167	0.423568	0.000055
 231	1.1500e+01	4.6266	-5.056750	0.000105	1.047934	0.355050	0.000046
 232	1.1550e+01	4.6330	-5.024570	0.000145	1.452399	0.492086	0.000064
 233	1.1600e+01	4.6378	-4.997686	0.000121	1.213397	0.411110	0.000054
 234	1.1650e+01	4.6731	-4.968764	0.000131	1.305321	0.442255	0.000058
 235	1.1700e+01	4.6844	-4.941472	0.000123	1.231782	0.417339	0.000055
 236	1.1750e+01	4.7421	-4.914588	0.000121	1.213397	0.411110	0.000054
 237	1.1800e+01	4.7501	-4.890555	0.000108	1.084703	0.367507	0.000048
 238	1.1850e+01	4.7758	-4.861226	0.000132	1.323706	0.448484	0.000059
 239	1.1900e+01	4.7999	-4.834341	0.000121	1.213397	0.411110	0.000054
 240	1.1950e+01	4.7983	-4.802976	-0.000142	-1.415630	-0.479628	0.000063
 241	1.2000e+01	4.8063	-4.776499	0.000120	1.195012	0.404881	0.000053
 242	1.2050e+01	4.8287	-4.750429	0.000118	1.176627	0.398652	0.000052
 243	1.2100e+01	4.8801	-4.722730	0.000125	1.250167	0.423568	0.000055
 244	1.2150e+01	4.8913	-4.690549	0.000145	1.452399	0.492086	0.000064
 245	1.2200e+01	4.9186	-4.662443	0.000127	1.268551	0.429797	0.000056
 246	1.2250e+01	4.9202	-4.637595	0.000112	1.121473	0.379965	0.000050
 247	1.2300e+01	4.9266	-4.608266	0.000132	1.323706	0.448484	0.000059
 248	1.2350e+01	4.9795	-4.580974	0.000123	1.231782	0.417339	0.000055
 249	1.2400e+01	4.9731	-4.551238	-0.000134	-1.342091	-0.454713	0.000059
 250	1.2450e+01	5.0100	-4.521910	0.000132	1.323706	0.448484	0.000059
 251	1.2500e+01	5.0180	-4.495840	0.000118	1.176627	0.398652	0.000052
 252	1.2550e+01	5.0309	-4.467326	0.000129	1.286936	0.436026	0.000057
 253	1.2600e+01	5.0854	-4.437182	0.000136	1.360475	0.460942	0.000060
 254	1.2650e+01	5.0870	-4.407039	0.000136	1.360475	0.460942	0.000060
 255	1.2700e+01	5.1063	-4.382599	0.000110	1.103088	0.373736	0.000049
 256	1.2750e+01	5.1207	-4.353270	0.000132	1.323706	0.448484	0.000059
 257	1.2800e+01	5.1528	-4.330459	0.000103	1.029549	0.348821	0.000046
 258	1.2850e+01	5.1448	-4.302352	-0.000127	-1.268551	-0.429797	0.000056
 259	1.2900e+01	5.2025	-4.276689	0.000116	1.158243	0.392423	0.000051
 260	1.2950e+01	5.2122	-4.250620	0.000118	1.176627	0.398652	0.000052
 261	1.3000e+01	5.1945	-4.219661	-0.000140	-1.397245	-0.473399	0.000062
 262	1.3050e+01	5.2523	-4.194406	0.000114	1.139858	0.386194	0.000051
 263	1.3100e+01	5.2699	-4.166300	0.000127	1.268551	0.429797	0.000056
