»»»»»»»»»»»»»»»»»»»»»»»»»»»»»»»»»»»» Hysteresis ««««««««««««««««««««««««««««««««««««
»»»  Executed Version:	5.48.1
»»»  Vision Version:	5.48.4 (R)
»»»  Vision Compiled:	9/18/24
»»»  Driver Version:	5.47.0
»»»  Windows Version:	Windows 8 or 8.1
»»»  Processor Information:	x86 (AMD or Intel) - 32 Processors
»»»  Tester Name:	PMF21124-494 (100V)
»»»  Tester S/N:	PMF21124-494
»»»  Internal Amp Type:	100V RevK 270k
»»»  Internal Amp S/N:	iAB2-596/K     
»»»  Execution Count:	1
»»»»»»»»»»»»»»»»»»»»»»»»»»»»»»»»»»»»»»»»»»««««««««««««««««««««««««««««««««««««««««««

Stored:	10/8/2025 - 18:31:16
Configured:	10/08/25 04:22:59 PM
Executed:	10/08/25 06:30:20 PM

»»»»»»»»»»»»»»»»»»»»»»»»»»»»»»»»»»» Sample Info ««««««««««««««««««««««««««««««««««««
Sample Name:	Int. Ref. Ferroelectric
Lot Name:	N/A
Wafer Name:	N/A
Die Row/Column:	0/0
Capacitor Number:	0
Sample Area (cm2):	1.00e-04
Sample Thickness (microns):	3.00e-01

Amplifier:	Internal

»»»»»»»»»»»»»»»»»»»»»»»»»»»»»»»»»»» Tester Info «««««««««««««««««««««««««««««««««««
Tester Name:	PMF21124-494 (100V)
Tester Serial Number:	PMF21124-494
Return Signal Amp. Level:	0.02 [Index: 2]

»»»»»»»»»»»»»»»»»»»»»»»»»»»»»»»» Hysteresis Info ««««««««««««««««««««««««««««««««««
Task Name:	Hyste-8
Volts:	20.00
Field:	666.67 (kV/cm)
DCBias:	0.00
DCField:	0.00 (kV/cm)
Hysteresis Period (ms):	5.00e-01
Preset:	Enabled
Preset Delay (ms):	1.00e+03
Profile:	Standard Monopolar

»»»»»»»»»»»»»»»»»»»»»»»»»»»»»»»»»»»»»» Data «««««««««««««««««««««««««««««««««««««««
Points:	1001

Valid Data

Point	Time (ms)	Drive Voltage	Measured Polarization (uC/cm2)	Capacitance (uF)	Normalized Capacitance (uF/cm2)	Dielectric Constant	Instantaneous Current (mA)
   1	0.0000e+00	0.0433	-14.454205	0.000634	6.335099	2.146390	0.050972
   2	5.0000e-04	0.0513	-14.199345	0.000634	6.335099	2.146390	0.050972
   3	1.0000e-03	0.0963	-14.017302	0.000453	4.525071	1.533136	0.036409
   4	1.5000e-03	0.1684	-14.454205	-0.001086	-10.860170	-3.679525	-0.087381
   5	2.0000e-03	0.1893	-13.835259	0.001539	15.385241	5.212661	0.123789
   6	2.5000e-03	0.2278	-13.944485	-0.000272	-2.715043	-0.919881	-0.021845
   7	3.0000e-03	0.2567	-13.798851	0.000362	3.620057	1.226508	0.029127
   8	3.5000e-03	0.3016	-13.653216	0.000362	3.620057	1.226508	0.029127
   9	4.0000e-03	0.3545	-13.944485	-0.000724	-7.240113	-2.453017	-0.058254
  10	4.5000e-03	0.3930	-13.398356	0.001358	13.575213	4.599407	0.109226
  11	5.0000e-03	0.4155	-13.107088	0.000724	7.240113	2.453017	0.058254
  12	5.5000e-03	0.4668	-13.143496	-0.000091	-0.905014	-0.306627	-0.007282
  13	6.0000e-03	0.5085	-13.507582	-0.000905	-9.050142	-3.066271	-0.072817
  14	6.5000e-03	0.5599	-13.252722	0.000634	6.335099	2.146390	0.050972
  15	7.0000e-03	0.5888	-12.961453	0.000724	7.240113	2.453017	0.058254
  16	7.5000e-03	0.6385	-12.888636	0.000181	1.810028	0.613254	0.014563
  17	8.0000e-03	0.6834	-12.670185	0.000543	5.430085	1.839763	0.043690
  18	8.5000e-03	0.7155	-12.706593	-0.000091	-0.905014	-0.306627	-0.007282
  19	9.0000e-03	0.7412	-13.034271	-0.000815	-8.145128	-2.759644	-0.065535
  20	9.5000e-03	0.7797	-12.342508	0.001720	17.195269	5.825915	0.138353
  21	1.0000e-02	0.8342	-12.888636	-0.001358	-13.575213	-4.599407	-0.109226
  22	1.0500e-02	0.8631	-12.415325	0.001177	11.765184	3.986152	0.094662
  23	1.1000e-02	0.9080	-12.451733	-0.000091	-0.905014	-0.306627	-0.007282
  24	1.1500e-02	0.9529	-12.124056	0.000815	8.145128	2.759644	0.065535
  25	1.2000e-02	0.9898	-12.051239	0.000181	1.810028	0.613254	0.014563
  26	1.2500e-02	1.0331	-12.196873	-0.000362	-3.620057	-1.226508	-0.029127
  27	1.3000e-02	1.0684	-12.014830	0.000453	4.525071	1.533136	0.036409
  28	1.3500e-02	1.1117	-11.759970	0.000634	6.335099	2.146390	0.050972
  29	1.4000e-02	1.1358	-12.051239	-0.000724	-7.240113	-2.453017	-0.058254
  30	1.4500e-02	1.2080	-11.869196	0.000453	4.525071	1.533136	0.036409
  31	1.5000e-02	1.2337	-11.687153	0.000453	4.525071	1.533136	0.036409
  32	1.5500e-02	1.2818	-11.395885	0.000724	7.240113	2.453017	0.058254
  33	1.6000e-02	1.3042	-11.614336	-0.000543	-5.430085	-1.839763	-0.043690
  34	1.6500e-02	1.3267	-11.614336	0.000000	0.000000	0.000000	0.000000
  35	1.7000e-02	1.4021	-11.141025	0.001177	11.765184	3.986152	0.094662
  36	1.7500e-02	1.4550	-11.323067	-0.000453	-4.525071	-1.533136	-0.036409
  37	1.8000e-02	1.4695	-11.323067	0.000000	0.000000	0.000000	0.000000
  38	1.8500e-02	1.5320	-10.958982	0.000905	9.050142	3.066271	0.072817
  39	1.9000e-02	1.5433	-10.740530	0.000543	5.430085	1.839763	0.043690
  40	1.9500e-02	1.5994	-10.958982	-0.000543	-5.430085	-1.839763	-0.043690
  41	2.0000e-02	1.6459	-11.031799	-0.000181	-1.810028	-0.613254	-0.014563
  42	2.0500e-02	1.6812	-10.558487	0.001177	11.765184	3.986152	0.094662
  43	2.1000e-02	1.7213	-11.359476	-0.001991	-19.910312	-6.745796	-0.160198
  44	2.1500e-02	1.7518	-10.412853	0.002353	23.530369	7.972305	0.189325
  45	2.2000e-02	1.7743	-10.631304	-0.000543	-5.430085	-1.839763	-0.043690
  46	2.2500e-02	1.8080	-10.558487	0.000181	1.810028	0.613254	0.014563
  47	2.3000e-02	1.8641	-10.522079	0.000091	0.905014	0.306627	0.007282
  48	2.3500e-02	1.9187	-10.594896	-0.000181	-1.810028	-0.613254	-0.014563
  49	2.4000e-02	1.9588	-10.594896	0.000000	0.000000	0.000000	0.000000
  50	2.4500e-02	1.9892	-10.303627	0.000724	7.240113	2.453017	0.058254
  51	2.5000e-02	2.0197	-10.230810	0.000181	1.810028	0.613254	0.014563
  52	2.5500e-02	2.0839	-10.012359	0.000543	5.430085	1.839763	0.043690
  53	2.6000e-02	2.1176	-10.267219	-0.000634	-6.335099	-2.146390	-0.050972
  54	2.6500e-02	2.1336	-9.866724	0.000996	9.955156	3.372898	0.080099
  55	2.7000e-02	2.1834	-10.012359	-0.000362	-3.620057	-1.226508	-0.029127
  56	2.7500e-02	2.2459	-10.048767	-0.000091	-0.905014	-0.306627	-0.007282
  57	2.8000e-02	2.2892	-10.012359	0.000091	0.905014	0.306627	0.007282
  58	2.8500e-02	2.3326	-9.866724	0.000362	3.620057	1.226508	0.029127
  59	2.9000e-02	2.3438	-9.793907	0.000181	1.810028	0.613254	0.014563
  60	2.9500e-02	2.3855	-8.992919	0.001991	19.910312	6.745796	0.160198
  61	3.0000e-02	2.4063	-9.466230	-0.001177	-11.765184	-3.986152	-0.094662
  62	3.0500e-02	2.4513	-9.211370	0.000634	6.335099	2.146390	0.050972
  63	3.1000e-02	2.4994	-9.429821	-0.000543	-5.430085	-1.839763	-0.043690
  64	3.1500e-02	2.5427	-9.029327	0.000996	9.955156	3.372898	0.080099
  65	3.2000e-02	2.5973	-9.138553	-0.000272	-2.715043	-0.919881	-0.021845
  66	3.2500e-02	2.6358	-9.029327	0.000272	2.715043	0.919881	0.021845
  67	3.3000e-02	2.6775	-8.920101	0.000272	2.715043	0.919881	0.021845
  68	3.3500e-02	2.7095	-9.029327	-0.000272	-2.715043	-0.919881	-0.021845
  69	3.4000e-02	2.7497	-9.102144	-0.000181	-1.810028	-0.613254	-0.014563
  70	3.4500e-02	2.8090	-8.956510	0.000362	3.620057	1.226508	0.029127
  71	3.5000e-02	2.8283	-8.665241	0.000724	7.240113	2.453017	0.058254
  72	3.5500e-02	2.8684	-8.519607	0.000362	3.620057	1.226508	0.029127
  73	3.6000e-02	2.9293	-8.410381	0.000272	2.715043	0.919881	0.021845
  74	3.6500e-02	2.9646	-8.519607	-0.000272	-2.715043	-0.919881	-0.021845
  75	3.7000e-02	2.9887	-8.373973	0.000362	3.620057	1.226508	0.029127
  76	3.7500e-02	3.0416	-8.446790	-0.000181	-1.810028	-0.613254	-0.014563
  77	3.8000e-02	3.0625	-8.119113	0.000815	8.145128	2.759644	0.065535
  78	3.8500e-02	3.1250	-8.264747	-0.000362	-3.620057	-1.226508	-0.029127
  79	3.9000e-02	3.1491	-8.119113	0.000362	3.620057	1.226508	0.029127
  80	3.9500e-02	3.1908	-7.755027	0.000905	9.050142	3.066271	0.072817
  81	4.0000e-02	3.2373	-8.337564	-0.001448	-14.480227	-4.906034	-0.116507
  82	4.0500e-02	3.2518	-8.191930	0.000362	3.620057	1.226508	0.029127
  83	4.1000e-02	3.3127	-7.937070	0.000634	6.335099	2.146390	0.050972
  84	4.1500e-02	3.3593	-7.572984	0.000905	9.050142	3.066271	0.072817
  85	4.2000e-02	3.3930	-7.937070	-0.000905	-9.050142	-3.066271	-0.072817
  86	4.2500e-02	3.4266	-7.682210	0.000634	6.335099	2.146390	0.050972
  87	4.3000e-02	3.4587	-7.682210	0.000000	0.000000	0.000000	0.000000
  88	4.3500e-02	3.5036	-7.609393	0.000181	1.810028	0.613254	0.014563
  89	4.4000e-02	3.5470	-7.208898	0.000996	9.955156	3.372898	0.080099
  90	4.4500e-02	3.5919	-7.500167	-0.000724	-7.240113	-2.453017	-0.058254
  91	4.5000e-02	3.6240	-7.245307	0.000634	6.335099	2.146390	0.050972
  92	4.5500e-02	3.6689	-7.318124	-0.000181	-1.810028	-0.613254	-0.014563
  93	4.6000e-02	3.7186	-7.026855	0.000724	7.240113	2.453017	0.058254
  94	4.6500e-02	3.7347	-6.662770	0.000905	9.050142	3.066271	0.072817
  95	4.7000e-02	3.7892	-6.808404	-0.000362	-3.620057	-1.226508	-0.029127
  96	4.7500e-02	3.8405	-7.281715	-0.001177	-11.765184	-3.986152	-0.094662
  97	4.8000e-02	3.8710	-6.662770	0.001539	15.385241	5.212661	0.123789
  98	4.8500e-02	3.9063	-6.771995	-0.000272	-2.715043	-0.919881	-0.021845
  99	4.9000e-02	3.9560	-6.589952	0.000453	4.525071	1.533136	0.036409
 100	4.9500e-02	3.9801	-6.808404	-0.000543	-5.430085	-1.839763	-0.043690
 101	5.0000e-02	4.0459	-6.262275	0.001358	13.575213	4.599407	0.109226
 102	5.0500e-02	4.0667	-6.771995	-0.001267	-12.670198	-4.292779	-0.101944
 103	5.1000e-02	4.1181	-6.517135	0.000634	6.335099	2.146390	0.050972
 104	5.1500e-02	4.1550	-6.153050	0.000905	9.050142	3.066271	0.072817
 105	5.2000e-02	4.1983	-6.116641	0.000091	0.905014	0.306627	0.007282
 106	5.2500e-02	4.2239	-6.153050	-0.000091	-0.905014	-0.306627	-0.007282
 107	5.3000e-02	4.2977	-6.262275	-0.000272	-2.715043	-0.919881	-0.021845
 108	5.3500e-02	4.3090	-6.444318	-0.000453	-4.525071	-1.533136	-0.036409
 109	5.4000e-02	4.3635	-6.225867	0.000543	5.430085	1.839763	0.043690
 110	5.4500e-02	4.3972	-6.043824	0.000453	4.525071	1.533136	0.036409
 111	5.5000e-02	4.4389	-5.679738	0.000905	9.050142	3.066271	0.072817
 112	5.5500e-02	4.4758	-6.153050	-0.001177	-11.765184	-3.986152	-0.094662
 113	5.6000e-02	4.5063	-5.424878	0.001810	18.100283	6.132542	0.145634
 114	5.6500e-02	4.5448	-5.606921	-0.000453	-4.525071	-1.533136	-0.036409
 115	5.7000e-02	4.5785	-5.534104	0.000181	1.810028	0.613254	0.014563
 116	5.7500e-02	4.6250	-5.934598	-0.000996	-9.955156	-3.372898	-0.080099
 117	5.8000e-02	4.6812	-5.424878	0.001267	12.670198	4.292779	0.101944
 118	5.8500e-02	4.7036	-5.679738	-0.000634	-6.335099	-2.146390	-0.050972
 119	5.9000e-02	4.7437	-5.424878	0.000634	6.335099	2.146390	0.050972
 120	5.9500e-02	4.7742	-5.497695	-0.000181	-1.810028	-0.613254	-0.014563
 121	6.0000e-02	4.8207	-5.388469	0.000272	2.715043	0.919881	0.021845
 122	6.0500e-02	4.8608	-5.606921	-0.000543	-5.430085	-1.839763	-0.043690
 123	6.1000e-02	4.8913	-5.206427	0.000996	9.955156	3.372898	0.080099
 124	6.1500e-02	4.9539	-4.805932	0.000996	9.955156	3.372898	0.080099
 125	6.2000e-02	4.9956	-4.915158	-0.000272	-2.715043	-0.919881	-0.021845
 126	6.2500e-02	5.0293	-5.315652	-0.000996	-9.955156	-3.372898	-0.080099
 127	6.3000e-02	5.0710	-4.805932	0.001267	12.670198	4.292779	0.101944
 128	6.3500e-02	5.1095	-5.060792	-0.000634	-6.335099	-2.146390	-0.050972
 129	6.4000e-02	5.1769	-4.805932	0.000634	6.335099	2.146390	0.050972
 130	6.4500e-02	5.1881	-4.951566	-0.000362	-3.620057	-1.226508	-0.029127
 131	6.5000e-02	5.2282	-4.587481	0.000905	9.050142	3.066271	0.072817
 132	6.5500e-02	5.2651	-4.733115	-0.000362	-3.620057	-1.226508	-0.029127
 133	6.6000e-02	5.3212	-4.478255	0.000634	6.335099	2.146390	0.050972
 134	6.6500e-02	5.3597	-4.623889	-0.000362	-3.620057	-1.226508	-0.029127
 135	6.7000e-02	5.3982	-4.733115	-0.000272	-2.715043	-0.919881	-0.021845
 136	6.7500e-02	5.4560	-4.077761	0.001629	16.290255	5.519288	0.131071
 137	6.8000e-02	5.4656	-4.405438	-0.000815	-8.145128	-2.759644	-0.065535
 138	6.8500e-02	5.5218	-4.551072	-0.000362	-3.620057	-1.226508	-0.029127
 139	6.9000e-02	5.5474	-4.150578	0.000996	9.955156	3.372898	0.080099
 140	6.9500e-02	5.6036	-4.186986	-0.000091	-0.905014	-0.306627	-0.007282
 141	7.0000e-02	5.6325	-4.332621	-0.000362	-3.620057	-1.226508	-0.029127
 142	7.0500e-02	5.6758	-4.004943	0.000815	8.145128	2.759644	0.065535
 143	7.1000e-02	5.7014	-3.786492	0.000543	5.430085	1.839763	0.043690
 144	7.1500e-02	5.7512	-3.895718	-0.000272	-2.715043	-0.919881	-0.021845
 145	7.2000e-02	5.8009	-3.677266	0.000543	5.430085	1.839763	0.043690
 146	7.2500e-02	5.8587	-3.604449	0.000181	1.810028	0.613254	0.014563
 147	7.3000e-02	5.8651	-3.895718	-0.000724	-7.240113	-2.453017	-0.058254
 148	7.3500e-02	5.9276	-3.604449	0.000724	7.240113	2.453017	0.058254
 149	7.4000e-02	5.9581	-3.786492	-0.000453	-4.525071	-1.533136	-0.036409
 150	7.4500e-02	5.9838	-3.203955	0.001448	14.480227	4.906034	0.116507
 151	7.5000e-02	6.0544	-3.276772	-0.000181	-1.810028	-0.613254	-0.014563
 152	7.5500e-02	6.0849	-3.313181	-0.000091	-0.905014	-0.306627	-0.007282
 153	7.6000e-02	6.1153	-3.458815	-0.000362	-3.620057	-1.226508	-0.029127
 154	7.6500e-02	6.1586	-3.276772	0.000453	4.525071	1.533136	0.036409
 155	7.7000e-02	6.2004	-3.131138	0.000362	3.620057	1.226508	0.029127
 156	7.7500e-02	6.2340	-3.021912	0.000272	2.715043	0.919881	0.021845
 157	7.8000e-02	6.2758	-2.767052	0.000634	6.335099	2.146390	0.050972
 158	7.8500e-02	6.3143	-2.730643	0.000091	0.905014	0.306627	0.007282
 159	7.9000e-02	6.3640	-3.094729	-0.000905	-9.050142	-3.066271	-0.072817
 160	7.9500e-02	6.3865	-2.694235	0.000996	9.955156	3.372898	0.080099
 161	8.0000e-02	6.4169	-2.912686	-0.000543	-5.430085	-1.839763	-0.043690
 162	8.0500e-02	6.4859	-2.694235	0.000543	5.430085	1.839763	0.043690
 163	8.1000e-02	6.4827	-2.767052	0.000181	1.810028	0.613254	-0.014563
 164	8.1500e-02	6.5565	-2.548600	0.000543	5.430085	1.839763	0.043690
 165	8.2000e-02	6.6110	-2.439375	0.000272	2.715043	0.919881	0.021845
 166	8.2500e-02	6.6175	-2.548600	-0.000272	-2.715043	-0.919881	-0.021845
 167	8.3000e-02	6.6848	-2.548600	0.000000	0.000000	0.000000	0.000000
 168	8.3500e-02	6.7025	-2.257332	0.000724	7.240113	2.453017	0.058254
 169	8.4000e-02	6.7490	-2.475783	-0.000543	-5.430085	-1.839763	-0.043690
 170	8.4500e-02	6.7827	-2.366558	0.000272	2.715043	0.919881	0.021845
 171	8.5000e-02	6.8356	-2.184515	0.000453	4.525071	1.533136	0.036409
 172	8.5500e-02	6.8693	-2.402966	-0.000543	-5.430085	-1.839763	-0.043690
 173	8.6000e-02	6.9399	-2.293740	0.000272	2.715043	0.919881	0.021845
 174	8.6500e-02	6.9447	-2.257332	0.000091	0.905014	0.306627	0.007282
 175	8.7000e-02	6.9848	-1.784020	0.001177	11.765184	3.986152	0.094662
 176	8.7500e-02	7.0410	-1.820429	-0.000091	-0.905014	-0.306627	-0.007282
 177	8.8000e-02	7.0650	-1.893246	-0.000181	-1.810028	-0.613254	-0.014563
 178	8.8500e-02	7.0939	-1.456343	0.001086	10.860170	3.679525	0.087381
 179	8.9000e-02	7.1501	-1.820429	-0.000905	-9.050142	-3.066271	-0.072817
 180	8.9500e-02	7.1998	-1.674795	0.000362	3.620057	1.226508	0.029127
 181	9.0000e-02	7.2239	-1.601977	0.000181	1.810028	0.613254	0.014563
 182	9.0500e-02	7.2816	-1.711203	-0.000272	-2.715043	-0.919881	-0.021845
 183	9.1000e-02	7.3169	-1.492752	0.000543	5.430085	1.839763	0.043690
 184	9.1500e-02	7.3506	-1.347117	0.000362	3.620057	1.226508	0.029127
 185	9.2000e-02	7.3714	-1.529160	-0.000453	-4.525071	-1.533136	-0.036409
 186	9.2500e-02	7.4212	-1.237892	0.000724	7.240113	2.453017	0.058254
 187	9.3000e-02	7.4773	-1.201483	0.000091	0.905014	0.306627	0.007282
 188	9.3500e-02	7.5319	-1.055849	0.000362	3.620057	1.226508	0.029127
 189	9.4000e-02	7.5720	-1.165074	-0.000272	-2.715043	-0.919881	-0.021845
 190	9.4500e-02	7.5720	-1.055849	-0.000272	-2.715043	-0.919881	0.021845
 191	9.5000e-02	7.6297	-0.837397	0.000543	5.430085	1.839763	0.043690
 192	9.5500e-02	7.6779	-0.873806	-0.000091	-0.905014	-0.306627	-0.007282
 193	9.6000e-02	7.6923	-1.092257	-0.000543	-5.430085	-1.839763	-0.043690
 194	9.6500e-02	7.7757	-0.837397	0.000634	6.335099	2.146390	0.050972
 195	9.7000e-02	7.7886	-0.618946	0.000543	5.430085	1.839763	0.043690
 196	9.7500e-02	7.8190	-0.764580	-0.000362	-3.620057	-1.226508	-0.029127
 197	9.8000e-02	7.8768	-0.509720	0.000634	6.335099	2.146390	0.050972
 198	9.8500e-02	7.9057	-0.400494	0.000272	2.715043	0.919881	0.021845
 199	9.9000e-02	7.9634	-0.618946	-0.000543	-5.430085	-1.839763	-0.043690
 200	9.9500e-02	7.9778	-0.436903	0.000453	4.525071	1.533136	0.036409
 201	1.0000e-01	8.0404	-0.509720	-0.000181	-1.810028	-0.613254	-0.014563
 202	1.0050e-01	8.0805	-0.436903	0.000181	1.810028	0.613254	0.014563
 203	1.0100e-01	8.0934	-0.400494	0.000091	0.905014	0.306627	0.007282
 204	1.0150e-01	8.1639	-0.218451	0.000453	4.525071	1.533136	0.036409
 205	1.0200e-01	8.1944	-0.364086	-0.000362	-3.620057	-1.226508	-0.029127
 206	1.0250e-01	8.2249	-0.072817	0.000724	7.240113	2.453017	0.058254
 207	1.0300e-01	8.2827	-0.218451	-0.000362	-3.620057	-1.226508	-0.029127
 208	1.0350e-01	8.3003	-0.436903	-0.000543	-5.430085	-1.839763	-0.043690
 209	1.0400e-01	8.3581	-0.364086	0.000181	1.810028	0.613254	0.014563
 210	1.0450e-01	8.3837	-0.182043	0.000453	4.525071	1.533136	0.036409
 211	1.0500e-01	8.4399	0.182043	0.000905	9.050142	3.066271	0.072817
 212	1.0550e-01	8.4511	0.109226	-0.000181	-1.810028	-0.613254	-0.014563
 213	1.0600e-01	8.5024	0.145634	0.000091	0.905014	0.306627	0.007282
 214	1.0650e-01	8.5474	0.509720	0.000905	9.050142	3.066271	0.072817
 215	1.0700e-01	8.6051	0.400494	-0.000272	-2.715043	-0.919881	-0.021845
 216	1.0750e-01	8.6324	0.400494	0.000000	0.000000	0.000000	0.000000
 217	1.0800e-01	8.6773	-0.109226	-0.001267	-12.670198	-4.292779	-0.101944
 218	1.0850e-01	8.7350	0.436903	0.001358	13.575213	4.599407	0.109226
 219	1.0900e-01	8.7431	0.728172	0.000724	7.240113	2.453017	0.058254
 220	1.0950e-01	8.7944	0.436903	-0.000724	-7.240113	-2.453017	-0.058254
 221	1.1000e-01	8.8409	0.691763	0.000634	6.335099	2.146390	0.050972
 222	1.1050e-01	8.8778	0.618946	-0.000181	-1.810028	-0.613254	-0.014563
 223	1.1100e-01	8.9292	0.728172	0.000272	2.715043	0.919881	0.021845
 224	1.1150e-01	8.9628	0.983032	0.000634	6.335099	2.146390	0.050972
 225	1.1200e-01	8.9805	0.800989	-0.000453	-4.525071	-1.533136	-0.036409
 226	1.1250e-01	9.0382	0.873806	0.000181	1.810028	0.613254	0.014563
 227	1.1300e-01	9.0864	1.492752	0.001539	15.385241	5.212661	0.123789
 228	1.1350e-01	9.1185	1.019440	-0.001177	-11.765184	-3.986152	-0.094662
 229	1.1400e-01	9.1554	1.019440	0.000000	0.000000	0.000000	0.000000
 230	1.1450e-01	9.2083	1.019440	0.000000	0.000000	0.000000	0.000000
 231	1.1500e-01	9.2452	1.310709	0.000724	7.240113	2.453017	0.058254
 232	1.1550e-01	9.2693	1.310709	0.000000	0.000000	0.000000	0.000000
 233	1.1600e-01	9.3126	1.565569	0.000634	6.335099	2.146390	0.050972
 234	1.1650e-01	9.3495	1.383526	-0.000453	-4.525071	-1.533136	-0.036409
 235	1.1700e-01	9.4040	1.492752	0.000272	2.715043	0.919881	0.021845
 236	1.1750e-01	9.4425	1.419935	-0.000181	-1.810028	-0.613254	-0.014563
 237	1.1800e-01	9.4842	1.456343	0.000091	0.905014	0.306627	0.007282
 238	1.1850e-01	9.5195	1.674795	0.000543	5.430085	1.839763	0.043690
 239	1.1900e-01	9.5484	1.529160	-0.000362	-3.620057	-1.226508	-0.029127
 240	1.1950e-01	9.5821	1.893246	0.000905	9.050142	3.066271	0.072817
 241	1.2000e-01	9.6318	1.893246	0.000000	0.000000	0.000000	0.000000
 242	1.2050e-01	9.6735	1.711203	-0.000453	-4.525071	-1.533136	-0.036409
 243	1.2100e-01	9.7120	1.747612	0.000091	0.905014	0.306627	0.007282
 244	1.2150e-01	9.7634	1.747612	0.000000	0.000000	0.000000	0.000000
 245	1.2200e-01	9.8083	2.366558	0.001539	15.385241	5.212661	0.123789
 246	1.2250e-01	9.8291	2.002472	-0.000905	-9.050142	-3.066271	-0.072817
 247	1.2300e-01	9.8516	1.784020	-0.000543	-5.430085	-1.839763	-0.043690
 248	1.2350e-01	9.9222	2.293740	0.001267	12.670198	4.292779	0.101944
 249	1.2400e-01	9.9607	2.512192	0.000543	5.430085	1.839763	0.043690
 250	1.2450e-01	9.9751	2.657826	0.000362	3.620057	1.226508	0.029127
 251	1.2500e-01	10.0409	2.585009	-0.000181	-1.810028	-0.613254	-0.014563
 252	1.2550e-01	10.0762	2.402966	-0.000453	-4.525071	-1.533136	-0.036409
 253	1.2600e-01	10.1099	2.694235	0.000724	7.240113	2.453017	0.058254
 254	1.2650e-01	10.1404	2.366558	-0.000815	-8.145128	-2.759644	-0.065535
 255	1.2700e-01	10.1981	2.839869	0.001177	11.765184	3.986152	0.094662
 256	1.2750e-01	10.2350	2.548600	-0.000724	-7.240113	-2.453017	-0.058254
 257	1.2800e-01	10.2783	2.475783	-0.000181	-1.810028	-0.613254	-0.014563
 258	1.2850e-01	10.3264	2.803460	0.000815	8.145128	2.759644	0.065535
