»»»»»»»»»»»»»»»»»»»»»»»»»»»»»»»»»»»» Hysteresis ««««««««««««««««««««««««««««««««««««
»»»  Executed Version:	5.48.1
»»»  Vision Version:	5.48.4 (R)
»»»  Vision Compiled:	9/18/24
»»»  Driver Version:	5.47.0
»»»  Windows Version:	Windows 8 or 8.1
»»»  Processor Information:	x86 (AMD or Intel) - 32 Processors
»»»  Tester Name:	PMF21124-494 (100V)
»»»  Tester S/N:	PMF21124-494
»»»  Internal Amp Type:	100V RevK 270k
»»»  Internal Amp S/N:	iAB2-596/K     
»»»  Execution Count:	1
»»»»»»»»»»»»»»»»»»»»»»»»»»»»»»»»»»»»»»»»»»««««««««««««««««««««««««««««««««««««««««««

Stored:	10/8/2025 - 18:40:11
Configured:	10/08/25 04:22:59 PM
Executed:	10/08/25 06:39:30 PM

»»»»»»»»»»»»»»»»»»»»»»»»»»»»»»»»»»» Sample Info ««««««««««««««««««««««««««««««««««««
Sample Name:	Int. Ref. Ferroelectric
Lot Name:	N/A
Wafer Name:	N/A
Die Row/Column:	0/0
Capacitor Number:	0
Sample Area (cm2):	1.00e-04
Sample Thickness (microns):	3.00e-01

Amplifier:	Internal

»»»»»»»»»»»»»»»»»»»»»»»»»»»»»»»»»»» Tester Info «««««««««««««««««««««««««««««««««««
Tester Name:	PMF21124-494 (100V)
Tester Serial Number:	PMF21124-494
Return Signal Amp. Level:	0.02 [Index: 2]

»»»»»»»»»»»»»»»»»»»»»»»»»»»»»»»» Hysteresis Info ««««««««««««««««««««««««««««««««««
Task Name:	Hyste-8
Volts:	20.00
Field:	666.67 (kV/cm)
DCBias:	0.00
DCField:	0.00 (kV/cm)
Hysteresis Period (ms):	5.00e-01
Preset:	Enabled
Preset Delay (ms):	1.00e+03
Profile:	Standard Monopolar

»»»»»»»»»»»»»»»»»»»»»»»»»»»»»»»»»»»»»» Data «««««««««««««««««««««««««««««««««««««««
Points:	1001

Valid Data

Point	Time (ms)	Drive Voltage	Measured Polarization (uC/cm2)	Capacitance (uF)	Normalized Capacitance (uF/cm2)	Dielectric Constant	Instantaneous Current (mA)
   1	0.0000e+00	0.0481	-19.988309	0.000000	0.000000	0.000000	0.000000
   2	5.0000e-04	0.0882	-19.988309	0.000000	0.000000	0.000000	0.000000
   3	1.0000e-03	0.1235	-19.842674	0.000361	3.614107	1.224493	0.029127
   4	1.5000e-03	0.1652	-20.097534	-0.000632	-6.324687	-2.142862	-0.050972
   5	2.0000e-03	0.1989	-19.624223	0.001175	11.745848	3.979601	0.094662
   6	2.5000e-03	0.2374	-19.733449	-0.000271	-2.710580	-0.918369	-0.021845
   7	3.0000e-03	0.2759	-19.442180	0.000723	7.228214	2.448985	0.058254
   8	3.5000e-03	0.2984	-19.551406	-0.000271	-2.710580	-0.918369	-0.021845
   9	4.0000e-03	0.3658	-19.260137	0.000723	7.228214	2.448985	0.058254
  10	4.5000e-03	0.3930	-19.624223	-0.000904	-9.035267	-3.061231	-0.072817
  11	5.0000e-03	0.4380	-19.005277	0.001536	15.359955	5.204093	0.123789
  12	5.5000e-03	0.4973	-19.223729	-0.000542	-5.421160	-1.836739	-0.043690
  13	6.0000e-03	0.5214	-18.896051	0.000813	8.131741	2.755108	0.065535
  14	6.5000e-03	0.5663	-18.714009	0.000452	4.517634	1.530616	0.036409
  15	7.0000e-03	0.6064	-18.677600	0.000090	0.903527	0.306123	0.007282
  16	7.5000e-03	0.6337	-18.641191	0.000090	0.903527	0.306123	0.007282
  17	8.0000e-03	0.6866	-18.422740	0.000542	5.421160	1.836739	0.043690
  18	8.5000e-03	0.7412	-18.568374	-0.000361	-3.614107	-1.224493	-0.029127
  19	9.0000e-03	0.7299	-18.386331	-0.000452	-4.517634	-1.530616	0.036409
  20	9.5000e-03	0.7829	-18.422740	-0.000090	-0.903527	-0.306123	-0.007282
  21	1.0000e-02	0.8390	-18.531966	-0.000271	-2.710580	-0.918369	-0.021845
  22	1.0500e-02	0.8695	-17.949428	0.001446	14.456428	4.897970	0.116507
  23	1.1000e-02	0.9240	-17.985837	-0.000090	-0.903527	-0.306123	-0.007282
  24	1.1500e-02	0.9641	-17.658160	0.000813	8.131741	2.755108	0.065535
  25	1.2000e-02	1.0059	-18.240697	-0.001446	-14.456428	-4.897970	-0.116507
  26	1.2500e-02	1.0315	-17.294074	0.002349	23.491695	7.959202	0.189325
  27	1.3000e-02	1.0700	-17.585343	-0.000723	-7.228214	-2.448985	-0.058254
  28	1.3500e-02	1.1358	-17.330483	0.000632	6.324687	2.142862	0.050972
  29	1.4000e-02	1.1743	-17.294074	0.000090	0.903527	0.306123	0.007282
  30	1.4500e-02	1.2096	-17.548934	-0.000632	-6.324687	-2.142862	-0.050972
  31	1.5000e-02	1.2545	-17.148440	0.000994	9.938794	3.367355	0.080099
  32	1.5500e-02	1.2834	-17.075623	0.000181	1.807053	0.612246	0.014563
  33	1.6000e-02	1.3058	-16.675128	0.000994	9.938794	3.367355	0.080099
  34	1.6500e-02	1.3620	-17.075623	-0.000994	-9.938794	-3.367355	-0.080099
  35	1.7000e-02	1.3941	-16.602311	0.001175	11.745848	3.979601	0.094662
  36	1.7500e-02	1.4262	-16.747945	-0.000361	-3.614107	-1.224493	-0.029127
  37	1.8000e-02	1.4903	-16.529494	0.000542	5.421160	1.836739	0.043690
  38	1.8500e-02	1.5369	-16.274634	0.000632	6.324687	2.142862	0.050972
  39	1.9000e-02	1.5609	-16.347451	-0.000181	-1.807053	-0.612246	-0.014563
  40	1.9500e-02	1.6058	-16.165408	0.000452	4.517634	1.530616	0.036409
  41	2.0000e-02	1.6347	-15.874140	0.000723	7.228214	2.448985	0.058254
  42	2.0500e-02	1.6540	-16.129000	-0.000632	-6.324687	-2.142862	-0.050972
  43	2.1000e-02	1.7246	-15.874140	0.000632	6.324687	2.142862	0.050972
  44	2.1500e-02	1.7374	-15.546462	0.000813	8.131741	2.755108	0.065535
  45	2.2000e-02	1.7935	-15.874140	-0.000813	-8.131741	-2.755108	-0.065535
  46	2.2500e-02	1.8048	-15.655688	0.000542	5.421160	1.836739	0.043690
  47	2.3000e-02	1.8786	-15.764914	-0.000271	-2.710580	-0.918369	-0.021845
  48	2.3500e-02	1.9411	-15.510054	0.000632	6.324687	2.142862	0.050972
  49	2.4000e-02	1.9588	-15.400828	0.000271	2.710580	0.918369	0.021845
  50	2.4500e-02	2.0261	-15.473645	-0.000181	-1.807053	-0.612246	-0.014563
  51	2.5000e-02	2.0663	-15.073151	0.000994	9.938794	3.367355	0.080099
  52	2.5500e-02	2.0598	-15.109559	0.000090	0.903527	0.306123	-0.007282
  53	2.6000e-02	2.1048	-15.036742	0.000181	1.807053	0.612246	0.014563
  54	2.6500e-02	2.1384	-14.672657	0.000904	9.035267	3.061231	0.072817
  55	2.7000e-02	2.1930	-14.854699	-0.000452	-4.517634	-1.530616	-0.036409
  56	2.7500e-02	2.2572	-14.636248	0.000542	5.421160	1.836739	0.043690
  57	2.8000e-02	2.2973	-14.454205	0.000452	4.517634	1.530616	0.036409
  58	2.8500e-02	2.3229	-14.381388	0.000181	1.807053	0.612246	0.014563
  59	2.9000e-02	2.3454	-14.162936	0.000542	5.421160	1.836739	0.043690
  60	2.9500e-02	2.4031	-14.636248	-0.001175	-11.745848	-3.979601	-0.094662
  61	3.0000e-02	2.4240	-13.908076	0.001807	18.070535	6.122463	0.145634
  62	3.0500e-02	2.4753	-14.235754	-0.000813	-8.131741	-2.755108	-0.065535
  63	3.1000e-02	2.4978	-13.835259	0.000994	9.938794	3.367355	0.080099
  64	3.1500e-02	2.5604	-13.798851	0.000090	0.903527	0.306123	0.007282
  65	3.2000e-02	2.5924	-13.944485	-0.000361	-3.614107	-1.224493	-0.029127
  66	3.2500e-02	2.6566	-13.580399	0.000904	9.035267	3.061231	0.072817
  67	3.3000e-02	2.6871	-13.616808	-0.000090	-0.903527	-0.306123	-0.007282
  68	3.3500e-02	2.7304	-13.507582	0.000271	2.710580	0.918369	0.021845
  69	3.4000e-02	2.7609	-13.543991	-0.000090	-0.903527	-0.306123	-0.007282
  70	3.4500e-02	2.7946	-13.034271	0.001265	12.649374	4.285724	0.101944
  71	3.5000e-02	2.8315	-13.179905	-0.000361	-3.614107	-1.224493	-0.029127
  72	3.5500e-02	2.8555	-13.070679	0.000271	2.710580	0.918369	0.021845
  73	3.6000e-02	2.9261	-12.852228	0.000542	5.421160	1.836739	0.043690
  74	3.6500e-02	2.9694	-12.743002	0.000271	2.710580	0.918369	0.021845
  75	3.7000e-02	2.9935	-12.815819	-0.000181	-1.807053	-0.612246	-0.014563
  76	3.7500e-02	3.0272	-12.633776	0.000452	4.517634	1.530616	0.036409
  77	3.8000e-02	3.0946	-12.815819	-0.000452	-4.517634	-1.530616	-0.036409
  78	3.8500e-02	3.1250	-12.524550	0.000723	7.228214	2.448985	0.058254
  79	3.9000e-02	3.1619	-12.560959	-0.000090	-0.903527	-0.306123	-0.007282
  80	3.9500e-02	3.2101	-12.415325	0.000361	3.614107	1.224493	0.029127
  81	4.0000e-02	3.2662	-12.269690	0.000361	3.614107	1.224493	0.029127
  82	4.0500e-02	3.2630	-12.415325	0.000361	3.614107	1.224493	-0.029127
  83	4.1000e-02	3.3240	-11.650745	0.001897	18.974061	6.428586	0.152916
  84	4.1500e-02	3.3496	-11.832788	-0.000452	-4.517634	-1.530616	-0.036409
  85	4.2000e-02	3.4090	-11.687153	0.000361	3.614107	1.224493	0.029127
  86	4.2500e-02	3.4619	-12.051239	-0.000904	-9.035267	-3.061231	-0.072817
  87	4.3000e-02	3.4860	-11.687153	0.000904	9.035267	3.061231	0.072817
  88	4.3500e-02	3.5197	-11.323067	0.000904	9.035267	3.061231	0.072817
  89	4.4000e-02	3.5486	-11.213842	0.000271	2.710580	0.918369	0.021845
  90	4.4500e-02	3.6079	-11.577927	-0.000904	-9.035267	-3.061231	-0.072817
  91	4.5000e-02	3.6272	-11.359476	0.000542	5.421160	1.836739	0.043690
  92	4.5500e-02	3.6817	-11.177433	0.000452	4.517634	1.530616	0.036409
  93	4.6000e-02	3.7379	-11.286659	-0.000271	-2.710580	-0.918369	-0.021845
  94	4.6500e-02	3.7683	-10.958982	0.000813	8.131741	2.755108	0.065535
  95	4.7000e-02	3.8197	-11.104616	-0.000361	-3.614107	-1.224493	-0.029127
  96	4.7500e-02	3.8502	-10.740530	0.000904	9.035267	3.061231	0.072817
  97	4.8000e-02	3.8710	-10.849756	-0.000271	-2.710580	-0.918369	-0.021845
  98	4.8500e-02	3.9015	-10.886165	-0.000090	-0.903527	-0.306123	-0.007282
  99	4.9000e-02	3.9641	-10.558487	0.000813	8.131741	2.755108	0.065535
 100	4.9500e-02	3.9849	-10.667713	-0.000271	-2.710580	-0.918369	-0.021845
 101	5.0000e-02	4.0379	-10.194402	0.001175	11.745848	3.979601	0.094662
 102	5.0500e-02	4.0731	-10.522079	-0.000813	-8.131741	-2.755108	-0.065535
 103	5.1000e-02	4.1068	-10.267219	0.000632	6.324687	2.142862	0.050972
 104	5.1500e-02	4.1694	-10.012359	0.000632	6.324687	2.142862	0.050972
 105	5.2000e-02	4.2191	-9.721090	0.000723	7.228214	2.448985	0.058254
 106	5.2500e-02	4.2239	-9.939542	-0.000542	-5.421160	-1.836739	-0.043690
 107	5.3000e-02	4.2849	-9.648273	0.000723	7.228214	2.448985	0.058254
 108	5.3500e-02	4.2977	-9.866724	-0.000542	-5.421160	-1.836739	-0.043690
 109	5.4000e-02	4.3427	-9.393413	0.001175	11.745848	3.979601	0.094662
 110	5.4500e-02	4.4277	-9.611864	-0.000542	-5.421160	-1.836739	-0.043690
 111	5.5000e-02	4.4341	-9.684681	-0.000181	-1.807053	-0.612246	-0.014563
 112	5.5500e-02	4.4742	-9.393413	0.000723	7.228214	2.448985	0.058254
 113	5.6000e-02	4.5127	-9.138553	0.000632	6.324687	2.142862	0.050972
 114	5.6500e-02	4.5512	-9.502639	-0.000904	-9.035267	-3.061231	-0.072817
 115	5.7000e-02	4.6009	-9.029327	0.001175	11.745848	3.979601	0.094662
 116	5.7500e-02	4.6330	-9.138553	-0.000271	-2.710580	-0.918369	-0.021845
 117	5.8000e-02	4.6651	-8.956510	0.000452	4.517634	1.530616	0.036409
 118	5.8500e-02	4.7453	-8.665241	0.000723	7.228214	2.448985	0.058254
 119	5.9000e-02	4.7485	-8.628833	0.000090	0.903527	0.306123	0.007282
 120	5.9500e-02	4.8143	-8.446790	0.000452	4.517634	1.530616	0.036409
 121	6.0000e-02	4.8624	-8.738058	-0.000723	-7.228214	-2.448985	-0.058254
 122	6.0500e-02	4.8656	-8.701650	0.000090	0.903527	0.306123	0.007282
 123	6.1000e-02	4.9378	-8.556016	0.000361	3.614107	1.224493	0.029127
 124	6.1500e-02	4.9603	-8.264747	0.000723	7.228214	2.448985	0.058254
 125	6.2000e-02	5.0036	-8.264747	0.000000	0.000000	0.000000	0.000000
 126	6.2500e-02	5.0309	-8.337564	-0.000181	-1.807053	-0.612246	-0.014563
 127	6.3000e-02	5.0678	-8.009887	0.000813	8.131741	2.755108	0.065535
 128	6.3500e-02	5.1191	-8.264747	-0.000632	-6.324687	-2.142862	-0.050972
 129	6.4000e-02	5.1592	-7.900661	0.000904	9.035267	3.061231	0.072817
 130	6.4500e-02	5.1961	-7.536575	0.000904	9.035267	3.061231	0.072817
 131	6.5000e-02	5.2298	-7.791435	-0.000632	-6.324687	-2.142862	-0.050972
 132	6.5500e-02	5.2859	-7.645801	0.000361	3.614107	1.224493	0.029127
 133	6.6000e-02	5.3228	-7.609393	0.000090	0.903527	0.306123	0.007282
 134	6.6500e-02	5.3662	-7.318124	0.000723	7.228214	2.448985	0.058254
 135	6.7000e-02	5.4063	-7.572984	-0.000632	-6.324687	-2.142862	-0.050972
 136	6.7500e-02	5.4656	-7.136081	0.001084	10.842321	3.673478	0.087381
 137	6.8000e-02	5.4833	-7.172490	-0.000090	-0.903527	-0.306123	-0.007282
 138	6.8500e-02	5.5089	-6.990447	0.000452	4.517634	1.530616	0.036409
 139	6.9000e-02	5.5603	-7.281715	-0.000723	-7.228214	-2.448985	-0.058254
 140	6.9500e-02	5.6020	-6.444318	0.002078	20.781115	7.040832	0.167479
 141	7.0000e-02	5.6405	-7.063264	-0.001536	-15.359955	-5.204093	-0.123789
 142	7.0500e-02	5.6742	-6.917630	0.000361	3.614107	1.224493	0.029127
 143	7.1000e-02	5.7175	-6.553544	0.000904	9.035267	3.061231	0.072817
 144	7.1500e-02	5.7688	-6.444318	0.000271	2.710580	0.918369	0.021845
 145	7.2000e-02	5.8041	-6.517135	-0.000181	-1.807053	-0.612246	-0.014563
 146	7.2500e-02	5.8458	-6.189458	0.000813	8.131741	2.755108	0.065535
 147	7.3000e-02	5.8923	-6.371501	-0.000452	-4.517634	-1.530616	-0.036409
 148	7.3500e-02	5.9084	-5.971007	0.000994	9.938794	3.367355	0.080099
 149	7.4000e-02	5.9421	-6.153050	-0.000452	-4.517634	-1.530616	-0.036409
 150	7.4500e-02	6.0143	-5.934598	0.000542	5.421160	1.836739	0.043690
 151	7.5000e-02	6.0239	-5.861781	0.000181	1.807053	0.612246	0.014563
 152	7.5500e-02	6.0784	-6.007415	-0.000361	-3.614107	-1.224493	-0.029127
 153	7.6000e-02	6.0993	-6.007415	0.000000	0.000000	0.000000	0.000000
 154	7.6500e-02	6.1683	-5.861781	0.000361	3.614107	1.224493	0.029127
 155	7.7000e-02	6.2036	-5.643329	0.000542	5.421160	1.836739	0.043690
 156	7.7500e-02	6.2276	-6.043824	-0.000994	-9.938794	-3.367355	-0.080099
 157	7.8000e-02	6.2581	-5.424878	0.001536	15.359955	5.204093	0.123789
 158	7.8500e-02	6.3255	-5.315652	0.000271	2.710580	0.918369	0.021845
 159	7.9000e-02	6.3496	-5.643329	-0.000813	-8.131741	-2.755108	-0.065535
 160	7.9500e-02	6.4009	-5.024384	0.001536	15.359955	5.204093	0.123789
 161	8.0000e-02	6.4474	-5.133609	-0.000271	-2.710580	-0.918369	-0.021845
 162	8.0500e-02	6.4795	-5.060792	0.000181	1.807053	0.612246	0.014563
 163	8.1000e-02	6.4731	-4.878749	-0.000452	-4.517634	-1.530616	0.036409
 164	8.1500e-02	6.5661	-4.733115	0.000361	3.614107	1.224493	0.029127
 165	8.2000e-02	6.5758	-5.024384	-0.000723	-7.228214	-2.448985	-0.058254
 166	8.2500e-02	6.6367	-4.587481	0.001084	10.842321	3.673478	0.087381
 167	8.3000e-02	6.6736	-4.587481	0.000000	0.000000	0.000000	0.000000
 168	8.3500e-02	6.7314	-4.186986	0.000994	9.938794	3.367355	0.080099
 169	8.4000e-02	6.7586	-4.478255	-0.000723	-7.228214	-2.448985	-0.058254
 170	8.4500e-02	6.7875	-4.405438	0.000181	1.807053	0.612246	0.014563
 171	8.5000e-02	6.8324	-4.114169	0.000723	7.228214	2.448985	0.058254
 172	8.5500e-02	6.8918	-4.041352	0.000181	1.807053	0.612246	0.014563
 173	8.6000e-02	6.9255	-4.077761	-0.000090	-0.903527	-0.306123	-0.007282
 174	8.6500e-02	6.9367	-4.223395	-0.000361	-3.614107	-1.224493	-0.029127
 175	8.7000e-02	6.9832	-4.077761	0.000361	3.614107	1.224493	0.029127
 176	8.7500e-02	7.0346	-3.640858	0.001084	10.842321	3.673478	0.087381
 177	8.8000e-02	7.0522	-3.786492	-0.000361	-3.614107	-1.224493	-0.029127
 178	8.8500e-02	7.1228	-3.677266	0.000271	2.710580	0.918369	0.021845
 179	8.9000e-02	7.1677	-3.458815	0.000542	5.421160	1.836739	0.043690
 180	8.9500e-02	7.2046	-3.568041	-0.000271	-2.710580	-0.918369	-0.021845
 181	9.0000e-02	7.2495	-3.313181	0.000632	6.324687	2.142862	0.050972
 182	9.0500e-02	7.2720	-3.240363	0.000181	1.807053	0.612246	0.014563
 183	9.1000e-02	7.3105	-2.985503	0.000632	6.324687	2.142862	0.050972
 184	9.1500e-02	7.3666	-3.240363	-0.000632	-6.324687	-2.142862	-0.050972
 185	9.2000e-02	7.3987	-3.167546	0.000181	1.807053	0.612246	0.014563
 186	9.2500e-02	7.4597	-2.694235	0.001175	11.745848	3.979601	0.094662
 187	9.3000e-02	7.4886	-3.313181	-0.001536	-15.359955	-5.204093	-0.123789
 188	9.3500e-02	7.5239	-2.657826	0.001626	16.263481	5.510217	0.131071
 189	9.4000e-02	7.5527	-2.912686	-0.000632	-6.324687	-2.142862	-0.050972
 190	9.4500e-02	7.5816	-2.439375	0.001175	11.745848	3.979601	0.094662
 191	9.5000e-02	7.6217	-2.585009	-0.000361	-3.614107	-1.224493	-0.029127
 192	9.5500e-02	7.6875	-2.148106	0.001084	10.842321	3.673478	0.087381
 193	9.6000e-02	7.7115	-2.439375	-0.000723	-7.228214	-2.448985	-0.058254
 194	9.6500e-02	7.7677	-2.475783	-0.000090	-0.903527	-0.306123	-0.007282
 195	9.7000e-02	7.8030	-2.293740	0.000452	4.517634	1.530616	0.036409
 196	9.7500e-02	7.8463	-2.002472	0.000723	7.228214	2.448985	0.058254
 197	9.8000e-02	7.8800	-2.002472	0.000000	0.000000	0.000000	0.000000
 198	9.8500e-02	7.8960	-1.966063	0.000090	0.903527	0.306123	0.007282
 199	9.9000e-02	7.9602	-1.929655	0.000090	0.903527	0.306123	0.007282
 200	9.9500e-02	8.0196	-1.601977	0.000813	8.131741	2.755108	0.065535
 201	1.0000e-01	8.0677	-1.893246	-0.000723	-7.228214	-2.448985	-0.058254
 202	1.0050e-01	8.0998	-1.784020	0.000271	2.710580	0.918369	0.021845
 203	1.0100e-01	8.1158	-1.601977	0.000452	4.517634	1.530616	0.036409
 204	1.0150e-01	8.1527	-1.492752	0.000271	2.710580	0.918369	0.021845
 205	1.0200e-01	8.2105	-1.201483	0.000723	7.228214	2.448985	0.058254
 206	1.0250e-01	8.2458	-1.347117	-0.000361	-3.614107	-1.224493	-0.029127
 207	1.0300e-01	8.2827	-1.419935	-0.000181	-1.807053	-0.612246	-0.014563
 208	1.0350e-01	8.3147	-0.983032	0.001084	10.842321	3.673478	0.087381
 209	1.0400e-01	8.3468	-1.310709	-0.000813	-8.131741	-2.755108	-0.065535
 210	1.0450e-01	8.3917	-0.910214	0.000994	9.938794	3.367355	0.080099
 211	1.0500e-01	8.4351	-0.910214	0.000000	0.000000	0.000000	0.000000
 212	1.0550e-01	8.4752	-0.582537	0.000813	8.131741	2.755108	0.065535
 213	1.0600e-01	8.5281	-0.800989	-0.000542	-5.421160	-1.836739	-0.043690
 214	1.0650e-01	8.5570	-0.582537	0.000542	5.421160	1.836739	0.043690
 215	1.0700e-01	8.6019	-0.473312	0.000271	2.710580	0.918369	0.021845
 216	1.0750e-01	8.6580	-0.400494	0.000181	1.807053	0.612246	0.014563
 217	1.0800e-01	8.6869	-0.473312	-0.000181	-1.807053	-0.612246	-0.014563
 218	1.0850e-01	8.7334	-0.254860	0.000542	5.421160	1.836739	0.043690
 219	1.0900e-01	8.7479	-0.473312	-0.000542	-5.421160	-1.836739	-0.043690
 220	1.0950e-01	8.7944	-0.109226	0.000904	9.035267	3.061231	0.072817
 221	1.1000e-01	8.8441	-0.072817	0.000090	0.903527	0.306123	0.007282
 222	1.1050e-01	8.8746	-0.072817	0.000000	0.000000	0.000000	0.000000
 223	1.1100e-01	8.9211	0.036409	0.000271	2.710580	0.918369	0.021845
 224	1.1150e-01	8.9628	0.072817	0.000090	0.903527	0.306123	0.007282
 225	1.1200e-01	8.9885	0.182043	0.000271	2.710580	0.918369	0.021845
 226	1.1250e-01	9.0206	0.291269	0.000271	2.710580	0.918369	0.021845
 227	1.1300e-01	9.0784	0.618946	0.000813	8.131741	2.755108	0.065535
 228	1.1350e-01	9.1538	0.473312	-0.000361	-3.614107	-1.224493	-0.029127
 229	1.1400e-01	9.1570	0.691763	0.000542	5.421160	1.836739	0.043690
 230	1.1450e-01	9.1923	0.618946	-0.000181	-1.807053	-0.612246	-0.014563
 231	1.1500e-01	9.2516	0.837397	0.000542	5.421160	1.836739	0.043690
 232	1.1550e-01	9.3029	0.764580	-0.000181	-1.807053	-0.612246	-0.014563
 233	1.1600e-01	9.3414	0.837397	0.000181	1.807053	0.612246	0.014563
 234	1.1650e-01	9.3751	0.837397	0.000000	0.000000	0.000000	0.000000
 235	1.1700e-01	9.4040	1.310709	0.001175	11.745848	3.979601	0.094662
 236	1.1750e-01	9.4297	1.165074	-0.000361	-3.614107	-1.224493	-0.029127
 237	1.1800e-01	9.4746	0.800989	-0.000904	-9.035267	-3.061231	-0.072817
 238	1.1850e-01	9.5163	1.419935	0.001536	15.359955	5.204093	0.123789
 239	1.1900e-01	9.5580	1.237892	-0.000452	-4.517634	-1.530616	-0.036409
 240	1.1950e-01	9.6094	1.529160	0.000723	7.228214	2.448985	0.058254
 241	1.2000e-01	9.6366	1.310709	-0.000542	-5.421160	-1.836739	-0.043690
 242	1.2050e-01	9.6896	1.638386	0.000813	8.131741	2.755108	0.065535
 243	1.2100e-01	9.7377	1.711203	0.000181	1.807053	0.612246	0.014563
 244	1.2150e-01	9.7425	1.565569	-0.000361	-3.614107	-1.224493	-0.029127
 245	1.2200e-01	9.8003	1.638386	0.000181	1.807053	0.612246	0.014563
 246	1.2250e-01	9.8275	1.929655	0.000723	7.228214	2.448985	0.058254
 247	1.2300e-01	9.8789	1.966063	0.000090	0.903527	0.306123	0.007282
 248	1.2350e-01	9.9061	2.184515	0.000542	5.421160	1.836739	0.043690
 249	1.2400e-01	9.9495	1.929655	-0.000632	-6.324687	-2.142862	-0.050972
 250	1.2450e-01	9.9703	2.475783	0.001355	13.552901	4.591847	0.109226
 251	1.2500e-01	10.0200	2.257332	-0.000542	-5.421160	-1.836739	-0.043690
 252	1.2550e-01	10.0730	2.184515	-0.000181	-1.807053	-0.612246	-0.014563
 253	1.2600e-01	10.1420	2.293740	0.000271	2.710580	0.918369	0.021845
 254	1.2650e-01	10.1692	2.912686	0.001536	15.359955	5.204093	0.123789
 255	1.2700e-01	10.2142	2.585009	-0.000813	-8.131741	-2.755108	-0.065535
 256	1.2750e-01	10.2398	2.548600	-0.000090	-0.903527	-0.306123	-0.007282
 257	1.2800e-01	10.2767	2.657826	0.000271	2.710580	0.918369	0.021845
 258	1.2850e-01	10.3393	3.422406	0.001897	18.974061	6.428586	0.152916
