»»»»»»»»»»»»»»»»»»»»»»»»»»»»»»»»»»»» Hysteresis ««««««««««««««««««««««««««««««««««««
»»»  Executed Version:	5.48.1
»»»  Vision Version:	5.48.4 (R)
»»»  Vision Compiled:	9/18/24
»»»  Driver Version:	5.47.0
»»»  Windows Version:	Windows 8 or 8.1
»»»  Processor Information:	x86 (AMD or Intel) - 32 Processors
»»»  Tester Name:	PMF21124-494 (100V)
»»»  Tester S/N:	PMF21124-494
»»»  Internal Amp Type:	100V RevK 270k
»»»  Internal Amp S/N:	iAB2-596/K     
»»»  Execution Count:	1
»»»»»»»»»»»»»»»»»»»»»»»»»»»»»»»»»»»»»»»»»»««««««««««««««««««««««««««««««««««««««««««

Stored:	10/8/2025 - 18:56:38
Configured:	10/08/25 04:22:59 PM
Executed:	10/08/25 06:56:12 PM

»»»»»»»»»»»»»»»»»»»»»»»»»»»»»»»»»»» Sample Info ««««««««««««««««««««««««««««««««««««
Sample Name:	Int. Ref. Ferroelectric
Lot Name:	N/A
Wafer Name:	N/A
Die Row/Column:	0/0
Capacitor Number:	0
Sample Area (cm2):	1.00e-04
Sample Thickness (microns):	3.00e-01

Amplifier:	Internal

»»»»»»»»»»»»»»»»»»»»»»»»»»»»»»»»»»» Tester Info «««««««««««««««««««««««««««««««««««
Tester Name:	PMF21124-494 (100V)
Tester Serial Number:	PMF21124-494
Return Signal Amp. Level:	1.9 [Index: 2]

»»»»»»»»»»»»»»»»»»»»»»»»»»»»»»»» Hysteresis Info ««««««««««««««««««««««««««««««««««
Task Name:	Hyste-8
Volts:	20.00
Field:	666.67 (kV/cm)
DCBias:	0.00
DCField:	0.00 (kV/cm)
Hysteresis Period (ms):	1.00e+02
Preset:	Enabled
Preset Delay (ms):	1.00e+03
Profile:	Standard Monopolar

»»»»»»»»»»»»»»»»»»»»»»»»»»»»»»»»»»»»»» Data «««««««««««««««««««««««««««««««««««««««
Points:	2001

Valid Data

Point	Time (ms)	Drive Voltage	Measured Polarization (uC/cm2)	Capacitance (uF)	Normalized Capacitance (uF/cm2)	Dielectric Constant	Instantaneous Current (mA)
   1	0.0000e+00	0.0176	-9.009806	0.000061	0.608098	0.206029	0.000028
   2	5.0000e-02	0.0225	-8.995957	0.000061	0.608098	0.206029	0.000028
   3	1.0000e-01	0.0449	-8.971516	0.000107	1.073113	0.363581	0.000049
   4	1.5000e-01	0.0802	-8.945853	0.000113	1.126769	0.381760	0.000051
   5	2.0000e-01	0.0914	-8.923042	0.000100	1.001573	0.339342	0.000046
   6	2.5000e-01	0.1203	-8.894121	0.000127	1.269851	0.430237	0.000058
   7	3.0000e-01	0.1267	-8.865607	0.000125	1.251966	0.424177	0.000057
   8	3.5000e-01	0.1700	-8.838315	0.000120	1.198310	0.405998	0.000055
   9	4.0000e-01	0.1765	-8.812245	0.000114	1.144654	0.387819	0.000052
  10	4.5000e-01	0.2166	-8.786583	0.000113	1.126769	0.381760	0.000051
  11	5.0000e-01	0.2021	-8.760920	-0.000113	-1.126769	-0.381760	0.000051
  12	5.5000e-01	0.2471	-8.731184	0.000131	1.305621	0.442356	0.000059
  13	6.0000e-01	0.2615	-8.700633	0.000134	1.341392	0.454476	0.000061
  14	6.5000e-01	0.2743	-8.673341	0.000120	1.198310	0.405998	0.000055
  15	7.0000e-01	0.2791	-8.644827	0.000125	1.251966	0.424177	0.000057
  16	7.5000e-01	0.3273	-8.619572	0.000111	1.108884	0.375700	0.000051
  17	8.0000e-01	0.3353	-8.587392	0.000141	1.412933	0.478715	0.000064
  18	8.5000e-01	0.3401	-8.564581	0.000100	1.001573	0.339342	0.000046
  19	9.0000e-01	0.3706	-8.537696	0.000118	1.180425	0.399939	0.000054
  20	9.5000e-01	0.3978	-8.508775	0.000127	1.269851	0.430237	0.000058
  21	1.0000e+00	0.4267	-8.482705	0.000114	1.144654	0.387819	0.000052
  22	1.0500e+00	0.4460	-8.457042	0.000113	1.126769	0.381760	0.000051
  23	1.1000e+00	0.4620	-8.428936	0.000123	1.234080	0.418118	0.000056
  24	1.1500e+00	0.4813	-8.404495	0.000107	1.073113	0.363581	0.000049
  25	1.2000e+00	0.5118	-8.376796	0.000122	1.216195	0.412058	0.000055
  26	1.2500e+00	0.5021	-8.348689	-0.000123	-1.234080	-0.418118	0.000056
  27	1.3000e+00	0.5374	-8.323434	0.000111	1.108884	0.375700	0.000051
  28	1.3500e+00	0.5695	-8.298179	0.000111	1.108884	0.375700	0.000051
  29	1.4000e+00	0.5759	-8.273738	0.000107	1.073113	0.363581	0.000049
  30	1.4500e+00	0.6016	-8.248890	0.000109	1.090999	0.369640	0.000050
  31	1.5000e+00	0.6433	-8.219969	0.000127	1.269851	0.430237	0.000058
  32	1.5500e+00	0.6305	-8.190640	-0.000129	-1.287736	-0.436297	0.000059
  33	1.6000e+00	0.6946	-8.164570	0.000114	1.144654	0.387819	0.000052
  34	1.6500e+00	0.6738	-8.138908	-0.000113	-1.126769	-0.381760	0.000051
  35	1.7000e+00	0.7107	-8.114875	0.000106	1.055228	0.357521	0.000048
  36	1.7500e+00	0.7235	-8.084324	0.000134	1.341392	0.454476	0.000061
  37	1.8000e+00	0.7299	-8.067216	0.000075	0.751179	0.254506	0.000034
  38	1.8500e+00	0.7508	-8.034628	0.000143	1.430818	0.484774	0.000065
  39	1.9000e+00	0.7973	-8.012224	0.000098	0.983687	0.333282	0.000045
  40	1.9500e+00	0.8037	-7.984118	0.000123	1.234080	0.418118	0.000056
  41	2.0000e+00	0.8438	-7.960084	0.000106	1.055228	0.357521	0.000048
  42	2.0500e+00	0.8278	-7.932793	-0.000120	-1.198310	-0.405998	0.000055
  43	2.1000e+00	0.8695	-7.911203	0.000095	0.947917	0.321163	0.000043
  44	2.1500e+00	0.8727	-7.880245	0.000136	1.359277	0.460536	0.000062
  45	2.2000e+00	0.8887	-7.852546	0.000122	1.216195	0.412058	0.000055
  46	2.2500e+00	0.9289	-7.835030	0.000077	0.769065	0.260566	0.000035
  47	2.3000e+00	0.9417	-7.807331	0.000122	1.216195	0.412058	0.000055
  48	2.3500e+00	0.9690	-7.778817	0.000125	1.251966	0.424177	0.000057
  49	2.4000e+00	0.9754	-7.756006	0.000100	1.001573	0.339342	0.000046
  50	2.4500e+00	0.9962	-7.729529	0.000116	1.162540	0.393879	0.000053
  51	2.5000e+00	1.0299	-7.709161	0.000089	0.894261	0.302984	0.000041
  52	2.5500e+00	1.0460	-7.682684	0.000116	1.162540	0.393879	0.000053
  53	2.6000e+00	1.0620	-7.656207	0.000116	1.162540	0.393879	0.000053
  54	2.6500e+00	1.0989	-7.632174	0.000106	1.055228	0.357521	0.000048
  55	2.7000e+00	1.0925	-7.606511	-0.000113	-1.126769	-0.381760	0.000051
  56	2.7500e+00	1.1182	-7.580849	0.000113	1.126769	0.381760	0.000051
  57	2.8000e+00	1.1534	-7.561296	0.000086	0.858491	0.290865	0.000039
  58	2.8500e+00	1.1631	-7.535634	0.000113	1.126769	0.381760	0.000051
  59	2.9000e+00	1.1855	-7.508342	0.000120	1.198310	0.405998	0.000055
  60	2.9500e+00	1.2096	-7.483901	0.000107	1.073113	0.363581	0.000049
  61	3.0000e+00	1.2144	-7.458646	0.000111	1.108884	0.375700	0.000051
  62	3.0500e+00	1.2433	-7.433798	0.000109	1.090999	0.369640	0.000050
  63	3.1000e+00	1.2641	-7.408950	0.000109	1.090999	0.369640	0.000050
  64	3.1500e+00	1.2657	-7.381251	0.000122	1.216195	0.412058	0.000055
  65	3.2000e+00	1.2946	-7.358847	0.000098	0.983687	0.333282	0.000045
  66	3.2500e+00	1.3235	-7.335221	0.000104	1.037343	0.351461	0.000047
  67	3.3000e+00	1.3235	-7.309966	-0.000111	-1.108884	-0.375700	0.000051
  68	3.3500e+00	1.3652	-7.288784	0.000093	0.930032	0.315103	0.000042
  69	3.4000e+00	1.4101	-7.261492	0.000120	1.198310	0.405998	0.000055
  70	3.4500e+00	1.4021	-7.235829	-0.000113	-1.126769	-0.381760	0.000051
  71	3.5000e+00	1.3909	-7.210982	-0.000109	-1.090999	-0.369640	0.000050
  72	3.5500e+00	1.4278	-7.190207	0.000091	0.912146	0.309044	0.000042
  73	3.6000e+00	1.4615	-7.163322	0.000118	1.180425	0.399939	0.000054
  74	3.6500e+00	1.4791	-7.143363	0.000088	0.876376	0.296924	0.000040
  75	3.7000e+00	1.5192	-7.116885	0.000116	1.162540	0.393879	0.000053
  76	3.7500e+00	1.5224	-7.095704	0.000093	0.930032	0.315103	0.000042
  77	3.8000e+00	1.5545	-7.065968	0.000131	1.305621	0.442356	0.000059
  78	3.8500e+00	1.5689	-7.046822	0.000084	0.840606	0.284805	0.000038
  79	3.9000e+00	1.5738	-7.024826	0.000097	0.965802	0.327223	0.000044
  80	3.9500e+00	1.5962	-6.999571	0.000111	1.108884	0.375700	0.000051
  81	4.0000e+00	1.6058	-6.973908	0.000113	1.126769	0.381760	0.000051
  82	4.0500e+00	1.6267	-6.950690	0.000102	1.019458	0.345402	0.000046
  83	4.1000e+00	1.6764	-6.932359	0.000080	0.804835	0.272686	0.000037
  84	4.1500e+00	1.6989	-6.905882	0.000116	1.162540	0.393879	0.000053
  85	4.2000e+00	1.6941	-6.880219	-0.000113	-1.126769	-0.381760	0.000051
  86	4.2500e+00	1.7262	-6.857001	0.000102	1.019458	0.345402	0.000046
  87	4.3000e+00	1.7390	-6.835819	0.000093	0.930032	0.315103	0.000042
  88	4.3500e+00	1.7566	-6.809342	0.000116	1.162540	0.393879	0.000053
  89	4.4000e+00	1.7711	-6.782050	0.000120	1.198310	0.405998	0.000055
  90	4.4500e+00	1.8096	-6.760053	0.000097	0.965802	0.327223	0.000044
  91	4.5000e+00	1.8096	-6.739279	-0.000091	-0.912146	-0.309044	0.000042
  92	4.5500e+00	1.8128	-6.716875	0.000098	0.983687	0.333282	0.000045
  93	4.6000e+00	1.8449	-6.693249	0.000104	1.037343	0.351461	0.000047
  94	4.6500e+00	1.8866	-6.672475	0.000091	0.912146	0.309044	0.000042
  95	4.7000e+00	1.8834	-6.644775	-0.000122	-1.216195	-0.412058	0.000055
  96	4.7500e+00	1.9203	-6.624408	0.000089	0.894261	0.302984	0.000041
  97	4.8000e+00	1.9556	-6.598746	0.000113	1.126769	0.381760	0.000051
  98	4.8500e+00	1.9524	-6.579601	-0.000084	-0.840606	-0.284805	0.000038
  99	4.9000e+00	1.9588	-6.558011	0.000095	0.947917	0.321163	0.000043
 100	4.9500e+00	2.0181	-6.536830	0.000093	0.930032	0.315103	0.000042
 101	5.0000e+00	2.0101	-6.512389	-0.000107	-1.073113	-0.363581	0.000049
 102	5.0500e+00	2.0133	-6.489171	0.000102	1.019458	0.345402	0.000046
 103	5.1000e+00	2.0743	-6.463915	0.000111	1.108884	0.375700	0.000051
 104	5.1500e+00	2.0823	-6.446400	0.000077	0.769065	0.260566	0.000035
 105	5.2000e+00	2.0983	-6.426440	0.000088	0.876376	0.296924	0.000040
 106	5.2500e+00	2.1176	-6.404036	0.000098	0.983687	0.333282	0.000045
 107	5.3000e+00	2.1465	-6.385298	0.000082	0.822720	0.278745	0.000037
 108	5.3500e+00	2.1673	-6.362487	0.000100	1.001573	0.339342	0.000046
 109	5.4000e+00	2.1850	-6.336417	0.000114	1.144654	0.387819	0.000052
 110	5.4500e+00	2.1914	-6.320531	0.000070	0.697524	0.236327	0.000032
 111	5.5000e+00	2.2235	-6.299349	0.000093	0.930032	0.315103	0.000042
 112	5.5500e+00	2.2491	-6.274501	0.000109	1.090999	0.369640	0.000050
 113	5.6000e+00	2.2652	-6.256171	0.000080	0.804835	0.272686	0.000037
 114	5.6500e+00	2.2620	-6.230508	-0.000113	-1.126769	-0.381760	0.000051
 115	5.7000e+00	2.3037	-6.209326	0.000093	0.930032	0.315103	0.000042
 116	5.7500e+00	2.3117	-6.194255	0.000066	0.661753	0.224208	0.000030
 117	5.8000e+00	2.3454	-6.168999	0.000111	1.108884	0.375700	0.000051
 118	5.8500e+00	2.3438	-6.144559	-0.000107	-1.073113	-0.363581	0.000049
 119	5.9000e+00	2.3791	-6.121340	0.000102	1.019458	0.345402	0.000046
 120	5.9500e+00	2.3983	-6.104639	0.000073	0.733294	0.248447	0.000033
 121	6.0000e+00	2.3967	-6.079791	-0.000109	-1.090999	-0.369640	0.000050
 122	6.0500e+00	2.4352	-6.059017	0.000091	0.912146	0.309044	0.000042
 123	6.1000e+00	2.4769	-6.036613	0.000098	0.983687	0.333282	0.000045
 124	6.1500e+00	2.4801	-6.014209	0.000098	0.983687	0.333282	0.000045
 125	6.2000e+00	2.4801	-5.993842	-0.000089	-0.894261	-0.302984	0.000041
 126	6.2500e+00	2.5283	-5.975104	0.000082	0.822720	0.278745	0.000037
 127	6.3000e+00	2.5219	-5.956366	-0.000082	-0.822720	-0.278745	0.000037
 128	6.3500e+00	2.5620	-5.933963	0.000098	0.983687	0.333282	0.000045
 129	6.4000e+00	2.5844	-5.908707	0.000111	1.108884	0.375700	0.000051
 130	6.4500e+00	2.6021	-5.890377	0.000080	0.804835	0.272686	0.000037
 131	6.5000e+00	2.6037	-5.870417	0.000088	0.876376	0.296924	0.000040
 132	6.5500e+00	2.6438	-5.849235	0.000093	0.930032	0.315103	0.000042
 133	6.6000e+00	2.6422	-5.831720	-0.000077	-0.769065	-0.260566	0.000035
 134	6.6500e+00	2.6727	-5.807279	0.000107	1.073113	0.363581	0.000049
 135	6.7000e+00	2.7031	-5.786912	0.000089	0.894261	0.302984	0.000041
 136	6.7500e+00	2.7079	-5.766952	0.000088	0.876376	0.296924	0.000040
 137	6.8000e+00	2.7336	-5.742104	0.000109	1.090999	0.369640	0.000050
 138	6.8500e+00	2.7673	-5.722959	0.000084	0.840606	0.284805	0.000038
 139	6.9000e+00	2.7898	-5.702999	0.000088	0.876376	0.296924	0.000040
 140	6.9500e+00	2.7978	-5.677337	0.000113	1.126769	0.381760	0.000051
 141	7.0000e+00	2.8267	-5.656155	0.000093	0.930032	0.315103	0.000042
 142	7.0500e+00	2.8507	-5.636195	0.000088	0.876376	0.296924	0.000040
 143	7.1000e+00	2.8652	-5.615013	0.000093	0.930032	0.315103	0.000042
 144	7.1500e+00	2.8828	-5.593424	0.000095	0.947917	0.321163	0.000043
 145	7.2000e+00	2.9101	-5.566947	0.000116	1.162540	0.393879	0.000053
 146	7.2500e+00	2.9293	-5.549431	0.000077	0.769065	0.260566	0.000035
 147	7.3000e+00	2.9662	-5.527842	0.000095	0.947917	0.321163	0.000043
 148	7.3500e+00	2.9518	-5.505438	-0.000098	-0.983687	-0.333282	0.000045
 149	7.4000e+00	2.9791	-5.482220	0.000102	1.019458	0.345402	0.000046
 150	7.4500e+00	3.0047	-5.461038	0.000093	0.930032	0.315103	0.000042
 151	7.5000e+00	3.0160	-5.441893	0.000084	0.840606	0.284805	0.000038
 152	7.5500e+00	3.0304	-5.421933	0.000088	0.876376	0.296924	0.000040
 153	7.6000e+00	3.0561	-5.401973	0.000088	0.876376	0.296924	0.000040
 154	7.6500e+00	3.0930	-5.381606	0.000089	0.894261	0.302984	0.000041
 155	7.7000e+00	3.1250	-5.360017	0.000095	0.947917	0.321163	0.000043
 156	7.7500e+00	3.1202	-5.338835	-0.000093	-0.930032	-0.315103	0.000042
 157	7.8000e+00	3.1331	-5.321319	0.000077	0.769065	0.260566	0.000035
 158	7.8500e+00	3.1555	-5.297286	0.000106	1.055228	0.357521	0.000048
 159	7.9000e+00	3.1876	-5.281400	0.000070	0.697524	0.236327	0.000032
 160	7.9500e+00	3.1956	-5.258589	0.000100	1.001573	0.339342	0.000046
 161	8.0000e+00	3.2502	-5.240666	0.000079	0.786950	0.266626	0.000036
 162	8.0500e+00	3.2229	-5.219891	-0.000091	-0.912146	-0.309044	0.000042
 163	8.1000e+00	3.2534	-5.197487	0.000098	0.983687	0.333282	0.000045
 164	8.1500e+00	3.2807	-5.179564	0.000079	0.786950	0.266626	0.000036
 165	8.2000e+00	3.2983	-5.160012	0.000086	0.858491	0.290865	0.000039
 166	8.2500e+00	3.3288	-5.136793	0.000102	1.019458	0.345402	0.000046
 167	8.3000e+00	3.3609	-5.117648	0.000084	0.840606	0.284805	0.000038
 168	8.3500e+00	3.3448	-5.100540	-0.000075	-0.751179	-0.254506	0.000034
 169	8.4000e+00	3.3769	-5.080580	0.000088	0.876376	0.296924	0.000040
 170	8.4500e+00	3.3897	-5.057769	0.000100	1.001573	0.339342	0.000046
 171	8.5000e+00	3.4331	-5.032921	0.000109	1.090999	0.369640	0.000050
 172	8.5500e+00	3.4282	-5.014998	-0.000079	-0.786950	-0.266626	0.000036
 173	8.6000e+00	3.4667	-4.996667	0.000080	0.804835	0.272686	0.000037
 174	8.6500e+00	3.4748	-4.974264	0.000098	0.983687	0.333282	0.000045
 175	8.7000e+00	3.5197	-4.953896	0.000089	0.894261	0.302984	0.000041
 176	8.7500e+00	3.5052	-4.931493	-0.000098	-0.983687	-0.333282	0.000045
 177	8.8000e+00	3.5389	-4.913570	0.000079	0.786950	0.266626	0.000036
 178	8.8500e+00	3.5454	-4.894017	0.000086	0.858491	0.290865	0.000039
 179	8.9000e+00	3.5774	-4.874872	0.000084	0.840606	0.284805	0.000038
 180	8.9500e+00	3.5919	-4.856949	0.000079	0.786950	0.266626	0.000036
 181	9.0000e+00	3.6191	-4.836582	0.000089	0.894261	0.302984	0.000041
 182	9.0500e+00	3.6352	-4.817029	0.000086	0.858491	0.290865	0.000039
 183	9.1000e+00	3.6881	-4.796662	0.000089	0.894261	0.302984	0.000041
 184	9.1500e+00	3.6817	-4.771000	-0.000113	-1.126769	-0.381760	0.000051
 185	9.2000e+00	3.7010	-4.752669	0.000080	0.804835	0.272686	0.000037
 186	9.2500e+00	3.7138	-4.735561	0.000075	0.751179	0.254506	0.000034
 187	9.3000e+00	3.7347	-4.713972	0.000095	0.947917	0.321163	0.000043
 188	9.3500e+00	3.7571	-4.692790	0.000093	0.930032	0.315103	0.000042
 189	9.4000e+00	3.7828	-4.670793	0.000097	0.965802	0.327223	0.000044
 190	9.4500e+00	3.7988	-4.649204	0.000095	0.947917	0.321163	0.000043
 191	9.5000e+00	3.8470	-4.630466	0.000082	0.822720	0.278745	0.000037
 192	9.5500e+00	3.8325	-4.604397	-0.000114	-1.144654	-0.387819	0.000052
 193	9.6000e+00	3.8774	-4.584029	0.000089	0.894261	0.302984	0.000041
 194	9.6500e+00	3.8758	-4.565699	-0.000080	-0.804835	-0.272686	0.000037
 195	9.7000e+00	3.8742	-4.540036	-0.000113	-1.126769	-0.381760	0.000051
 196	9.7500e+00	3.9256	-4.523743	0.000072	0.715409	0.242387	0.000033
 197	9.8000e+00	3.9416	-4.502968	0.000091	0.912146	0.309044	0.000042
 198	9.8500e+00	3.9689	-4.480564	0.000098	0.983687	0.333282	0.000045
 199	9.9000e+00	3.9849	-4.462641	0.000079	0.786950	0.266626	0.000036
 200	9.9500e+00	3.9865	-4.434942	0.000122	1.216195	0.412058	0.000055
 201	1.0000e+01	4.0234	-4.415797	0.000084	0.840606	0.284805	0.000038
 202	1.0050e+01	4.0411	-4.393800	0.000097	0.965802	0.327223	0.000044
 203	1.0100e+01	4.0619	-4.378321	0.000068	0.679638	0.230268	0.000031
 204	1.0150e+01	4.0699	-4.353066	0.000111	1.108884	0.375700	0.000051
 205	1.0200e+01	4.0972	-4.332699	0.000089	0.894261	0.302984	0.000041
 206	1.0250e+01	4.1036	-4.311517	0.000093	0.930032	0.315103	0.000042
 207	1.0300e+01	4.1566	-4.290335	0.000093	0.930032	0.315103	0.000042
 208	1.0350e+01	4.1710	-4.266302	0.000106	1.055228	0.357521	0.000048
 209	1.0400e+01	4.1774	-4.246750	0.000086	0.858491	0.290865	0.000039
 210	1.0450e+01	4.1870	-4.227197	0.000086	0.858491	0.290865	0.000039
 211	1.0500e+01	4.2191	-4.202757	0.000107	1.073113	0.363581	0.000049
 212	1.0550e+01	4.2304	-4.181982	0.000091	0.912146	0.309044	0.000042
 213	1.0600e+01	4.2480	-4.156320	0.000113	1.126769	0.381760	0.000051
 214	1.0650e+01	4.2849	-4.139619	0.000073	0.733294	0.248447	0.000033
 215	1.0700e+01	4.3009	-4.119659	0.000088	0.876376	0.296924	0.000040
 216	1.0750e+01	4.3090	-4.094811	0.000109	1.090999	0.369640	0.000050
 217	1.0800e+01	4.3250	-4.076073	0.000082	0.822720	0.278745	0.000037
 218	1.0850e+01	4.3507	-4.055299	0.000091	0.912146	0.309044	0.000042
 219	1.0900e+01	4.3844	-4.032488	0.000100	1.001573	0.339342	0.000046
 220	1.0950e+01	4.4165	-4.011306	0.000093	0.930032	0.315103	0.000042
 221	1.1000e+01	4.4165	-3.989309	-0.000097	-0.965802	-0.327223	0.000044
 222	1.1050e+01	4.4052	-3.971386	-0.000079	-0.786950	-0.266626	0.000036
 223	1.1100e+01	4.4726	-3.951019	0.000089	0.894261	0.302984	0.000041
 224	1.1150e+01	4.4806	-3.926579	0.000107	1.073113	0.363581	0.000049
 225	1.1200e+01	4.5047	-3.908248	0.000080	0.804835	0.272686	0.000037
 226	1.1250e+01	4.5143	-3.889103	0.000084	0.840606	0.284805	0.000038
 227	1.1300e+01	4.5416	-3.867107	0.000097	0.965802	0.327223	0.000044
 228	1.1350e+01	4.5496	-3.845110	0.000097	0.965802	0.327223	0.000044
 229	1.1400e+01	4.5689	-3.821891	0.000102	1.019458	0.345402	0.000046
 230	1.1450e+01	4.5865	-3.802746	0.000084	0.840606	0.284805	0.000038
 231	1.1500e+01	4.6314	-3.786045	0.000073	0.733294	0.248447	0.000033
 232	1.1550e+01	4.6410	-3.763234	0.000100	1.001573	0.339342	0.000046
 233	1.1600e+01	4.6475	-3.740830	0.000098	0.983687	0.333282	0.000045
 234	1.1650e+01	4.6683	-3.720871	0.000088	0.876376	0.296924	0.000040
 235	1.1700e+01	4.6844	-3.700096	0.000091	0.912146	0.309044	0.000042
 236	1.1750e+01	4.7148	-3.678914	0.000093	0.930032	0.315103	0.000042
 237	1.1800e+01	4.7598	-3.657325	0.000095	0.947917	0.321163	0.000043
 238	1.1850e+01	4.7582	-3.636958	-0.000089	-0.894261	-0.302984	0.000041
 239	1.1900e+01	4.7790	-3.614961	0.000097	0.965802	0.327223	0.000044
 240	1.1950e+01	4.7983	-3.595816	0.000084	0.840606	0.284805	0.000038
 241	1.2000e+01	4.8271	-3.572191	0.000104	1.037343	0.351461	0.000047
 242	1.2050e+01	4.8207	-3.552231	-0.000088	-0.876376	-0.296924	0.000040
 243	1.2100e+01	4.8705	-3.535530	0.000073	0.733294	0.248447	0.000033
 244	1.2150e+01	4.9106	-3.513533	0.000097	0.965802	0.327223	0.000044
 245	1.2200e+01	4.8977	-3.489907	-0.000104	-1.037343	-0.351461	0.000047
 246	1.2250e+01	4.9282	-3.467503	0.000098	0.983687	0.333282	0.000045
 247	1.2300e+01	4.9330	-3.449580	0.000079	0.786950	0.266626	0.000036
 248	1.2350e+01	4.9683	-3.425547	0.000106	1.055228	0.357521	0.000048
 249	1.2400e+01	4.9555	-3.406809	-0.000082	-0.822720	-0.278745	0.000037
 250	1.2450e+01	5.0004	-3.387664	0.000084	0.840606	0.284805	0.000038
 251	1.2500e+01	5.0116	-3.366483	0.000093	0.930032	0.315103	0.000042
 252	1.2550e+01	5.0565	-3.342449	0.000106	1.055228	0.357521	0.000048
 253	1.2600e+01	5.0581	-3.323304	0.000084	0.840606	0.284805	0.000038
 254	1.2650e+01	5.0790	-3.303344	0.000088	0.876376	0.296924	0.000040
 255	1.2700e+01	5.1111	-3.281755	0.000095	0.947917	0.321163	0.000043
 256	1.2750e+01	5.1416	-3.261388	0.000089	0.894261	0.302984	0.000041
 257	1.2800e+01	5.1287	-3.239799	-0.000095	-0.947917	-0.321163	0.000043
 258	1.2850e+01	5.1496	-3.226357	0.000059	0.590212	0.199969	0.000027
 259	1.2900e+01	5.1688	-3.201101	0.000111	1.108884	0.375700	0.000051
 260	1.2950e+01	5.2186	-3.183993	0.000075	0.751179	0.254506	0.000034
 261	1.3000e+01	5.2122	-3.157516	-0.000116	-1.162540	-0.393879	0.000053
 262	1.3050e+01	5.2410	-3.137963	0.000086	0.858491	0.290865	0.000039
 263	1.3100e+01	5.2667	-3.119226	0.000082	0.822720	0.278745	0.000037
