»»»»»»»»»»»»»»»»»»»»»»»»»»»»»»»»»»»» Hysteresis ««««««««««««««««««««««««««««««««««««
»»»  Executed Version:	5.48.1
»»»  Vision Version:	5.48.4 (R)
»»»  Vision Compiled:	9/18/24
»»»  Driver Version:	5.47.0
»»»  Windows Version:	Windows 8 or 8.1
»»»  Processor Information:	x86 (AMD or Intel) - 32 Processors
»»»  Tester Name:	PMF21124-494 (100V)
»»»  Tester S/N:	PMF21124-494
»»»  Internal Amp Type:	100V RevK 270k
»»»  Internal Amp S/N:	iAB2-596/K     
»»»  Execution Count:	1
»»»»»»»»»»»»»»»»»»»»»»»»»»»»»»»»»»»»»»»»»»««««««««««««««««««««««««««««««««««««««««««

Stored:	10/8/2025 - 18:56:4
Configured:	10/08/25 04:22:59 PM
Executed:	10/08/25 06:55:41 PM

»»»»»»»»»»»»»»»»»»»»»»»»»»»»»»»»»»» Sample Info ««««««««««««««««««««««««««««««««««««
Sample Name:	Int. Ref. Ferroelectric
Lot Name:	N/A
Wafer Name:	N/A
Die Row/Column:	0/0
Capacitor Number:	0
Sample Area (cm2):	1.00e-04
Sample Thickness (microns):	3.00e-01

Amplifier:	Internal

»»»»»»»»»»»»»»»»»»»»»»»»»»»»»»»»»»» Tester Info «««««««««««««««««««««««««««««««««««
Tester Name:	PMF21124-494 (100V)
Tester Serial Number:	PMF21124-494
Return Signal Amp. Level:	0.02 [Index: 2]

»»»»»»»»»»»»»»»»»»»»»»»»»»»»»»»» Hysteresis Info ««««««««««««««««««««««««««««««««««
Task Name:	Hyste-8
Volts:	20.00
Field:	666.67 (kV/cm)
DCBias:	0.00
DCField:	0.00 (kV/cm)
Hysteresis Period (ms):	5.00e-01
Preset:	Enabled
Preset Delay (ms):	1.00e+03
Profile:	Standard Monopolar

»»»»»»»»»»»»»»»»»»»»»»»»»»»»»»»»»»»»»» Data «««««««««««««««««««««««««««««««««««««««
Points:	1001

Valid Data

Point	Time (ms)	Drive Voltage	Measured Polarization (uC/cm2)	Capacitance (uF)	Normalized Capacitance (uF/cm2)	Dielectric Constant	Instantaneous Current (mA)
   1	0.0000e+00	0.0241	-8.774467	-0.000180	-1.800483	-0.610020	-0.014563
   2	5.0000e-04	0.0930	-8.847284	-0.000180	-1.800483	-0.610020	-0.014563
   3	1.0000e-03	0.1364	-9.029327	-0.000450	-4.501207	-1.525050	-0.036409
   4	1.5000e-03	0.1428	-8.701650	0.000810	8.102172	2.745090	0.065535
   5	2.0000e-03	0.2198	-9.102144	-0.000990	-9.902655	-3.355110	-0.080099
   6	2.5000e-03	0.2358	-8.701650	0.000990	9.902655	3.355110	0.080099
   7	3.0000e-03	0.2743	-8.592424	0.000270	2.700724	0.915030	0.021845
   8	3.5000e-03	0.3305	-8.592424	0.000000	0.000000	0.000000	0.000000
   9	4.0000e-03	0.3593	-8.847284	-0.000630	-6.301690	-2.135070	-0.050972
  10	4.5000e-03	0.4139	-8.410381	0.001080	10.802896	3.660120	0.087381
  11	5.0000e-03	0.4187	-8.373973	0.000090	0.900241	0.305010	0.007282
  12	5.5000e-03	0.4861	-8.556016	-0.000450	-4.501207	-1.525050	-0.036409
  13	6.0000e-03	0.5166	-8.628833	-0.000180	-1.800483	-0.610020	-0.014563
  14	6.5000e-03	0.5551	-8.519607	0.000270	2.700724	0.915030	0.021845
  15	7.0000e-03	0.5888	-8.410381	0.000270	2.700724	0.915030	0.021845
  16	7.5000e-03	0.6433	-8.446790	-0.000090	-0.900241	-0.305010	-0.007282
  17	8.0000e-03	0.6722	-7.827844	0.001530	15.304103	5.185171	0.123789
  18	8.5000e-03	0.7379	-7.791435	0.000090	0.900241	0.305010	0.007282
  19	9.0000e-03	0.7524	-7.937070	-0.000360	-3.600965	-1.220040	-0.029127
  20	9.5000e-03	0.8214	-8.155521	-0.000540	-5.401448	-1.830060	-0.043690
  21	1.0000e-02	0.8214	-7.755027	-0.000990	-9.902655	-3.355110	0.080099
  22	1.0500e-02	0.8791	-8.082704	-0.000810	-8.102172	-2.745090	-0.065535
  23	1.1000e-02	0.9240	-7.682210	0.000990	9.902655	3.355110	0.080099
  24	1.1500e-02	0.9561	-7.937070	-0.000630	-6.301690	-2.135070	-0.050972
  25	1.2000e-02	0.9946	-7.755027	0.000450	4.501207	1.525050	0.036409
  26	1.2500e-02	1.0379	-7.645801	0.000270	2.700724	0.915030	0.021845
  27	1.3000e-02	1.1005	-7.572984	0.000180	1.800483	0.610020	0.014563
  28	1.3500e-02	1.1182	-7.354533	0.000540	5.401448	1.830060	0.043690
  29	1.4000e-02	1.1422	-7.827844	-0.001170	-11.703138	-3.965130	-0.094662
  30	1.4500e-02	1.2080	-7.572984	0.000630	6.301690	2.135070	0.050972
  31	1.5000e-02	1.2337	-7.645801	-0.000180	-1.800483	-0.610020	-0.014563
  32	1.5500e-02	1.2818	-7.427350	0.000540	5.401448	1.830060	0.043690
  33	1.6000e-02	1.3203	-7.208898	0.000540	5.401448	1.830060	0.043690
  34	1.6500e-02	1.3492	-7.463758	-0.000630	-6.301690	-2.135070	-0.050972
  35	1.7000e-02	1.4085	-7.245307	0.000540	5.401448	1.830060	0.043690
  36	1.7500e-02	1.4278	-7.026855	0.000540	5.401448	1.830060	0.043690
  37	1.8000e-02	1.4743	-7.136081	-0.000270	-2.700724	-0.915030	-0.021845
  38	1.8500e-02	1.5160	-7.245307	-0.000270	-2.700724	-0.915030	-0.021845
  39	1.9000e-02	1.5705	-7.099673	0.000360	3.600965	1.220040	0.029127
  40	1.9500e-02	1.6026	-6.589952	0.001260	12.603379	4.270140	0.101944
  41	2.0000e-02	1.6363	-7.063264	-0.001170	-11.703138	-3.965130	-0.094662
  42	2.0500e-02	1.6973	-6.771995	0.000720	7.201931	2.440080	0.058254
  43	2.1000e-02	1.7213	-6.662770	0.000270	2.700724	0.915030	0.021845
  44	2.1500e-02	1.7663	-6.844812	-0.000450	-4.501207	-1.525050	-0.036409
  45	2.2000e-02	1.8096	-6.662770	0.000450	4.501207	1.525050	0.036409
  46	2.2500e-02	1.8288	-7.026855	-0.000900	-9.002414	-3.050100	-0.072817
  47	2.3000e-02	1.8898	-6.662770	0.000900	9.002414	3.050100	0.072817
  48	2.3500e-02	1.9106	-6.480727	0.000450	4.501207	1.525050	0.036409
  49	2.4000e-02	1.9620	-6.517135	-0.000090	-0.900241	-0.305010	-0.007282
  50	2.4500e-02	2.0021	-6.298684	0.000540	5.401448	1.830060	0.043690
  51	2.5000e-02	2.0326	-6.553544	-0.000630	-6.301690	-2.135070	-0.050972
  52	2.5500e-02	2.0775	-6.262275	0.000720	7.201931	2.440080	0.058254
  53	2.6000e-02	2.1272	-6.553544	-0.000720	-7.201931	-2.440080	-0.058254
  54	2.6500e-02	2.1497	-6.262275	0.000720	7.201931	2.440080	0.058254
  55	2.7000e-02	2.1930	-6.480727	-0.000540	-5.401448	-1.830060	-0.043690
  56	2.7500e-02	2.2427	-6.444318	0.000090	0.900241	0.305010	0.007282
  57	2.8000e-02	2.2844	-6.189458	0.000630	6.301690	2.135070	0.050972
  58	2.8500e-02	2.3310	-5.861781	0.000810	8.102172	2.745090	0.065535
  59	2.9000e-02	2.3598	-6.480727	-0.001530	-15.304103	-5.185171	-0.123789
  60	2.9500e-02	2.4031	-6.080232	0.000990	9.902655	3.355110	0.080099
  61	3.0000e-02	2.4513	-6.007415	0.000180	1.800483	0.610020	0.014563
  62	3.0500e-02	2.4866	-6.007415	0.000000	0.000000	0.000000	0.000000
  63	3.1000e-02	2.5202	-6.007415	0.000000	0.000000	0.000000	0.000000
  64	3.1500e-02	2.5700	-5.898189	0.000270	2.700724	0.915030	0.021845
  65	3.2000e-02	2.5956	-5.788964	0.000270	2.700724	0.915030	0.021845
  66	3.2500e-02	2.6358	-5.898189	-0.000270	-2.700724	-0.915030	-0.021845
  67	3.3000e-02	2.6807	-5.934598	-0.000090	-0.900241	-0.305010	-0.007282
  68	3.3500e-02	2.7128	-5.242835	0.001710	17.104586	5.795191	0.138353
  69	3.4000e-02	2.7593	-5.716147	-0.001170	-11.703138	-3.965130	-0.094662
  70	3.4500e-02	2.7930	-5.534104	0.000450	4.501207	1.525050	0.036409
  71	3.5000e-02	2.8475	-5.716147	-0.000450	-4.501207	-1.525050	-0.036409
  72	3.5500e-02	2.8748	-5.788964	-0.000180	-1.800483	-0.610020	-0.014563
  73	3.6000e-02	2.9165	-5.352061	0.001080	10.802896	3.660120	0.087381
  74	3.6500e-02	2.9614	-5.788964	-0.001080	-10.802896	-3.660120	-0.087381
  75	3.7000e-02	3.0063	-5.133609	0.001620	16.204345	5.490181	0.131071
  76	3.7500e-02	3.0625	-5.133609	0.000000	0.000000	0.000000	0.000000
  77	3.8000e-02	3.0769	-5.060792	0.000180	1.800483	0.610020	0.014563
  78	3.8500e-02	3.1299	-5.170018	-0.000270	-2.700724	-0.915030	-0.021845
  79	3.9000e-02	3.1507	-5.206427	-0.000090	-0.900241	-0.305010	-0.007282
  80	3.9500e-02	3.2085	-4.769524	0.001080	10.802896	3.660120	0.087381
  81	4.0000e-02	3.2406	-5.388469	-0.001530	-15.304103	-5.185171	-0.123789
  82	4.0500e-02	3.2742	-4.987975	0.000990	9.902655	3.355110	0.080099
  83	4.1000e-02	3.3336	-5.242835	-0.000630	-6.301690	-2.135070	-0.050972
  84	4.1500e-02	3.3625	-4.733115	0.001260	12.603379	4.270140	0.101944
  85	4.2000e-02	3.3946	-5.024384	-0.000720	-7.201931	-2.440080	-0.058254
  86	4.2500e-02	3.4315	-4.987975	0.000090	0.900241	0.305010	0.007282
  87	4.3000e-02	3.4988	-4.805932	0.000450	4.501207	1.525050	0.036409
  88	4.3500e-02	3.5004	-4.696706	0.000270	2.700724	0.915030	0.021845
  89	4.4000e-02	3.5790	-4.842341	-0.000360	-3.600965	-1.220040	-0.029127
  90	4.4500e-02	3.5983	-4.696706	0.000360	3.600965	1.220040	0.029127
  91	4.5000e-02	3.6512	-4.441846	0.000630	6.301690	2.135070	0.050972
  92	4.5500e-02	3.6897	-4.696706	-0.000630	-6.301690	-2.135070	-0.050972
  93	4.6000e-02	3.7459	-4.441846	0.000630	6.301690	2.135070	0.050972
  94	4.6500e-02	3.7651	-4.660298	-0.000540	-5.401448	-1.830060	-0.043690
  95	4.7000e-02	3.8052	-4.587481	0.000180	1.800483	0.610020	0.014563
  96	4.7500e-02	3.8437	-4.769524	-0.000450	-4.501207	-1.525050	-0.036409
  97	4.8000e-02	3.8967	-4.441846	0.000810	8.102172	2.745090	0.065535
  98	4.8500e-02	3.9336	-4.514664	-0.000180	-1.800483	-0.610020	-0.014563
  99	4.9000e-02	3.9753	-4.150578	0.000900	9.002414	3.050100	0.072817
 100	4.9500e-02	4.0170	-4.587481	-0.001080	-10.802896	-3.660120	-0.087381
 101	5.0000e-02	4.0571	-4.369029	0.000540	5.401448	1.830060	0.043690
 102	5.0500e-02	4.0860	-4.587481	-0.000540	-5.401448	-1.830060	-0.043690
 103	5.1000e-02	4.1485	-4.259804	0.000810	8.102172	2.745090	0.065535
 104	5.1500e-02	4.1678	-3.932126	0.000810	8.102172	2.745090	0.065535
 105	5.2000e-02	4.2207	-4.077761	-0.000360	-3.600965	-1.220040	-0.029127
 106	5.2500e-02	4.2288	-4.114169	-0.000090	-0.900241	-0.305010	-0.007282
 107	5.3000e-02	4.2881	-3.932126	0.000450	4.501207	1.525050	0.036409
 108	5.3500e-02	4.3298	-3.932126	0.000000	0.000000	0.000000	0.000000
 109	5.4000e-02	4.3619	-3.859309	0.000180	1.800483	0.610020	0.014563
 110	5.4500e-02	4.3988	-4.114169	-0.000630	-6.301690	-2.135070	-0.050972
 111	5.5000e-02	4.4405	-3.859309	0.000630	6.301690	2.135070	0.050972
 112	5.5500e-02	4.4806	-4.004943	-0.000360	-3.600965	-1.220040	-0.029127
 113	5.6000e-02	4.5336	-3.932126	0.000180	1.800483	0.610020	0.014563
 114	5.6500e-02	4.5753	-3.932126	0.000000	0.000000	0.000000	0.000000
 115	5.7000e-02	4.6138	-3.458815	0.001170	11.703138	3.965130	0.094662
 116	5.7500e-02	4.6475	-4.077761	-0.001530	-15.304103	-5.185171	-0.123789
 117	5.8000e-02	4.7052	-3.786492	0.000720	7.201931	2.440080	0.058254
 118	5.8500e-02	4.7068	-3.385998	0.000990	9.902655	3.355110	0.080099
 119	5.9000e-02	4.7838	-3.458815	-0.000180	-1.800483	-0.610020	-0.014563
 120	5.9500e-02	4.7951	-3.385998	0.000180	1.800483	0.610020	0.014563
 121	6.0000e-02	4.8528	-3.422406	-0.000090	-0.900241	-0.305010	-0.007282
 122	6.0500e-02	4.8672	-3.713675	-0.000720	-7.201931	-2.440080	-0.058254
 123	6.1000e-02	4.9475	-3.677266	0.000090	0.900241	0.305010	0.007282
 124	6.1500e-02	4.9330	-3.240363	-0.001080	-10.802896	-3.660120	0.087381
 125	6.2000e-02	4.9972	-3.385998	-0.000360	-3.600965	-1.220040	-0.029127
 126	6.2500e-02	5.0437	-3.458815	-0.000180	-1.800483	-0.610020	-0.014563
 127	6.3000e-02	5.0854	-3.167546	0.000720	7.201931	2.440080	0.058254
 128	6.3500e-02	5.1368	-3.385998	-0.000540	-5.401448	-1.830060	-0.043690
 129	6.4000e-02	5.1576	-2.985503	0.000990	9.902655	3.355110	0.080099
 130	6.4500e-02	5.1817	-3.131138	-0.000360	-3.600965	-1.220040	-0.029127
 131	6.5000e-02	5.2362	-2.949095	0.000450	4.501207	1.525050	0.036409
 132	6.5500e-02	5.2908	-2.912686	0.000090	0.900241	0.305010	0.007282
 133	6.6000e-02	5.3244	-2.694235	0.000540	5.401448	1.830060	0.043690
 134	6.6500e-02	5.3694	-3.058320	-0.000900	-9.002414	-3.050100	-0.072817
 135	6.7000e-02	5.4015	-2.876278	0.000450	4.501207	1.525050	0.036409
 136	6.7500e-02	5.4528	-3.021912	-0.000360	-3.600965	-1.220040	-0.029127
 137	6.8000e-02	5.4720	-2.585009	0.001080	10.802896	3.660120	0.087381
 138	6.8500e-02	5.5330	-2.730643	-0.000360	-3.600965	-1.220040	-0.029127
 139	6.9000e-02	5.5667	-2.767052	-0.000090	-0.900241	-0.305010	-0.007282
 140	6.9500e-02	5.5875	-2.657826	0.000270	2.700724	0.915030	0.021845
 141	7.0000e-02	5.6453	-2.949095	-0.000720	-7.201931	-2.440080	-0.058254
 142	7.0500e-02	5.6902	-2.839869	0.000270	2.700724	0.915030	0.021845
 143	7.1000e-02	5.7271	-2.548600	0.000720	7.201931	2.440080	0.058254
 144	7.1500e-02	5.7672	-2.293740	0.000630	6.301690	2.135070	0.050972
 145	7.2000e-02	5.8057	-2.512192	-0.000540	-5.401448	-1.830060	-0.043690
 146	7.2500e-02	5.8554	-2.621418	-0.000270	-2.700724	-0.915030	-0.021845
 147	7.3000e-02	5.8891	-2.475783	0.000360	3.600965	1.220040	0.029127
 148	7.3500e-02	5.9132	-2.839869	-0.000900	-9.002414	-3.050100	-0.072817
 149	7.4000e-02	5.9742	-2.366558	0.001170	11.703138	3.965130	0.094662
 150	7.4500e-02	6.0095	-2.111697	0.000630	6.301690	2.135070	0.050972
 151	7.5000e-02	6.0560	-2.402966	-0.000720	-7.201931	-2.440080	-0.058254
 152	7.5500e-02	6.0849	-2.621418	-0.000540	-5.401448	-1.830060	-0.043690
 153	7.6000e-02	6.1314	-1.711203	0.002251	22.506034	7.625251	0.182043
 154	7.6500e-02	6.1763	-2.330149	-0.001530	-15.304103	-5.185171	-0.123789
 155	7.7000e-02	6.2132	-2.220923	0.000270	2.700724	0.915030	0.021845
 156	7.7500e-02	6.2405	-1.674795	0.001350	13.503620	4.575150	0.109226
 157	7.8000e-02	6.2902	-2.038880	-0.000900	-9.002414	-3.050100	-0.072817
 158	7.8500e-02	6.3319	-2.002472	0.000090	0.900241	0.305010	0.007282
 159	7.9000e-02	6.3688	-2.111697	-0.000270	-2.700724	-0.915030	-0.021845
 160	7.9500e-02	6.4121	-1.601977	0.001260	12.603379	4.270140	0.101944
 161	8.0000e-02	6.4394	-2.439375	-0.002071	-20.705551	-7.015231	-0.167479
 162	8.0500e-02	6.4859	-1.929655	0.001260	12.603379	4.270140	0.101944
 163	8.1000e-02	6.4907	-1.784020	0.000360	3.600965	1.220040	0.029127
 164	8.1500e-02	6.5774	-1.856837	-0.000180	-1.800483	-0.610020	-0.014563
 165	8.2000e-02	6.6094	-1.674795	0.000450	4.501207	1.525050	0.036409
 166	8.2500e-02	6.6175	-1.565569	0.000270	2.700724	0.915030	0.021845
 167	8.3000e-02	6.6864	-2.002472	-0.001080	-10.802896	-3.660120	-0.087381
 168	8.3500e-02	6.7009	-1.601977	0.000990	9.902655	3.355110	0.080099
 169	8.4000e-02	6.7667	-1.674795	-0.000180	-1.800483	-0.610020	-0.014563
 170	8.4500e-02	6.8132	-1.820429	-0.000360	-3.600965	-1.220040	-0.029127
 171	8.5000e-02	6.8437	-1.565569	0.000630	6.301690	2.135070	0.050972
 172	8.5500e-02	6.8822	-1.638386	-0.000180	-1.800483	-0.610020	-0.014563
 173	8.6000e-02	6.9319	-1.055849	0.001440	14.403862	4.880161	0.116507
 174	8.6500e-02	6.9479	-1.055849	0.000000	0.000000	0.000000	0.000000
 175	8.7000e-02	7.0009	-1.638386	-0.001440	-14.403862	-4.880161	-0.116507
 176	8.7500e-02	7.0458	-1.165074	0.001170	11.703138	3.965130	0.094662
 177	8.8000e-02	7.0971	-1.201483	-0.000090	-0.900241	-0.305010	-0.007282
 178	8.8500e-02	7.1196	-1.274300	-0.000180	-1.800483	-0.610020	-0.014563
 179	8.9000e-02	7.1725	-1.456343	-0.000450	-4.501207	-1.525050	-0.036409
 180	8.9500e-02	7.1870	-1.274300	0.000450	4.501207	1.525050	0.036409
 181	9.0000e-02	7.2335	-1.092257	0.000450	4.501207	1.525050	0.036409
 182	9.0500e-02	7.2832	-1.419935	-0.000810	-8.102172	-2.745090	-0.065535
 183	9.1000e-02	7.3137	-1.055849	0.000900	9.002414	3.050100	0.072817
 184	9.1500e-02	7.3714	-1.201483	-0.000360	-3.600965	-1.220040	-0.029127
 185	9.2000e-02	7.3554	-1.274300	0.000180	1.800483	0.610020	-0.014563
 186	9.2500e-02	7.4212	-1.165074	0.000270	2.700724	0.915030	0.021845
 187	9.3000e-02	7.5078	-0.800989	0.000900	9.002414	3.050100	0.072817
 188	9.3500e-02	7.5110	-1.310709	-0.001260	-12.603379	-4.270140	-0.101944
 189	9.4000e-02	7.5624	-0.618946	0.001710	17.104586	5.795191	0.138353
 190	9.4500e-02	7.6057	-0.691763	-0.000180	-1.800483	-0.610020	-0.014563
 191	9.5000e-02	7.6410	-0.910214	-0.000540	-5.401448	-1.830060	-0.043690
 192	9.5500e-02	7.6795	-0.910214	0.000000	0.000000	0.000000	0.000000
 193	9.6000e-02	7.7180	-0.946623	-0.000090	-0.900241	-0.305010	-0.007282
 194	9.6500e-02	7.7677	-0.946623	0.000000	0.000000	0.000000	0.000000
 195	9.7000e-02	7.7982	-0.618946	0.000810	8.102172	2.745090	0.065535
 196	9.7500e-02	7.8575	-0.327677	0.000720	7.201931	2.440080	0.058254
 197	9.8000e-02	7.8880	-0.327677	0.000000	0.000000	0.000000	0.000000
 198	9.8500e-02	7.9025	-0.509720	-0.000450	-4.501207	-1.525050	-0.036409
 199	9.9000e-02	7.9410	-0.291269	0.000540	5.401448	1.830060	0.043690
 200	9.9500e-02	7.9971	-0.145634	0.000360	3.600965	1.220040	0.029127
 201	1.0000e-01	8.0388	-0.509720	-0.000900	-9.002414	-3.050100	-0.072817
 202	1.0050e-01	8.0853	-0.218451	0.000720	7.201931	2.440080	0.058254
 203	1.0100e-01	8.1094	-0.800989	-0.001440	-14.403862	-4.880161	-0.116507
 204	1.0150e-01	8.1784	-0.364086	0.001080	10.802896	3.660120	0.087381
 205	1.0200e-01	8.2008	-0.182043	0.000450	4.501207	1.525050	0.036409
 206	1.0250e-01	8.2474	-0.254860	-0.000180	-1.800483	-0.610020	-0.014563
 207	1.0300e-01	8.2891	-0.254860	0.000000	0.000000	0.000000	0.000000
 208	1.0350e-01	8.3436	-0.145634	0.000270	2.700724	0.915030	0.021845
 209	1.0400e-01	8.3629	-0.473312	-0.000810	-8.102172	-2.745090	-0.065535
 210	1.0450e-01	8.4078	0.000000	0.001170	11.703138	3.965130	0.094662
 211	1.0500e-01	8.4383	0.109226	0.000270	2.700724	0.915030	0.021845
 212	1.0550e-01	8.4832	-0.072817	-0.000450	-4.501207	-1.525050	-0.036409
 213	1.0600e-01	8.5072	-0.036409	0.000090	0.900241	0.305010	0.007282
 214	1.0650e-01	8.5650	0.109226	0.000360	3.600965	1.220040	0.029127
 215	1.0700e-01	8.6147	0.145634	0.000090	0.900241	0.305010	0.007282
 216	1.0750e-01	8.6388	-0.072817	-0.000540	-5.401448	-1.830060	-0.043690
 217	1.0800e-01	8.7110	0.473312	0.001350	13.503620	4.575150	0.109226
 218	1.0850e-01	8.7238	-0.109226	-0.001440	-14.403862	-4.880161	-0.116507
 219	1.0900e-01	8.7591	0.582537	0.001710	17.104586	5.795191	0.138353
 220	1.0950e-01	8.7864	0.254860	-0.000810	-8.102172	-2.745090	-0.065535
 221	1.1000e-01	8.8506	0.291269	0.000090	0.900241	0.305010	0.007282
 222	1.1050e-01	8.8746	0.182043	-0.000270	-2.700724	-0.915030	-0.021845
 223	1.1100e-01	8.9436	0.691763	0.001260	12.603379	4.270140	0.101944
 224	1.1150e-01	8.9596	0.291269	-0.000990	-9.902655	-3.355110	-0.080099
 225	1.1200e-01	8.9869	0.691763	0.000990	9.902655	3.355110	0.080099
 226	1.1250e-01	9.0415	0.436903	-0.000630	-6.301690	-2.135070	-0.050972
 227	1.1300e-01	9.0703	0.436903	0.000000	0.000000	0.000000	0.000000
 228	1.1350e-01	9.1233	0.618946	0.000450	4.501207	1.525050	0.036409
 229	1.1400e-01	9.1634	0.546129	-0.000180	-1.800483	-0.610020	-0.014563
 230	1.1450e-01	9.2131	1.165074	0.001530	15.304103	5.185171	0.123789
 231	1.1500e-01	9.2452	0.291269	-0.002161	-21.605793	-7.320241	-0.174761
 232	1.1550e-01	9.2997	0.691763	0.000990	9.902655	3.355110	0.080099
 233	1.1600e-01	9.3382	0.582537	-0.000270	-2.700724	-0.915030	-0.021845
 234	1.1650e-01	9.3543	0.509720	-0.000180	-1.800483	-0.610020	-0.014563
 235	1.1700e-01	9.4168	0.800989	0.000720	7.201931	2.440080	0.058254
 236	1.1750e-01	9.4682	1.201483	0.000990	9.902655	3.355110	0.080099
 237	1.1800e-01	9.4746	0.764580	-0.001080	-10.802896	-3.660120	-0.087381
 238	1.1850e-01	9.5179	0.983032	0.000540	5.401448	1.830060	0.043690
 239	1.1900e-01	9.5725	0.910214	-0.000180	-1.800483	-0.610020	-0.014563
 240	1.1950e-01	9.6094	1.055849	0.000360	3.600965	1.220040	0.029127
 241	1.2000e-01	9.6334	0.582537	-0.001170	-11.703138	-3.965130	-0.094662
 242	1.2050e-01	9.6928	0.873806	0.000720	7.201931	2.440080	0.058254
 243	1.2100e-01	9.7313	1.237892	0.000900	9.002414	3.050100	0.072817
 244	1.2150e-01	9.7698	0.873806	-0.000900	-9.002414	-3.050100	-0.072817
 245	1.2200e-01	9.8035	0.873806	0.000000	0.000000	0.000000	0.000000
 246	1.2250e-01	9.8564	1.237892	0.000900	9.002414	3.050100	0.072817
 247	1.2300e-01	9.8676	1.492752	0.000630	6.301690	2.135070	0.050972
 248	1.2350e-01	9.9206	1.201483	-0.000720	-7.201931	-2.440080	-0.058254
 249	1.2400e-01	9.9767	1.165074	-0.000090	-0.900241	-0.305010	-0.007282
 250	1.2450e-01	9.9928	0.946623	-0.000540	-5.401448	-1.830060	-0.043690
 251	1.2500e-01	10.0457	1.274300	0.000810	8.102172	2.745090	0.065535
 252	1.2550e-01	10.0970	1.383526	0.000270	2.700724	0.915030	0.021845
 253	1.2600e-01	10.1371	1.601977	0.000540	5.401448	1.830060	0.043690
 254	1.2650e-01	10.1516	1.383526	-0.000540	-5.401448	-1.830060	-0.043690
 255	1.2700e-01	10.1933	1.274300	-0.000270	-2.700724	-0.915030	-0.021845
 256	1.2750e-01	10.2222	1.383526	0.000270	2.700724	0.915030	0.021845
 257	1.2800e-01	10.2751	1.565569	0.000450	4.501207	1.525050	0.036409
 258	1.2850e-01	10.3184	1.638386	0.000180	1.800483	0.610020	0.014563
 259	1.2900e-01	10.3441	1.711203	0.000180	1.800483	0.610020	0.014563
