»»»»»»»»»»»»»»»»»»»»»»»»»»»»»»»»»»»» Hysteresis ««««««««««««««««««««««««««««««««««««
»»»  Executed Version:	5.48.1
»»»  Vision Version:	5.48.4 (R)
»»»  Vision Compiled:	9/18/24
»»»  Driver Version:	5.47.0
»»»  Windows Version:	Windows 8 or 8.1
»»»  Processor Information:	x86 (AMD or Intel) - 32 Processors
»»»  Tester Name:	PMF21124-494 (100V)
»»»  Tester S/N:	PMF21124-494
»»»  Internal Amp Type:	100V RevK 270k
»»»  Internal Amp S/N:	iAB2-596/K     
»»»  Execution Count:	1
»»»»»»»»»»»»»»»»»»»»»»»»»»»»»»»»»»»»»»»»»»««««««««««««««««««««««««««««««««««««««««««

Stored:	10/8/2025 - 19:28:15
Configured:	10/08/25 04:22:59 PM
Executed:	10/08/25 07:27:25 PM

»»»»»»»»»»»»»»»»»»»»»»»»»»»»»»»»»»» Sample Info ««««««««««««««««««««««««««««««««««««
Sample Name:	Int. Ref. Ferroelectric
Lot Name:	N/A
Wafer Name:	N/A
Die Row/Column:	0/0
Capacitor Number:	0
Sample Area (cm2):	1.00e-04
Sample Thickness (microns):	3.00e-01

Amplifier:	Internal

»»»»»»»»»»»»»»»»»»»»»»»»»»»»»»»»»»» Tester Info «««««««««««««««««««««««««««««««««««
Tester Name:	PMF21124-494 (100V)
Tester Serial Number:	PMF21124-494
Return Signal Amp. Level:	0.02 [Index: 2]

»»»»»»»»»»»»»»»»»»»»»»»»»»»»»»»» Hysteresis Info ««««««««««««««««««««««««««««««««««
Task Name:	Hyste-8
Volts:	20.00
Field:	666.67 (kV/cm)
DCBias:	0.00
DCField:	0.00 (kV/cm)
Hysteresis Period (ms):	5.00e-01
Preset:	Enabled
Preset Delay (ms):	1.00e+03
Profile:	Standard Monopolar

»»»»»»»»»»»»»»»»»»»»»»»»»»»»»»»»»»»»»» Data «««««««««««««««««««««««««««««««««««««««
Points:	1001

Valid Data

Point	Time (ms)	Drive Voltage	Measured Polarization (uC/cm2)	Capacitance (uF)	Normalized Capacitance (uF/cm2)	Dielectric Constant	Instantaneous Current (mA)
   1	0.0000e+00	0.0561	-16.292838	0.000449	4.485206	1.519629	-0.036409
   2	5.0000e-04	0.0561	-16.474881	0.000449	4.485206	1.519629	-0.036409
   3	1.0000e-03	0.1476	-16.292838	0.000449	4.485206	1.519629	0.036409
   4	1.5000e-03	0.1588	-16.474881	-0.000449	-4.485206	-1.519629	-0.036409
   5	2.0000e-03	0.2086	-16.074387	0.000987	9.867452	3.343183	0.080099
   6	2.5000e-03	0.2759	-16.074387	0.000000	0.000000	0.000000	0.000000
   7	3.0000e-03	0.3000	-16.220021	-0.000359	-3.588164	-1.215703	-0.029127
   8	3.5000e-03	0.3096	-16.074387	0.000359	3.588164	1.215703	0.029127
   9	4.0000e-03	0.3642	-15.783118	0.000718	7.176329	2.431406	0.058254
  10	4.5000e-03	0.4155	-16.147204	-0.000897	-8.970411	-3.039258	-0.072817
  11	5.0000e-03	0.4540	-15.200581	0.002332	23.323069	7.902070	0.189325
  12	5.5000e-03	0.4781	-15.637484	-0.001076	-10.764493	-3.647109	-0.087381
  13	6.0000e-03	0.5310	-15.346215	0.000718	7.176329	2.431406	0.058254
  14	6.5000e-03	0.5727	-15.309807	0.000090	0.897041	0.303926	0.007282
  15	7.0000e-03	0.6080	-15.091355	0.000538	5.382247	1.823555	0.043690
  16	7.5000e-03	0.6465	-15.419032	-0.000807	-8.073370	-2.735332	-0.065535
  17	8.0000e-03	0.6946	-15.309807	0.000269	2.691123	0.911777	0.021845
  18	8.5000e-03	0.7075	-15.054947	0.000628	6.279288	2.127480	0.050972
  19	9.0000e-03	0.7588	-14.872904	0.000449	4.485206	1.519629	0.036409
  20	9.5000e-03	0.8037	-14.909312	-0.000090	-0.897041	-0.303926	-0.007282
  21	1.0000e-02	0.8438	-14.690861	0.000538	5.382247	1.823555	0.043690
  22	1.0500e-02	0.8807	-14.581635	0.000269	2.691123	0.911777	0.021845
  23	1.1000e-02	0.9337	-14.290366	0.000718	7.176329	2.431406	0.058254
  24	1.1500e-02	0.9641	-14.181141	0.000269	2.691123	0.911777	0.021845
  25	1.2000e-02	1.0091	-14.545226	-0.000897	-8.970411	-3.039258	-0.072817
  26	1.2500e-02	1.0700	-14.436001	0.000269	2.691123	0.911777	0.021845
  27	1.3000e-02	1.0716	-14.326775	0.000269	2.691123	0.911777	0.021845
  28	1.3500e-02	1.1214	-14.217549	0.000269	2.691123	0.911777	0.021845
  29	1.4000e-02	1.1791	-14.290366	-0.000179	-1.794082	-0.607852	-0.014563
  30	1.4500e-02	1.2080	-13.926281	0.000897	8.970411	3.039258	0.072817
  31	1.5000e-02	1.2433	-13.780646	0.000359	3.588164	1.215703	0.029127
  32	1.5500e-02	1.3091	-13.817055	-0.000090	-0.897041	-0.303926	-0.007282
  33	1.6000e-02	1.3058	-13.853464	0.000090	0.897041	0.303926	-0.007282
  34	1.6500e-02	1.3828	-13.489378	0.000897	8.970411	3.039258	0.072817
  35	1.7000e-02	1.3973	-13.562195	-0.000179	-1.794082	-0.607852	-0.014563
  36	1.7500e-02	1.4759	-13.380152	0.000449	4.485206	1.519629	0.036409
  37	1.8000e-02	1.4951	-13.380152	0.000000	0.000000	0.000000	0.000000
  38	1.8500e-02	1.5401	-13.198109	0.000449	4.485206	1.519629	0.036409
  39	1.9000e-02	1.5673	-13.016066	0.000449	4.485206	1.519629	0.036409
  40	1.9500e-02	1.6155	-12.943249	0.000179	1.794082	0.607852	0.014563
  41	2.0000e-02	1.6716	-13.343743	-0.000987	-9.867452	-3.343183	-0.080099
  42	2.0500e-02	1.6732	-12.724798	0.001525	15.249699	5.166738	0.123789
  43	2.1000e-02	1.7069	-12.761206	-0.000090	-0.897041	-0.303926	-0.007282
  44	2.1500e-02	1.7823	-12.761206	0.000000	0.000000	0.000000	0.000000
  45	2.2000e-02	1.8112	-12.469938	0.000718	7.176329	2.431406	0.058254
  46	2.2500e-02	1.8288	-12.834023	-0.000897	-8.970411	-3.039258	-0.072817
  47	2.3000e-02	1.8946	-12.506346	0.000807	8.073370	2.735332	0.065535
  48	2.3500e-02	1.9443	-12.178669	0.000807	8.073370	2.735332	0.065535
  49	2.4000e-02	1.9620	-12.287895	-0.000269	-2.691123	-0.911777	-0.021845
  50	2.4500e-02	2.0005	-12.069443	0.000538	5.382247	1.823555	0.043690
  51	2.5000e-02	2.0791	-12.178669	-0.000269	-2.691123	-0.911777	-0.021845
  52	2.5500e-02	2.0967	-12.178669	0.000000	0.000000	0.000000	0.000000
  53	2.6000e-02	2.1192	-12.215078	-0.000090	-0.897041	-0.303926	-0.007282
  54	2.6500e-02	2.1577	-11.960218	0.000628	6.279288	2.127480	0.050972
  55	2.7000e-02	2.2170	-11.923809	0.000090	0.897041	0.303926	0.007282
  56	2.7500e-02	2.2331	-11.778175	0.000359	3.588164	1.215703	0.029127
  57	2.8000e-02	2.2812	-11.668949	0.000269	2.691123	0.911777	0.021845
  58	2.8500e-02	2.3438	-11.887400	-0.000538	-5.382247	-1.823555	-0.043690
  59	2.9000e-02	2.3823	-11.486906	0.000987	9.867452	3.343183	0.080099
  60	2.9500e-02	2.4112	-11.668949	-0.000449	-4.485206	-1.519629	-0.036409
  61	3.0000e-02	2.4593	-11.377680	0.000718	7.176329	2.431406	0.058254
  62	3.0500e-02	2.5010	-11.195637	0.000449	4.485206	1.519629	0.036409
  63	3.1000e-02	2.5235	-11.232046	-0.000090	-0.897041	-0.303926	-0.007282
  64	3.1500e-02	2.5620	-11.232046	0.000000	0.000000	0.000000	0.000000
  65	3.2000e-02	2.6053	-11.159229	0.000179	1.794082	0.607852	0.014563
  66	3.2500e-02	2.6630	-10.795143	0.000897	8.970411	3.039258	0.072817
  67	3.3000e-02	2.7047	-10.904369	-0.000269	-2.691123	-0.911777	-0.021845
  68	3.3500e-02	2.7288	-10.613100	0.000718	7.176329	2.431406	0.058254
  69	3.4000e-02	2.7625	-10.831552	-0.000538	-5.382247	-1.823555	-0.043690
  70	3.4500e-02	2.8010	-10.904369	-0.000179	-1.794082	-0.607852	-0.014563
  71	3.5000e-02	2.8363	-10.358240	0.001346	13.455617	4.558886	0.109226
  72	3.5500e-02	2.8684	-10.503874	-0.000359	-3.588164	-1.215703	-0.029127
  73	3.6000e-02	2.9277	-10.540283	-0.000090	-0.897041	-0.303926	-0.007282
  74	3.6500e-02	2.9726	-10.066972	0.001166	11.661534	3.951035	0.094662
  75	3.7000e-02	3.0095	-10.249014	-0.000449	-4.485206	-1.519629	-0.036409
  76	3.7500e-02	3.0144	-10.103380	0.000359	3.588164	1.215703	0.029127
  77	3.8000e-02	3.1138	-10.249014	-0.000359	-3.588164	-1.215703	-0.029127
  78	3.8500e-02	3.1299	-9.884929	0.000897	8.970411	3.039258	0.072817
  79	3.9000e-02	3.1668	-9.884929	0.000000	0.000000	0.000000	0.000000
  80	3.9500e-02	3.1924	-9.630069	0.000628	6.279288	2.127480	0.050972
  81	4.0000e-02	3.2454	-9.812111	-0.000449	-4.485206	-1.519629	-0.036409
  82	4.0500e-02	3.2758	-9.666477	0.000359	3.588164	1.215703	0.029127
  83	4.1000e-02	3.3208	-9.557251	0.000269	2.691123	0.911777	0.021845
  84	4.1500e-02	3.3721	-9.484434	0.000179	1.794082	0.607852	0.014563
  85	4.2000e-02	3.4122	-9.265983	0.000538	5.382247	1.823555	0.043690
  86	4.2500e-02	3.4363	-9.229574	0.000090	0.897041	0.303926	0.007282
  87	4.3000e-02	3.4796	-9.302391	-0.000179	-1.794082	-0.607852	-0.014563
  88	4.3500e-02	3.5486	-9.120349	0.000449	4.485206	1.519629	0.036409
  89	4.4000e-02	3.5871	-9.120349	0.000000	0.000000	0.000000	0.000000
  90	4.4500e-02	3.6063	-9.411617	-0.000718	-7.176329	-2.431406	-0.058254
  91	4.5000e-02	3.6528	-8.792671	0.001525	15.249699	5.166738	0.123789
  92	4.5500e-02	3.7058	-8.865488	-0.000179	-1.794082	-0.607852	-0.014563
  93	4.6000e-02	3.7202	-9.156757	-0.000718	-7.176329	-2.431406	-0.058254
  94	4.6500e-02	3.7956	-8.974714	0.000449	4.485206	1.519629	0.036409
  95	4.7000e-02	3.8373	-8.756263	0.000538	5.382247	1.823555	0.043690
  96	4.7500e-02	3.8357	-8.319360	-0.001076	-10.764493	-3.647109	0.087381
  97	4.8000e-02	3.8999	-8.464994	-0.000359	-3.588164	-1.215703	-0.029127
  98	4.8500e-02	3.9223	-8.355768	0.000269	2.691123	0.911777	0.021845
  99	4.9000e-02	3.9384	-8.501403	-0.000359	-3.588164	-1.215703	-0.029127
 100	4.9500e-02	4.0266	-8.392177	0.000269	2.691123	0.911777	0.021845
 101	5.0000e-02	4.0507	-8.282951	0.000269	2.691123	0.911777	0.021845
 102	5.0500e-02	4.0908	-8.319360	-0.000090	-0.897041	-0.303926	-0.007282
 103	5.1000e-02	4.1421	-8.028091	0.000718	7.176329	2.431406	0.058254
 104	5.1500e-02	4.1662	-8.064500	-0.000090	-0.897041	-0.303926	-0.007282
 105	5.2000e-02	4.2175	-7.700414	0.000897	8.970411	3.039258	0.072817
 106	5.2500e-02	4.2464	-7.882457	-0.000449	-4.485206	-1.519629	-0.036409
 107	5.3000e-02	4.2769	-7.918865	-0.000090	-0.897041	-0.303926	-0.007282
 108	5.3500e-02	4.3346	-7.481963	0.001076	10.764493	3.647109	0.087381
 109	5.4000e-02	4.3651	-7.591188	-0.000269	-2.691123	-0.911777	-0.021845
 110	5.4500e-02	4.3555	-7.372737	-0.000538	-5.382247	-1.823555	0.043690
 111	5.5000e-02	4.4453	-7.627597	-0.000628	-6.279288	-2.127480	-0.050972
 112	5.5500e-02	4.4806	-7.554780	0.000179	1.794082	0.607852	0.014563
 113	5.6000e-02	4.5304	-7.263511	0.000718	7.176329	2.431406	0.058254
 114	5.6500e-02	4.5448	-7.117877	0.000359	3.588164	1.215703	0.029127
 115	5.7000e-02	4.6025	-7.372737	-0.000628	-6.279288	-2.127480	-0.050972
 116	5.7500e-02	4.6507	-7.008651	0.000897	8.970411	3.039258	0.072817
 117	5.8000e-02	4.6747	-7.081468	-0.000179	-1.794082	-0.607852	-0.014563
 118	5.8500e-02	4.7052	-6.680974	0.000987	9.867452	3.343183	0.080099
 119	5.9000e-02	4.7742	-7.299920	-0.001525	-15.249699	-5.166738	-0.123789
 120	5.9500e-02	4.7967	-6.608157	0.001704	17.043781	5.774589	0.138353
 121	6.0000e-02	4.8384	-6.790200	-0.000449	-4.485206	-1.519629	-0.036409
 122	6.0500e-02	4.8977	-6.717382	0.000179	1.794082	0.607852	0.014563
 123	6.1000e-02	4.9362	-6.498931	0.000538	5.382247	1.823555	0.043690
 124	6.1500e-02	4.9779	-6.389705	0.000269	2.691123	0.911777	0.021845
 125	6.2000e-02	4.9956	-6.498931	-0.000269	-2.691123	-0.911777	-0.021845
 126	6.2500e-02	5.0630	-5.989211	0.001256	12.558576	4.254961	0.101944
 127	6.3000e-02	5.0822	-6.062028	-0.000179	-1.794082	-0.607852	-0.014563
 128	6.3500e-02	5.1127	-6.353297	-0.000718	-7.176329	-2.431406	-0.058254
 129	6.4000e-02	5.1624	-5.989211	0.000897	8.970411	3.039258	0.072817
 130	6.4500e-02	5.2362	-5.879985	0.000269	2.691123	0.911777	0.021845
 131	6.5000e-02	5.2250	-6.062028	0.000449	4.485206	1.519629	-0.036409
 132	6.5500e-02	5.2876	-6.062028	0.000000	0.000000	0.000000	0.000000
 133	6.6000e-02	5.3309	-5.625125	0.001076	10.764493	3.647109	0.087381
 134	6.6500e-02	5.3694	-5.952802	-0.000807	-8.073370	-2.735332	-0.065535
 135	6.7000e-02	5.3982	-5.515899	0.001076	10.764493	3.647109	0.087381
 136	6.7500e-02	5.4736	-5.661534	-0.000359	-3.588164	-1.215703	-0.029127
 137	6.8000e-02	5.4945	-5.479491	0.000449	4.485206	1.519629	0.036409
 138	6.8500e-02	5.5282	-5.588717	-0.000269	-2.691123	-0.911777	-0.021845
 139	6.9000e-02	5.5827	-5.515899	0.000179	1.794082	0.607852	0.014563
 140	6.9500e-02	5.6020	-5.188222	0.000807	8.073370	2.735332	0.065535
 141	7.0000e-02	5.6405	-5.151814	0.000090	0.897041	0.303926	0.007282
 142	7.0500e-02	5.6950	-5.333857	-0.000449	-4.485206	-1.519629	-0.036409
 143	7.1000e-02	5.6870	-5.151814	-0.000449	-4.485206	-1.519629	0.036409
 144	7.1500e-02	5.7672	-4.933362	0.000538	5.382247	1.823555	0.043690
 145	7.2000e-02	5.8137	-5.188222	-0.000628	-6.279288	-2.127480	-0.050972
 146	7.2500e-02	5.8731	-5.006179	0.000449	4.485206	1.519629	0.036409
 147	7.3000e-02	5.8843	-4.824136	0.000449	4.485206	1.519629	0.036409
 148	7.3500e-02	5.9308	-4.569276	0.000628	6.279288	2.127480	0.050972
 149	7.4000e-02	5.9517	-4.787728	-0.000538	-5.382247	-1.823555	-0.043690
 150	7.4500e-02	5.9838	-4.824136	-0.000090	-0.897041	-0.303926	-0.007282
 151	7.5000e-02	6.0672	-4.532868	0.000718	7.176329	2.431406	0.058254
 152	7.5500e-02	6.0720	-4.824136	-0.000718	-7.176329	-2.431406	-0.058254
 153	7.6000e-02	6.1105	-4.387234	0.001076	10.764493	3.647109	0.087381
 154	7.6500e-02	6.1891	-4.241599	0.000359	3.588164	1.215703	0.029127
 155	7.7000e-02	6.2148	-4.023148	0.000538	5.382247	1.823555	0.043690
 156	7.7500e-02	6.2485	-4.168782	-0.000359	-3.588164	-1.215703	-0.029127
 157	7.8000e-02	6.2742	-4.350825	-0.000449	-4.485206	-1.519629	-0.036409
 158	7.8500e-02	6.3223	-4.132373	0.000538	5.382247	1.823555	0.043690
 159	7.9000e-02	6.3832	-3.731879	0.000987	9.867452	3.343183	0.080099
 160	7.9500e-02	6.4410	-4.023148	-0.000718	-7.176329	-2.431406	-0.058254
 161	8.0000e-02	6.4522	-3.877513	0.000359	3.588164	1.215703	0.029127
 162	8.0500e-02	6.4843	-4.023148	-0.000359	-3.588164	-1.215703	-0.029127
 163	8.1000e-02	6.4955	-3.659062	0.000897	8.970411	3.039258	0.072817
 164	8.1500e-02	6.5597	-3.768288	-0.000269	-2.691123	-0.911777	-0.021845
 165	8.2000e-02	6.6255	-3.331385	0.001076	10.764493	3.647109	0.087381
 166	8.2500e-02	6.6495	-3.477019	-0.000359	-3.588164	-1.215703	-0.029127
 167	8.3000e-02	6.6832	-3.222159	0.000628	6.279288	2.127480	0.050972
 168	8.3500e-02	6.7009	-3.185750	0.000090	0.897041	0.303926	0.007282
 169	8.4000e-02	6.7683	-3.331385	-0.000359	-3.588164	-1.215703	-0.029127
 170	8.4500e-02	6.7971	-3.477019	-0.000359	-3.588164	-1.215703	-0.029127
 171	8.5000e-02	6.8324	-3.040116	0.001076	10.764493	3.647109	0.087381
 172	8.5500e-02	6.9142	-2.858073	0.000449	4.485206	1.519629	0.036409
 173	8.6000e-02	6.9239	-3.040116	-0.000449	-4.485206	-1.519629	-0.036409
 174	8.6500e-02	6.9527	-2.712439	0.000807	8.073370	2.735332	0.065535
 175	8.7000e-02	7.0137	-3.149342	-0.001076	-10.764493	-3.647109	-0.087381
 176	8.7500e-02	7.0474	-2.894482	0.000628	6.279288	2.127480	0.050972
 177	8.8000e-02	7.0666	-2.603213	0.000718	7.176329	2.431406	0.058254
 178	8.8500e-02	7.1404	-2.858073	-0.000628	-6.279288	-2.127480	-0.050972
 179	8.9000e-02	7.1485	-2.566805	0.000718	7.176329	2.431406	0.058254
 180	8.9500e-02	7.2303	-2.712439	-0.000359	-3.588164	-1.215703	-0.029127
 181	9.0000e-02	7.2463	-2.275536	0.001076	10.764493	3.647109	0.087381
 182	9.0500e-02	7.2880	-2.421170	-0.000359	-3.588164	-1.215703	-0.029127
 183	9.1000e-02	7.2928	-2.421170	0.000000	0.000000	0.000000	0.000000
 184	9.1500e-02	7.3731	-2.093493	0.000807	8.073370	2.735332	0.065535
 185	9.2000e-02	7.4019	-2.493988	-0.000987	-9.867452	-3.343183	-0.080099
 186	9.2500e-02	7.4372	-1.911450	0.001435	14.352658	4.862812	0.116507
 187	9.3000e-02	7.4902	-2.129902	-0.000538	-5.382247	-1.823555	-0.043690
 188	9.3500e-02	7.5271	-2.239127	-0.000269	-2.691123	-0.911777	-0.021845
 189	9.4000e-02	7.5720	-1.802225	0.001076	10.764493	3.647109	0.087381
 190	9.4500e-02	7.6329	-1.765816	0.000090	0.897041	0.303926	0.007282
 191	9.5000e-02	7.6265	-2.020676	0.000628	6.279288	2.127480	-0.050972
 192	9.5500e-02	7.6763	-1.875042	0.000359	3.588164	1.215703	0.029127
 193	9.6000e-02	7.7164	-1.547365	0.000807	8.073370	2.735332	0.065535
 194	9.6500e-02	7.7388	-2.020676	-0.001166	-11.661534	-3.951035	-0.094662
 195	9.7000e-02	7.7966	-1.328913	0.001704	17.043781	5.774589	0.138353
 196	9.7500e-02	7.8543	-1.474547	-0.000359	-3.588164	-1.215703	-0.029127
 197	9.8000e-02	7.9057	-1.292504	0.000449	4.485206	1.519629	0.036409
 198	9.8500e-02	7.9169	-1.438139	-0.000359	-3.588164	-1.215703	-0.029127
 199	9.9000e-02	7.9506	-1.328913	0.000269	2.691123	0.911777	0.021845
 200	9.9500e-02	8.0035	-1.219687	0.000269	2.691123	0.911777	0.021845
 201	1.0000e-01	8.0356	-0.819193	0.000987	9.867452	3.343183	0.080099
 202	1.0050e-01	8.0757	-1.110462	-0.000718	-7.176329	-2.431406	-0.058254
 203	1.0100e-01	8.1190	-0.964827	0.000359	3.588164	1.215703	0.029127
 204	1.0150e-01	8.1720	-0.928419	0.000090	0.897041	0.303926	0.007282
 205	1.0200e-01	8.1928	-0.782784	0.000359	3.588164	1.215703	0.029127
 206	1.0250e-01	8.2249	-0.709967	0.000179	1.794082	0.607852	0.014563
 207	1.0300e-01	8.2810	-0.673559	0.000090	0.897041	0.303926	0.007282
 208	1.0350e-01	8.3324	-0.819193	-0.000359	-3.588164	-1.215703	-0.029127
 209	1.0400e-01	8.3661	-0.782784	0.000090	0.897041	0.303926	0.007282
 210	1.0450e-01	8.4270	-0.527924	0.000628	6.279288	2.127480	0.050972
 211	1.0500e-01	8.4270	-0.345881	-0.000449	-4.485206	-1.519629	0.036409
 212	1.0550e-01	8.5024	-0.527924	-0.000449	-4.485206	-1.519629	-0.036409
 213	1.0600e-01	8.5265	-0.200247	0.000807	8.073370	2.735332	0.065535
 214	1.0650e-01	8.5393	-0.236656	-0.000090	-0.897041	-0.303926	-0.007282
 215	1.0700e-01	8.6228	-0.127430	0.000269	2.691123	0.911777	0.021845
 216	1.0750e-01	8.6468	-0.236656	-0.000269	-2.691123	-0.911777	-0.021845
 217	1.0800e-01	8.6837	0.054613	0.000718	7.176329	2.431406	0.058254
 218	1.0850e-01	8.7447	-0.054613	-0.000269	-2.691123	-0.911777	-0.021845
 219	1.0900e-01	8.7719	0.018204	0.000179	1.794082	0.607852	0.014563
 220	1.0950e-01	8.7992	0.309473	0.000718	7.176329	2.431406	0.058254
 221	1.1000e-01	8.8425	-0.054613	-0.000897	-8.970411	-3.039258	-0.072817
 222	1.1050e-01	8.8746	0.200247	0.000628	6.279288	2.127480	0.050972
 223	1.1100e-01	8.9179	0.491516	0.000718	7.176329	2.431406	0.058254
 224	1.1150e-01	8.9452	0.491516	0.000000	0.000000	0.000000	0.000000
 225	1.1200e-01	9.0110	0.600742	0.000269	2.691123	0.911777	0.021845
 226	1.1250e-01	9.0399	0.418699	-0.000449	-4.485206	-1.519629	-0.036409
 227	1.1300e-01	9.0848	0.892010	0.001166	11.661534	3.951035	0.094662
 228	1.1350e-01	9.1217	0.491516	-0.000987	-9.867452	-3.343183	-0.080099
 229	1.1400e-01	9.1794	0.855602	0.000897	8.970411	3.039258	0.072817
 230	1.1450e-01	9.2083	0.673559	-0.000449	-4.485206	-1.519629	-0.036409
 231	1.1500e-01	9.2532	0.928419	0.000628	6.279288	2.127480	0.050972
 232	1.1550e-01	9.2773	1.037644	0.000269	2.691123	0.911777	0.021845
 233	1.1600e-01	9.3270	1.001236	-0.000090	-0.897041	-0.303926	-0.007282
 234	1.1650e-01	9.3751	0.819193	-0.000449	-4.485206	-1.519629	-0.036409
 235	1.1700e-01	9.3992	1.183279	0.000897	8.970411	3.039258	0.072817
 236	1.1750e-01	9.4393	1.146870	-0.000090	-0.897041	-0.303926	-0.007282
 237	1.1800e-01	9.4906	1.328913	0.000449	4.485206	1.519629	0.036409
 238	1.1850e-01	9.5291	1.146870	-0.000449	-4.485206	-1.519629	-0.036409
 239	1.1900e-01	9.5532	1.438139	0.000718	7.176329	2.431406	0.058254
 240	1.1950e-01	9.6094	1.219687	-0.000538	-5.382247	-1.823555	-0.043690
 241	1.2000e-01	9.6527	1.547365	0.000807	8.073370	2.735332	0.065535
 242	1.2050e-01	9.7088	1.474547	-0.000179	-1.794082	-0.607852	-0.014563
 243	1.2100e-01	9.7120	1.656590	0.000449	4.485206	1.519629	0.036409
 244	1.2150e-01	9.7698	1.692999	0.000090	0.897041	0.303926	0.007282
 245	1.2200e-01	9.8099	1.765816	0.000179	1.794082	0.607852	0.014563
 246	1.2250e-01	9.8484	1.729407	-0.000090	-0.897041	-0.303926	-0.007282
 247	1.2300e-01	9.9061	1.802225	0.000179	1.794082	0.607852	0.014563
 248	1.2350e-01	9.9254	2.093493	0.000718	7.176329	2.431406	0.058254
 249	1.2400e-01	9.9527	1.911450	-0.000449	-4.485206	-1.519629	-0.036409
 250	1.2450e-01	10.0056	1.947859	0.000090	0.897041	0.303926	0.007282
 251	1.2500e-01	10.0377	2.093493	0.000359	3.588164	1.215703	0.029127
 252	1.2550e-01	10.0601	2.384762	0.000718	7.176329	2.431406	0.058254
 253	1.2600e-01	10.1211	2.057085	-0.000807	-8.073370	-2.735332	-0.065535
 254	1.2650e-01	10.1660	2.384762	0.000807	8.073370	2.735332	0.065535
 255	1.2700e-01	10.2238	2.566805	0.000449	4.485206	1.519629	0.036409
 256	1.2750e-01	10.2334	2.239127	-0.000807	-8.073370	-2.735332	-0.065535
 257	1.2800e-01	10.2912	2.603213	0.000897	8.970411	3.039258	0.072817
 258	1.2850e-01	10.3040	2.712439	0.000269	2.691123	0.911777	0.021845
