»»»»»»»»»»»»»»»»»»»»»»»»»»»»»»»»»»»» Hysteresis ««««««««««««««««««««««««««««««««««««
»»»  Executed Version:	5.48.1
»»»  Vision Version:	5.48.4 (R)
»»»  Vision Compiled:	9/18/24
»»»  Driver Version:	5.47.0
»»»  Windows Version:	Windows 8 or 8.1
»»»  Processor Information:	x86 (AMD or Intel) - 32 Processors
»»»  Tester Name:	PMF21124-494 (100V)
»»»  Tester S/N:	PMF21124-494
»»»  Internal Amp Type:	100V RevK 270k
»»»  Internal Amp S/N:	iAB2-596/K     
»»»  Execution Count:	1
»»»»»»»»»»»»»»»»»»»»»»»»»»»»»»»»»»»»»»»»»»««««««««««««««««««««««««««««««««««««««««««

Stored:	10/8/2025 - 19:25:49
Configured:	10/08/25 04:22:59 PM
Executed:	10/08/25 07:25:03 PM

»»»»»»»»»»»»»»»»»»»»»»»»»»»»»»»»»»» Sample Info ««««««««««««««««««««««««««««««««««««
Sample Name:	Int. Ref. Ferroelectric
Lot Name:	N/A
Wafer Name:	N/A
Die Row/Column:	0/0
Capacitor Number:	0
Sample Area (cm2):	1.00e-04
Sample Thickness (microns):	3.00e-01

Amplifier:	Internal

»»»»»»»»»»»»»»»»»»»»»»»»»»»»»»»»»»» Tester Info «««««««««««««««««««««««««««««««««««
Tester Name:	PMF21124-494 (100V)
Tester Serial Number:	PMF21124-494
Return Signal Amp. Level:	0.02 [Index: 2]

»»»»»»»»»»»»»»»»»»»»»»»»»»»»»»»» Hysteresis Info ««««««««««««««««««««««««««««««««««
Task Name:	Hyste-8
Volts:	20.00
Field:	666.67 (kV/cm)
DCBias:	0.00
DCField:	0.00 (kV/cm)
Hysteresis Period (ms):	5.00e-01
Preset:	Enabled
Preset Delay (ms):	1.00e+03
Profile:	Standard Monopolar

»»»»»»»»»»»»»»»»»»»»»»»»»»»»»»»»»»»»»» Data «««««««««««««««««««««««««««««««««««««««
Points:	1001

Valid Data

Point	Time (ms)	Drive Voltage	Measured Polarization (uC/cm2)	Capacitance (uF)	Normalized Capacitance (uF/cm2)	Dielectric Constant	Instantaneous Current (mA)
   1	0.0000e+00	0.0305	-11.832788	0.000722	7.223051	2.447236	0.058254
   2	5.0000e-04	0.0738	-11.541519	0.000722	7.223051	2.447236	0.058254
   3	1.0000e-03	0.1155	-11.432293	0.000271	2.708644	0.917714	0.021845
   4	1.5000e-03	0.1444	-11.614336	-0.000451	-4.514407	-1.529523	-0.036409
   5	2.0000e-03	0.2037	-11.286659	0.000813	8.125933	2.753141	0.065535
   6	2.5000e-03	0.2454	-11.869196	-0.001445	-14.446103	-4.894472	-0.116507
   7	3.0000e-03	0.2839	-11.432293	0.001083	10.834577	3.670854	0.087381
   8	3.5000e-03	0.3273	-11.286659	0.000361	3.611526	1.223618	0.029127
   9	4.0000e-03	0.3593	-11.505110	-0.000542	-5.417288	-1.835427	-0.043690
  10	4.5000e-03	0.4139	-10.995390	0.001264	12.640340	4.282663	0.101944
  11	5.0000e-03	0.4171	-11.213842	-0.000542	-5.417288	-1.835427	-0.043690
  12	5.5000e-03	0.4700	-11.323067	-0.000271	-2.708644	-0.917714	-0.021845
  13	6.0000e-03	0.5118	-11.213842	0.000271	2.708644	0.917714	0.021845
  14	6.5000e-03	0.5695	-11.104616	0.000271	2.708644	0.917714	0.021845
  15	7.0000e-03	0.6000	-10.704122	0.000993	9.931696	3.364950	0.080099
  16	7.5000e-03	0.6513	-11.177433	-0.001174	-11.737458	-3.976759	-0.094662
  17	8.0000e-03	0.6577	-10.813347	0.000903	9.028814	3.059045	0.072817
  18	8.5000e-03	0.7219	-10.522079	0.000722	7.223051	2.447236	0.058254
  19	9.0000e-03	0.7444	-10.740530	-0.000542	-5.417288	-1.835427	-0.043690
  20	9.5000e-03	0.7829	-10.558487	0.000451	4.514407	1.529523	0.036409
  21	1.0000e-02	0.8454	-10.594896	-0.000090	-0.902881	-0.305905	-0.007282
  22	1.0500e-02	0.8759	-10.740530	-0.000361	-3.611526	-1.223618	-0.029127
  23	1.1000e-02	0.9064	-10.340036	0.000993	9.931696	3.364950	0.080099
  24	1.1500e-02	0.9449	-10.558487	-0.000542	-5.417288	-1.835427	-0.043690
  25	1.2000e-02	0.9850	-10.376444	0.000451	4.514407	1.529523	0.036409
  26	1.2500e-02	1.0315	-10.121584	0.000632	6.320170	2.141332	0.050972
  27	1.3000e-02	1.0780	-10.085176	0.000090	0.902881	0.305905	0.007282
  28	1.3500e-02	1.1165	-10.303627	-0.000542	-5.417288	-1.835427	-0.043690
  29	1.4000e-02	1.1679	-10.048767	0.000632	6.320170	2.141332	0.050972
  30	1.4500e-02	1.2016	-10.121584	-0.000181	-1.805763	-0.611809	-0.014563
  31	1.5000e-02	1.2465	-10.085176	0.000090	0.902881	0.305905	0.007282
  32	1.5500e-02	1.2673	-9.903133	0.000451	4.514407	1.529523	0.036409
  33	1.6000e-02	1.3010	-10.012359	-0.000271	-2.708644	-0.917714	-0.021845
  34	1.6500e-02	1.3700	-9.575456	0.001083	10.834577	3.670854	0.087381
  35	1.7000e-02	1.3877	-9.575456	0.000000	0.000000	0.000000	0.000000
  36	1.7500e-02	1.4502	-9.684681	-0.000271	-2.708644	-0.917714	-0.021845
  37	1.8000e-02	1.4775	-9.757499	-0.000181	-1.805763	-0.611809	-0.014563
  38	1.8500e-02	1.5160	-9.684681	0.000181	1.805763	0.611809	0.014563
  39	1.9000e-02	1.5673	-9.757499	-0.000181	-1.805763	-0.611809	-0.014563
  40	1.9500e-02	1.5850	-9.721090	0.000090	0.902881	0.305905	0.007282
  41	2.0000e-02	1.6540	-9.320596	0.000993	9.931696	3.364950	0.080099
  42	2.0500e-02	1.6716	-9.575456	-0.000632	-6.320170	-2.141332	-0.050972
  43	2.1000e-02	1.7021	-9.429821	0.000361	3.611526	1.223618	0.029127
  44	2.1500e-02	1.7695	-9.320596	0.000271	2.708644	0.917714	0.021845
  45	2.2000e-02	1.8032	-9.138553	0.000451	4.514407	1.529523	0.036409
  46	2.2500e-02	1.8417	-9.065736	0.000181	1.805763	0.611809	0.014563
  47	2.3000e-02	1.8721	-9.284187	-0.000542	-5.417288	-1.835427	-0.043690
  48	2.3500e-02	1.9283	-9.029327	0.000632	6.320170	2.141332	0.050972
  49	2.4000e-02	1.9443	-8.847284	0.000451	4.514407	1.529523	0.036409
  50	2.4500e-02	1.9957	-8.810876	0.000090	0.902881	0.305905	0.007282
  51	2.5000e-02	2.0261	-8.665241	0.000361	3.611526	1.223618	0.029127
  52	2.5500e-02	2.0855	-8.847284	-0.000451	-4.514407	-1.529523	-0.036409
  53	2.6000e-02	2.0999	-8.701650	0.000361	3.611526	1.223618	0.029127
  54	2.6500e-02	2.1769	-8.556016	0.000361	3.611526	1.223618	0.029127
  55	2.7000e-02	2.2042	-8.446790	0.000271	2.708644	0.917714	0.021845
  56	2.7500e-02	2.2299	-8.665241	-0.000542	-5.417288	-1.835427	-0.043690
  57	2.8000e-02	2.2812	-8.410381	0.000632	6.320170	2.141332	0.050972
  58	2.8500e-02	2.3165	-8.373973	0.000090	0.902881	0.305905	0.007282
  59	2.9000e-02	2.3791	-8.228338	0.000361	3.611526	1.223618	0.029127
  60	2.9500e-02	2.4096	-8.410381	-0.000451	-4.514407	-1.529523	-0.036409
  61	3.0000e-02	2.4336	-8.628833	-0.000542	-5.417288	-1.835427	-0.043690
  62	3.0500e-02	2.4673	-8.337564	0.000722	7.223051	2.447236	0.058254
  63	3.1000e-02	2.5090	-8.082704	0.000632	6.320170	2.141332	0.050972
  64	3.1500e-02	2.5716	-8.446790	-0.000903	-9.028814	-3.059045	-0.072817
  65	3.2000e-02	2.5908	-8.009887	0.001083	10.834577	3.670854	0.087381
  66	3.2500e-02	2.6406	-8.119113	-0.000271	-2.708644	-0.917714	-0.021845
  67	3.3000e-02	2.6967	-7.973478	0.000361	3.611526	1.223618	0.029127
  68	3.3500e-02	2.7144	-8.082704	-0.000271	-2.708644	-0.917714	-0.021845
  69	3.4000e-02	2.7593	-7.755027	0.000813	8.125933	2.753141	0.065535
  70	3.4500e-02	2.8138	-7.390941	0.000903	9.028814	3.059045	0.072817
  71	3.5000e-02	2.8363	-7.900661	-0.001264	-12.640340	-4.282663	-0.101944
  72	3.5500e-02	2.8764	-7.755027	0.000361	3.611526	1.223618	0.029127
  73	3.6000e-02	2.9197	-7.864253	-0.000271	-2.708644	-0.917714	-0.021845
  74	3.6500e-02	2.9454	-7.572984	0.000722	7.223051	2.447236	0.058254
  75	3.7000e-02	3.0079	-7.463758	0.000271	2.708644	0.917714	0.021845
  76	3.7500e-02	3.0368	-7.572984	-0.000271	-2.708644	-0.917714	-0.021845
  77	3.8000e-02	3.0673	-7.500167	0.000181	1.805763	0.611809	0.014563
  78	3.8500e-02	3.1315	-7.390941	0.000271	2.708644	0.917714	0.021845
  79	3.9000e-02	3.1475	-7.172490	0.000542	5.417288	1.835427	0.043690
  80	3.9500e-02	3.2069	-7.354533	-0.000451	-4.514407	-1.529523	-0.036409
  81	4.0000e-02	3.2293	-7.245307	0.000271	2.708644	0.917714	0.021845
  82	4.0500e-02	3.2742	-7.208898	0.000090	0.902881	0.305905	0.007282
  83	4.1000e-02	3.3143	-7.063264	0.000361	3.611526	1.223618	0.029127
  84	4.1500e-02	3.3561	-6.626361	0.001083	10.834577	3.670854	0.087381
  85	4.2000e-02	3.3946	-7.136081	-0.001264	-12.640340	-4.282663	-0.101944
  86	4.2500e-02	3.4475	-6.699178	0.001083	10.834577	3.670854	0.087381
  87	4.3000e-02	3.4651	-7.099673	-0.000993	-9.931696	-3.364950	-0.080099
  88	4.3500e-02	3.5165	-6.553544	0.001354	13.543221	4.588568	0.109226
  89	4.4000e-02	3.5662	-6.699178	-0.000361	-3.611526	-1.223618	-0.029127
  90	4.4500e-02	3.6015	-6.844812	-0.000361	-3.611526	-1.223618	-0.029127
  91	4.5000e-02	3.6416	-6.626361	0.000542	5.417288	1.835427	0.043690
  92	4.5500e-02	3.6705	-6.699178	-0.000181	-1.805763	-0.611809	-0.014563
  93	4.6000e-02	3.7266	-6.262275	0.001083	10.834577	3.670854	0.087381
  94	4.6500e-02	3.7555	-6.735587	-0.001174	-11.737458	-3.976759	-0.094662
  95	4.7000e-02	3.8020	-6.335092	0.000993	9.931696	3.364950	0.080099
  96	4.7500e-02	3.8101	-6.407910	-0.000181	-1.805763	-0.611809	-0.014563
  97	4.8000e-02	3.8822	-6.589952	-0.000451	-4.514407	-1.529523	-0.036409
  98	4.8500e-02	3.9304	-5.679738	0.002257	22.572035	7.647613	0.182043
  99	4.9000e-02	3.9576	-6.407910	-0.001806	-18.057628	-6.118090	-0.145634
 100	4.9500e-02	4.0218	-6.116641	0.000722	7.223051	2.447236	0.058254
 101	5.0000e-02	4.0395	-6.262275	-0.000361	-3.611526	-1.223618	-0.029127
 102	5.0500e-02	4.0748	-5.971007	0.000722	7.223051	2.447236	0.058254
 103	5.1000e-02	4.1309	-6.080232	-0.000271	-2.708644	-0.917714	-0.021845
 104	5.1500e-02	4.1630	-5.971007	0.000271	2.708644	0.917714	0.021845
 105	5.2000e-02	4.2015	-5.606921	0.000903	9.028814	3.059045	0.072817
 106	5.2500e-02	4.2496	-5.752555	-0.000361	-3.611526	-1.223618	-0.029127
 107	5.3000e-02	4.2913	-5.133609	0.001535	15.348984	5.200377	0.123789
 108	5.3500e-02	4.3378	-5.679738	-0.001354	-13.543221	-4.588568	-0.109226
 109	5.4000e-02	4.3362	-5.716147	0.000090	0.902881	0.305905	-0.007282
 110	5.4500e-02	4.4004	-5.679738	0.000090	0.902881	0.305905	0.007282
 111	5.5000e-02	4.4501	-5.570512	0.000271	2.708644	0.917714	0.021845
 112	5.5500e-02	4.4870	-5.825372	-0.000632	-6.320170	-2.141332	-0.050972
 113	5.6000e-02	4.5271	-5.461287	0.000903	9.028814	3.059045	0.072817
 114	5.6500e-02	4.5592	-5.170018	0.000722	7.223051	2.447236	0.058254
 115	5.7000e-02	4.6025	-5.206427	-0.000090	-0.902881	-0.305905	-0.007282
 116	5.7500e-02	4.6394	-5.206427	0.000000	0.000000	0.000000	0.000000
 117	5.8000e-02	4.6683	-5.279244	-0.000181	-1.805763	-0.611809	-0.014563
 118	5.8500e-02	4.7277	-5.279244	0.000000	0.000000	0.000000	0.000000
 119	5.9000e-02	4.7694	-4.696706	0.001445	14.446103	4.894472	0.116507
 120	5.9500e-02	4.7999	-5.279244	-0.001445	-14.446103	-4.894472	-0.116507
 121	6.0000e-02	4.8303	-4.769524	0.001264	12.640340	4.282663	0.101944
 122	6.0500e-02	4.8865	-5.024384	-0.000632	-6.320170	-2.141332	-0.050972
 123	6.1000e-02	4.9025	-4.951566	0.000181	1.805763	0.611809	0.014563
 124	6.1500e-02	4.9603	-4.878749	0.000181	1.805763	0.611809	0.014563
 125	6.2000e-02	5.0277	-4.915158	-0.000090	-0.902881	-0.305905	-0.007282
 126	6.2500e-02	5.0421	-5.024384	-0.000271	-2.708644	-0.917714	-0.021845
 127	6.3000e-02	5.0886	-4.769524	0.000632	6.320170	2.141332	0.050972
 128	6.3500e-02	5.1384	-4.623889	0.000361	3.611526	1.223618	0.029127
 129	6.4000e-02	5.1656	-4.587481	0.000090	0.902881	0.305905	0.007282
 130	6.4500e-02	5.1897	-4.733115	-0.000361	-3.611526	-1.223618	-0.029127
 131	6.5000e-02	5.2282	-4.514664	0.000542	5.417288	1.835427	0.043690
 132	6.5500e-02	5.2892	-4.441846	0.000181	1.805763	0.611809	0.014563
 133	6.6000e-02	5.3196	-4.441846	0.000000	0.000000	0.000000	0.000000
 134	6.6500e-02	5.3501	-4.623889	-0.000451	-4.514407	-1.529523	-0.036409
 135	6.7000e-02	5.3998	-4.259804	0.000903	9.028814	3.059045	0.072817
 136	6.7500e-02	5.4416	-4.332621	-0.000181	-1.805763	-0.611809	-0.014563
 137	6.8000e-02	5.4977	-4.041352	0.000722	7.223051	2.447236	0.058254
 138	6.8500e-02	5.5186	-4.150578	-0.000271	-2.708644	-0.917714	-0.021845
 139	6.9000e-02	5.5587	-4.004943	0.000361	3.611526	1.223618	0.029127
 140	6.9500e-02	5.6228	-3.750083	0.000632	6.320170	2.141332	0.050972
 141	7.0000e-02	5.6373	-3.822901	-0.000181	-1.805763	-0.611809	-0.014563
 142	7.0500e-02	5.6790	-3.859309	-0.000090	-0.902881	-0.305905	-0.007282
 143	7.1000e-02	5.7351	-4.004943	-0.000361	-3.611526	-1.223618	-0.029127
 144	7.1500e-02	5.7544	-4.041352	-0.000090	-0.902881	-0.305905	-0.007282
 145	7.2000e-02	5.8266	-3.385998	0.001625	16.251865	5.506281	0.131071
 146	7.2500e-02	5.8218	-3.822901	0.001083	10.834577	3.670854	-0.087381
 147	7.3000e-02	5.9004	-4.077761	-0.000632	-6.320170	-2.141332	-0.050972
 148	7.3500e-02	5.9196	-3.495223	0.001445	14.446103	4.894472	0.116507
 149	7.4000e-02	5.9613	-3.750083	-0.000632	-6.320170	-2.141332	-0.050972
 150	7.4500e-02	6.0095	-3.422406	0.000813	8.125933	2.753141	0.065535
 151	7.5000e-02	6.0335	-3.495223	-0.000181	-1.805763	-0.611809	-0.014563
 152	7.5500e-02	6.0736	-3.385998	0.000271	2.708644	0.917714	0.021845
 153	7.6000e-02	6.1153	-3.167546	0.000542	5.417288	1.835427	0.043690
 154	7.6500e-02	6.1603	-3.531632	-0.000903	-9.028814	-3.059045	-0.072817
 155	7.7000e-02	6.2052	-3.276772	0.000632	6.320170	2.141332	0.050972
 156	7.7500e-02	6.2357	-3.313181	-0.000090	-0.902881	-0.305905	-0.007282
 157	7.8000e-02	6.2918	-3.058320	0.000632	6.320170	2.141332	0.050972
 158	7.8500e-02	6.3062	-3.058320	0.000000	0.000000	0.000000	0.000000
 159	7.9000e-02	6.3720	-3.021912	0.000090	0.902881	0.305905	0.007282
 160	7.9500e-02	6.4089	-2.876278	0.000361	3.611526	1.223618	0.029127
 161	8.0000e-02	6.4426	-2.803460	0.000181	1.805763	0.611809	0.014563
 162	8.0500e-02	6.4923	-3.131138	-0.000813	-8.125933	-2.753141	-0.065535
 163	8.1000e-02	6.4939	-3.240363	-0.000271	-2.708644	-0.917714	-0.021845
 164	8.1500e-02	6.5645	-2.767052	0.001174	11.737458	3.976759	0.094662
 165	8.2000e-02	6.6014	-2.839869	-0.000181	-1.805763	-0.611809	-0.014563
 166	8.2500e-02	6.6367	-2.730643	0.000271	2.708644	0.917714	0.021845
 167	8.3000e-02	6.6495	-3.094729	-0.000903	-9.028814	-3.059045	-0.072817
 168	8.3500e-02	6.7442	-2.293740	0.001986	19.863391	6.729899	0.160198
 169	8.4000e-02	6.7586	-2.839869	-0.001354	-13.543221	-4.588568	-0.109226
 170	8.4500e-02	6.7811	-2.657826	0.000451	4.514407	1.529523	0.036409
 171	8.5000e-02	6.8421	-2.621418	0.000090	0.902881	0.305905	0.007282
 172	8.5500e-02	6.8741	-2.657826	-0.000090	-0.902881	-0.305905	-0.007282
 173	8.6000e-02	6.9383	-2.366558	0.000722	7.223051	2.447236	0.058254
 174	8.6500e-02	6.9367	-2.220923	-0.000361	-3.611526	-1.223618	0.029127
 175	8.7000e-02	7.0073	-2.184515	0.000090	0.902881	0.305905	0.007282
 176	8.7500e-02	7.0297	-1.929655	0.000632	6.320170	2.141332	0.050972
 177	8.8000e-02	7.0731	-2.184515	-0.000632	-6.320170	-2.141332	-0.050972
 178	8.8500e-02	7.1116	-2.038880	0.000361	3.611526	1.223618	0.029127
 179	8.9000e-02	7.1453	-2.220923	-0.000451	-4.514407	-1.529523	-0.036409
 180	8.9500e-02	7.2062	-2.002472	0.000542	5.417288	1.835427	0.043690
 181	9.0000e-02	7.2335	-2.184515	-0.000451	-4.514407	-1.529523	-0.036409
 182	9.0500e-02	7.2720	-1.747612	0.001083	10.834577	3.670854	0.087381
 183	9.1000e-02	7.3217	-1.784020	-0.000090	-0.902881	-0.305905	-0.007282
 184	9.1500e-02	7.3731	-1.747612	0.000090	0.902881	0.305905	0.007282
 185	9.2000e-02	7.3939	-1.747612	0.000000	0.000000	0.000000	0.000000
 186	9.2500e-02	7.4709	-1.492752	0.000632	6.320170	2.141332	0.050972
 187	9.3000e-02	7.4821	-1.747612	-0.000632	-6.320170	-2.141332	-0.050972
 188	9.3500e-02	7.5062	-1.856837	-0.000271	-2.708644	-0.917714	-0.021845
 189	9.4000e-02	7.5607	-1.638386	0.000542	5.417288	1.835427	0.043690
 190	9.4500e-02	7.6073	-1.565569	0.000181	1.805763	0.611809	0.014563
 191	9.5000e-02	7.6378	-1.492752	0.000181	1.805763	0.611809	0.014563
 192	9.5500e-02	7.6811	-1.638386	-0.000361	-3.611526	-1.223618	-0.029127
 193	9.6000e-02	7.7260	-1.492752	0.000361	3.611526	1.223618	0.029127
 194	9.6500e-02	7.7500	-1.419935	0.000181	1.805763	0.611809	0.014563
 195	9.7000e-02	7.8062	-1.128666	0.000722	7.223051	2.447236	0.058254
 196	9.7500e-02	7.8399	-1.165074	-0.000090	-0.902881	-0.305905	-0.007282
 197	9.8000e-02	7.8752	-1.529160	-0.000903	-9.028814	-3.059045	-0.072817
 198	9.8500e-02	7.9233	-1.383526	0.000361	3.611526	1.223618	0.029127
 199	9.9000e-02	7.9458	-1.019440	0.000903	9.028814	3.059045	0.072817
 200	9.9500e-02	8.0147	-0.946623	0.000181	1.805763	0.611809	0.014563
 201	1.0000e-01	8.0452	-1.092257	-0.000361	-3.611526	-1.223618	-0.029127
 202	1.0050e-01	8.0934	-1.128666	-0.000090	-0.902881	-0.305905	-0.007282
 203	1.0100e-01	8.1367	-0.837397	0.000722	7.223051	2.447236	0.058254
 204	1.0150e-01	8.1704	-0.546129	0.000722	7.223051	2.447236	0.058254
 205	1.0200e-01	8.2089	-1.019440	-0.001174	-11.737458	-3.976759	-0.094662
 206	1.0250e-01	8.2538	-0.546129	0.001174	11.737458	3.976759	0.094662
 207	1.0300e-01	8.2746	-0.691763	-0.000361	-3.611526	-1.223618	-0.029127
 208	1.0350e-01	8.3147	-0.873806	-0.000451	-4.514407	-1.529523	-0.036409
 209	1.0400e-01	8.3629	-0.800989	0.000181	1.805763	0.611809	0.014563
 210	1.0450e-01	8.4030	-0.582537	0.000542	5.417288	1.835427	0.043690
 211	1.0500e-01	8.4351	-0.582537	0.000000	0.000000	0.000000	0.000000
 212	1.0550e-01	8.4912	-0.509720	0.000181	1.805763	0.611809	0.014563
 213	1.0600e-01	8.5329	-0.728172	-0.000542	-5.417288	-1.835427	-0.043690
 214	1.0650e-01	8.5490	-0.546129	0.000451	4.514407	1.529523	0.036409
 215	1.0700e-01	8.6099	0.000000	0.001354	13.543221	4.588568	0.109226
 216	1.0750e-01	8.6340	-0.618946	-0.001535	-15.348984	-5.200377	-0.123789
 217	1.0800e-01	8.6677	-0.072817	0.001354	13.543221	4.588568	0.109226
 218	1.0850e-01	8.7270	-0.327677	-0.000632	-6.320170	-2.141332	-0.050972
 219	1.0900e-01	8.7719	-0.072817	0.000632	6.320170	2.141332	0.050972
 220	1.0950e-01	8.8121	0.000000	0.000181	1.805763	0.611809	0.014563
 221	1.1000e-01	8.8249	-0.618946	-0.001535	-15.348984	-5.200377	-0.123789
 222	1.1050e-01	8.8714	-0.109226	0.001264	12.640340	4.282663	0.101944
 223	1.1100e-01	8.9308	0.000000	0.000271	2.708644	0.917714	0.021845
 224	1.1150e-01	8.9612	0.072817	0.000181	1.805763	0.611809	0.014563
 225	1.1200e-01	9.0030	0.473312	0.000993	9.931696	3.364950	0.080099
 226	1.1250e-01	9.0431	0.109226	-0.000903	-9.028814	-3.059045	-0.072817
 227	1.1300e-01	9.0784	0.582537	0.001174	11.737458	3.976759	0.094662
 228	1.1350e-01	9.1329	0.400494	-0.000451	-4.514407	-1.529523	-0.036409
 229	1.1400e-01	9.1409	0.218451	-0.000451	-4.514407	-1.529523	-0.036409
 230	1.1450e-01	9.2227	0.364086	0.000361	3.611526	1.223618	0.029127
 231	1.1500e-01	9.2404	0.364086	0.000000	0.000000	0.000000	0.000000
 232	1.1550e-01	9.2869	0.655354	0.000722	7.223051	2.447236	0.058254
 233	1.1600e-01	9.3094	0.218451	-0.001083	-10.834577	-3.670854	-0.087381
 234	1.1650e-01	9.3591	0.509720	0.000722	7.223051	2.447236	0.058254
 235	1.1700e-01	9.4072	0.618946	0.000271	2.708644	0.917714	0.021845
 236	1.1750e-01	9.4425	0.728172	0.000271	2.708644	0.917714	0.021845
 237	1.1800e-01	9.5067	0.655354	-0.000181	-1.805763	-0.611809	-0.014563
 238	1.1850e-01	9.5035	0.800989	-0.000361	-3.611526	-1.223618	0.029127
 239	1.1900e-01	9.5452	0.764580	-0.000090	-0.902881	-0.305905	-0.007282
 240	1.1950e-01	9.5917	0.873806	0.000271	2.708644	0.917714	0.021845
 241	1.2000e-01	9.6479	0.837397	-0.000090	-0.902881	-0.305905	-0.007282
 242	1.2050e-01	9.7024	1.055849	0.000542	5.417288	1.835427	0.043690
 243	1.2100e-01	9.7120	1.092257	0.000090	0.902881	0.305905	0.007282
 244	1.2150e-01	9.7441	0.837397	-0.000632	-6.320170	-2.141332	-0.050972
 245	1.2200e-01	9.8115	0.837397	0.000000	0.000000	0.000000	0.000000
 246	1.2250e-01	9.8388	1.055849	0.000542	5.417288	1.835427	0.043690
 247	1.2300e-01	9.9029	1.128666	0.000181	1.805763	0.611809	0.014563
 248	1.2350e-01	9.9366	1.456343	0.000813	8.125933	2.753141	0.065535
 249	1.2400e-01	9.9350	1.347117	0.000271	2.708644	0.917714	-0.021845
 250	1.2450e-01	10.0152	1.274300	-0.000181	-1.805763	-0.611809	-0.014563
 251	1.2500e-01	10.0297	1.274300	0.000000	0.000000	0.000000	0.000000
 252	1.2550e-01	10.0666	1.383526	0.000271	2.708644	0.917714	0.021845
 253	1.2600e-01	10.1131	1.383526	0.000000	0.000000	0.000000	0.000000
 254	1.2650e-01	10.1676	1.347117	-0.000090	-0.902881	-0.305905	-0.007282
 255	1.2700e-01	10.2109	1.383526	0.000090	0.902881	0.305905	0.007282
 256	1.2750e-01	10.2350	1.237892	-0.000361	-3.611526	-1.223618	-0.029127
 257	1.2800e-01	10.2976	1.856837	0.001535	15.348984	5.200377	0.123789
 258	1.2850e-01	10.3232	1.893246	0.000090	0.902881	0.305905	0.007282
 259	1.2900e-01	10.3617	1.565569	-0.000813	-8.125933	-2.753141	-0.065535
