»»»»»»»»»»»»»»»»»»»»»»»»»»»»»»»»»»»» Hysteresis ««««««««««««««««««««««««««««««««««««
»»»  Executed Version:	5.48.1
»»»  Vision Version:	5.48.4 (R)
»»»  Vision Compiled:	9/18/24
»»»  Driver Version:	5.47.0
»»»  Windows Version:	Windows 8 or 8.1
»»»  Processor Information:	x86 (AMD or Intel) - 32 Processors
»»»  Tester Name:	PMF21124-494 (100V)
»»»  Tester S/N:	PMF21124-494
»»»  Internal Amp Type:	100V RevK 270k
»»»  Internal Amp S/N:	iAB2-596/K     
»»»  Execution Count:	1
»»»»»»»»»»»»»»»»»»»»»»»»»»»»»»»»»»»»»»»»»»««««««««««««««««««««««««««««««««««««««««««

Stored:	10/8/2025 - 19:43:56
Configured:	10/08/25 04:22:59 PM
Executed:	10/08/25 07:43:33 PM

»»»»»»»»»»»»»»»»»»»»»»»»»»»»»»»»»»» Sample Info ««««««««««««««««««««««««««««««««««««
Sample Name:	Int. Ref. Ferroelectric
Lot Name:	N/A
Wafer Name:	N/A
Die Row/Column:	0/0
Capacitor Number:	0
Sample Area (cm2):	1.00e-04
Sample Thickness (microns):	3.00e-01

Amplifier:	Internal

»»»»»»»»»»»»»»»»»»»»»»»»»»»»»»»»»»» Tester Info «««««««««««««««««««««««««««««««««««
Tester Name:	PMF21124-494 (100V)
Tester Serial Number:	PMF21124-494
Return Signal Amp. Level:	1.9 [Index: 2]

»»»»»»»»»»»»»»»»»»»»»»»»»»»»»»»» Hysteresis Info ««««««««««««««««««««««««««««««««««
Task Name:	Hyste-8
Volts:	20.00
Field:	666.67 (kV/cm)
DCBias:	0.00
DCField:	0.00 (kV/cm)
Hysteresis Period (ms):	1.00e+02
Preset:	Enabled
Preset Delay (ms):	1.00e+03
Profile:	Standard Monopolar

»»»»»»»»»»»»»»»»»»»»»»»»»»»»»»»»»»»»»» Data «««««««««««««««««««««««««««««««««««««««
Points:	2001

Valid Data

Point	Time (ms)	Drive Voltage	Measured Polarization (uC/cm2)	Capacitance (uF)	Normalized Capacitance (uF/cm2)	Dielectric Constant	Instantaneous Current (mA)
   1	0.0000e+00	0.0193	-13.636607	0.000070	0.696986	0.236145	0.000033
   2	5.0000e-02	0.0465	-13.620313	0.000070	0.696986	0.236145	0.000033
   3	1.0000e-01	0.0754	-13.584467	0.000153	1.533370	0.519520	0.000072
   4	1.5000e-01	0.0963	-13.546584	0.000162	1.620493	0.549038	0.000076
   5	2.0000e-01	0.0850	-13.506664	-0.000171	-1.707616	-0.578556	0.000080
   6	2.5000e-01	0.0914	-13.468781	0.000162	1.620493	0.549038	0.000076
   7	3.0000e-01	0.1171	-13.432121	0.000157	1.568219	0.531327	0.000073
   8	3.5000e-01	0.1749	-13.389757	0.000181	1.812164	0.613978	0.000085
   9	4.0000e-01	0.1813	-13.353504	0.000155	1.550794	0.525423	0.000073
  10	4.5000e-01	0.1909	-13.314399	0.000167	1.672767	0.566749	0.000078
  11	5.0000e-01	0.2246	-13.278552	0.000153	1.533370	0.519520	0.000072
  12	5.5000e-01	0.2262	-13.234559	0.000188	1.881863	0.637592	0.000088
  13	6.0000e-01	0.2551	-13.197899	0.000157	1.568219	0.531327	0.000073
  14	6.5000e-01	0.2727	-13.161238	0.000157	1.568219	0.531327	0.000073
  15	7.0000e-01	0.2952	-13.119282	0.000179	1.794739	0.608074	0.000084
  16	7.5000e-01	0.2952	-13.082213	-0.000159	-1.585643	-0.537231	0.000074
  17	8.0000e-01	0.3465	-13.044738	0.000160	1.603068	0.543134	0.000075
  18	8.5000e-01	0.3577	-13.005633	0.000167	1.672767	0.566749	0.000078
  19	9.0000e-01	0.3850	-12.968157	0.000160	1.603068	0.543134	0.000075
  20	9.5000e-01	0.3962	-12.924164	0.000188	1.881863	0.637592	0.000088
  21	1.0000e+00	0.4075	-12.889133	0.000150	1.498520	0.507712	0.000070
  22	1.0500e+00	0.4476	-12.847991	0.000176	1.759890	0.596267	0.000082
  23	1.1000e+00	0.4668	-12.806850	0.000176	1.759890	0.596267	0.000082
  24	1.1500e+00	0.4620	-12.765708	-0.000176	-1.759890	-0.596267	0.000082
  25	1.2000e+00	0.5021	-12.733528	0.000138	1.376548	0.466387	0.000064
  26	1.2500e+00	0.5198	-12.693201	0.000173	1.725041	0.584460	0.000081
  27	1.3000e+00	0.5342	-12.652467	0.000174	1.742465	0.590363	0.000081
  28	1.3500e+00	0.5807	-12.619472	0.000141	1.411397	0.478194	0.000066
  29	1.4000e+00	0.5775	-12.578738	-0.000174	-1.742465	-0.590363	0.000081
  30	1.4500e+00	0.6176	-12.540040	0.000166	1.655342	0.560845	0.000077
  31	1.5000e+00	0.6144	-12.500936	-0.000167	-1.672767	-0.566749	0.000078
  32	1.5500e+00	0.6465	-12.460201	0.000174	1.742465	0.590363	0.000081
  33	1.6000e+00	0.6561	-12.416616	0.000186	1.864438	0.631689	0.000087
  34	1.6500e+00	0.6866	-12.379140	0.000160	1.603068	0.543134	0.000075
  35	1.7000e+00	0.6962	-12.340443	0.000166	1.655342	0.560845	0.000077
  36	1.7500e+00	0.7107	-12.303374	0.000159	1.585643	0.537231	0.000074
  37	1.8000e+00	0.7315	-12.269158	0.000146	1.463671	0.495905	0.000068
  38	1.8500e+00	0.7540	-12.232089	0.000159	1.585643	0.537231	0.000074
  39	1.9000e+00	0.7668	-12.189726	0.000181	1.812164	0.613978	0.000085
  40	1.9500e+00	0.8133	-12.153472	0.000155	1.550794	0.525423	0.000073
  41	2.0000e+00	0.8230	-12.115590	0.000162	1.620493	0.549038	0.000076
  42	2.0500e+00	0.8502	-12.076077	0.000169	1.690191	0.572652	0.000079
  43	2.1000e+00	0.8631	-12.034936	0.000176	1.759890	0.596267	0.000082
  44	2.1500e+00	0.8791	-11.999090	0.000153	1.533370	0.519520	0.000072
  45	2.2000e+00	0.9032	-11.959170	0.000171	1.707616	0.578556	0.000080
  46	2.2500e+00	0.9337	-11.920065	0.000167	1.672767	0.566749	0.000078
  47	2.3000e+00	0.9321	-11.887478	-0.000139	-1.393972	-0.472291	0.000065
  48	2.3500e+00	0.9625	-11.845114	0.000181	1.812164	0.613978	0.000085
  49	2.4000e+00	0.9978	-11.810083	0.000150	1.498520	0.507712	0.000070
  50	2.4500e+00	1.0059	-11.769756	0.000173	1.725041	0.584460	0.000081
  51	2.5000e+00	1.0026	-11.736354	-0.000143	-1.428822	-0.484098	0.000067
  52	2.5500e+00	1.0235	-11.692768	0.000186	1.864438	0.631689	0.000087
  53	2.6000e+00	1.0379	-11.656514	0.000155	1.550794	0.525423	0.000073
  54	2.6500e+00	1.0861	-11.618224	0.000164	1.637917	0.554941	0.000077
  55	2.7000e+00	1.0796	-11.582785	-0.000152	-1.515945	-0.513616	0.000071
  56	2.7500e+00	1.1165	-11.539200	0.000186	1.864438	0.631689	0.000087
  57	2.8000e+00	1.1470	-11.507020	0.000138	1.376548	0.466387	0.000064
  58	2.8500e+00	1.1695	-11.470359	0.000157	1.568219	0.531327	0.000073
  59	2.9000e+00	1.2128	-11.432069	0.000164	1.637917	0.554941	0.000077
  60	2.9500e+00	1.1871	-11.394593	-0.000160	-1.603068	-0.543134	0.000075
  61	3.0000e+00	1.2240	-11.356710	0.000162	1.620493	0.549038	0.000076
  62	3.0500e+00	1.2529	-11.320050	0.000157	1.568219	0.531327	0.000073
  63	3.1000e+00	1.2625	-11.284203	0.000153	1.533370	0.519520	0.000072
  64	3.1500e+00	1.2770	-11.247135	0.000159	1.585643	0.537231	0.000074
  65	3.2000e+00	1.2946	-11.206401	0.000174	1.742465	0.590363	0.000081
  66	3.2500e+00	1.3379	-11.168925	0.000160	1.603068	0.543134	0.000075
  67	3.3000e+00	1.3267	-11.133487	-0.000152	-1.515945	-0.513616	0.000071
  68	3.3500e+00	1.3588	-11.095604	0.000162	1.620493	0.549038	0.000076
  69	3.4000e+00	1.3780	-11.061387	0.000146	1.463671	0.495905	0.000068
  70	3.4500e+00	1.3909	-11.018616	0.000183	1.829589	0.619881	0.000086
  71	3.5000e+00	1.4149	-10.984399	0.000146	1.463671	0.495905	0.000068
  72	3.5500e+00	1.4214	-10.944072	0.000173	1.725041	0.584460	0.000081
  73	3.6000e+00	1.4711	-10.911078	0.000141	1.411397	0.478194	0.000066
  74	3.6500e+00	1.4695	-10.870751	-0.000173	-1.725041	-0.584460	0.000081
  75	3.7000e+00	1.4823	-10.832868	0.000162	1.620493	0.549038	0.000076
  76	3.7500e+00	1.5320	-10.794985	0.000162	1.620493	0.549038	0.000076
  77	3.8000e+00	1.5657	-10.759139	0.000153	1.533370	0.519520	0.000072
  78	3.8500e+00	1.5465	-10.721663	-0.000160	-1.603068	-0.543134	0.000075
  79	3.9000e+00	1.5834	-10.684595	0.000159	1.585643	0.537231	0.000074
  80	3.9500e+00	1.5850	-10.650378	0.000146	1.463671	0.495905	0.000068
  81	4.0000e+00	1.6171	-10.612088	0.000164	1.637917	0.554941	0.000077
  82	4.0500e+00	1.6411	-10.575835	0.000155	1.550794	0.525423	0.000073
  83	4.1000e+00	1.6716	-10.542433	0.000143	1.428822	0.484098	0.000067
  84	4.1500e+00	1.6828	-10.503735	0.000166	1.655342	0.560845	0.000077
  85	4.2000e+00	1.6973	-10.466260	0.000160	1.603068	0.543134	0.000075
  86	4.2500e+00	1.7069	-10.429599	0.000157	1.568219	0.531327	0.000073
  87	4.3000e+00	1.7518	-10.390901	0.000166	1.655342	0.560845	0.000077
  88	4.3500e+00	1.7422	-10.356684	-0.000146	-1.463671	-0.495905	0.000068
  89	4.4000e+00	1.7903	-10.322060	0.000148	1.481096	0.501809	0.000069
  90	4.4500e+00	1.7887	-10.286214	-0.000153	-1.533370	-0.519520	0.000072
  91	4.5000e+00	1.8352	-10.248739	0.000160	1.603068	0.543134	0.000075
  92	4.5500e+00	1.8320	-10.217781	-0.000132	-1.324274	-0.448676	0.000062
  93	4.6000e+00	1.8625	-10.177046	0.000174	1.742465	0.590363	0.000081
  94	4.6500e+00	1.8513	-10.143644	-0.000143	-1.428822	-0.484098	0.000067
  95	4.7000e+00	1.8978	-10.105354	0.000164	1.637917	0.554941	0.000077
  96	4.7500e+00	1.9106	-10.070323	0.000150	1.498520	0.507712	0.000070
  97	4.8000e+00	1.9251	-10.029996	0.000173	1.725041	0.584460	0.000081
  98	4.8500e+00	1.9475	-9.998630	0.000134	1.341698	0.454580	0.000063
  99	4.9000e+00	1.9604	-9.959118	0.000169	1.690191	0.572652	0.000079
 100	4.9500e+00	2.0117	-9.927345	0.000136	1.359123	0.460483	0.000064
 101	5.0000e+00	2.0069	-9.890277	-0.000159	-1.585643	-0.537231	0.000074
 102	5.0500e+00	2.0342	-9.852802	0.000160	1.603068	0.543134	0.000075
 103	5.1000e+00	2.0566	-9.816141	0.000157	1.568219	0.531327	0.000073
 104	5.1500e+00	2.0855	-9.780702	0.000152	1.515945	0.513616	0.000071
 105	5.2000e+00	2.1112	-9.746485	0.000146	1.463671	0.495905	0.000068
 106	5.2500e+00	2.1240	-9.709010	0.000160	1.603068	0.543134	0.000075
 107	5.3000e+00	2.1561	-9.675200	0.000145	1.446246	0.490001	0.000068
 108	5.3500e+00	2.1689	-9.643020	0.000138	1.376548	0.466387	0.000064
 109	5.4000e+00	2.1898	-9.602693	0.000173	1.725041	0.584460	0.000081
 110	5.4500e+00	2.1802	-9.571328	-0.000134	-1.341698	-0.454580	0.000063
 111	5.5000e+00	2.2507	-9.533852	0.000160	1.603068	0.543134	0.000075
 112	5.5500e+00	2.2235	-9.502080	-0.000136	-1.359123	-0.460483	0.000064
 113	5.6000e+00	2.2395	-9.469492	0.000139	1.393972	0.472291	0.000065
 114	5.6500e+00	2.2620	-9.431609	0.000162	1.620493	0.549038	0.000076
 115	5.7000e+00	2.2844	-9.401466	0.000129	1.289424	0.436869	0.000060
 116	5.7500e+00	2.3101	-9.370101	0.000134	1.341698	0.454580	0.000063
 117	5.8000e+00	2.3149	-9.332218	0.000162	1.620493	0.549038	0.000076
 118	5.8500e+00	2.3582	-9.299223	0.000141	1.411397	0.478194	0.000066
 119	5.9000e+00	2.3871	-9.262970	0.000155	1.550794	0.525423	0.000073
 120	5.9500e+00	2.4015	-9.236900	0.000112	1.115178	0.377832	0.000052
 121	6.0000e+00	2.4096	-9.201461	0.000152	1.515945	0.513616	0.000071
 122	6.0500e+00	2.4384	-9.168059	0.000143	1.428822	0.484098	0.000067
 123	6.1000e+00	2.4625	-9.130991	0.000159	1.585643	0.537231	0.000074
 124	6.1500e+00	2.4946	-9.097181	0.000145	1.446246	0.490001	0.000068
 125	6.2000e+00	2.4769	-9.067038	-0.000129	-1.289424	-0.436869	0.000060
 126	6.2500e+00	2.4994	-9.028748	0.000164	1.637917	0.554941	0.000077
 127	6.3000e+00	2.5475	-8.990050	0.000166	1.655342	0.560845	0.000077
 128	6.3500e+00	2.5620	-8.961536	0.000122	1.219726	0.413254	0.000057
 129	6.4000e+00	2.6005	-8.925283	0.000155	1.550794	0.525423	0.000073
 130	6.4500e+00	2.5844	-8.887807	-0.000160	-1.603068	-0.543134	0.000075
 131	6.5000e+00	2.6149	-8.857664	0.000129	1.289424	0.436869	0.000060
 132	6.5500e+00	2.6486	-8.821003	0.000157	1.568219	0.531327	0.000073
 133	6.6000e+00	2.6358	-8.784749	-0.000155	-1.550794	-0.525423	0.000073
 134	6.6500e+00	2.6983	-8.752977	0.000136	1.359123	0.460483	0.000064
 135	6.7000e+00	2.6887	-8.719982	-0.000141	-1.411397	-0.478194	0.000066
 136	6.7500e+00	2.7256	-8.685765	0.000146	1.463671	0.495905	0.000068
 137	6.8000e+00	2.7448	-8.647882	0.000162	1.620493	0.549038	0.000076
 138	6.8500e+00	2.7657	-8.620183	0.000118	1.184876	0.401447	0.000055
 139	6.9000e+00	2.8074	-8.581078	0.000167	1.672767	0.566749	0.000078
 140	6.9500e+00	2.8170	-8.546047	0.000150	1.498520	0.507712	0.000070
 141	7.0000e+00	2.8202	-8.516718	0.000125	1.254575	0.425062	0.000059
 142	7.0500e+00	2.8170	-8.482909	-0.000145	-1.446246	-0.490001	0.000068
 143	7.1000e+00	2.8475	-8.443804	0.000167	1.672767	0.566749	0.000078
 144	7.1500e+00	2.8684	-8.409994	0.000145	1.446246	0.490001	0.000068
 145	7.2000e+00	2.9037	-8.372926	0.000159	1.585643	0.537231	0.000074
 146	7.2500e+00	2.9133	-8.337895	0.000150	1.498520	0.507712	0.000070
 147	7.3000e+00	2.9229	-8.304085	0.000145	1.446246	0.490001	0.000068
 148	7.3500e+00	2.9582	-8.271905	0.000138	1.376548	0.466387	0.000064
 149	7.4000e+00	2.9694	-8.237281	0.000148	1.481096	0.501809	0.000069
 150	7.4500e+00	3.0031	-8.199806	0.000160	1.603068	0.543134	0.000075
 151	7.5000e+00	3.0111	-8.172106	0.000118	1.184876	0.401447	0.000055
 152	7.5500e+00	3.0272	-8.136260	0.000153	1.533370	0.519520	0.000072
 153	7.6000e+00	3.0384	-8.098785	0.000160	1.603068	0.543134	0.000075
 154	7.6500e+00	3.0609	-8.065383	0.000143	1.428822	0.484098	0.000067
 155	7.7000e+00	3.0930	-8.025463	0.000171	1.707616	0.578556	0.000080
 156	7.7500e+00	3.1042	-7.996134	0.000125	1.254575	0.425062	0.000059
 157	7.8000e+00	3.1443	-7.958251	0.000162	1.620493	0.549038	0.000076
 158	7.8500e+00	3.1523	-7.923627	0.000148	1.481096	0.501809	0.000069
 159	7.9000e+00	3.1748	-7.891040	0.000139	1.393972	0.472291	0.000065
 160	7.9500e+00	3.2085	-7.851528	0.000169	1.690191	0.572652	0.000079
 161	8.0000e+00	3.2406	-7.818940	0.000139	1.393972	0.472291	0.000065
 162	8.0500e+00	3.1924	-7.784316	-0.000148	-1.481096	-0.501809	0.000069
 163	8.1000e+00	3.2598	-7.757839	0.000113	1.132602	0.383736	0.000053
 164	8.1500e+00	3.2855	-7.718734	0.000167	1.672767	0.566749	0.000078
 165	8.2000e+00	3.2839	-7.685739	-0.000141	-1.411397	-0.478194	0.000066
 166	8.2500e+00	3.3176	-7.648264	0.000160	1.603068	0.543134	0.000075
 167	8.3000e+00	3.3384	-7.615676	0.000139	1.393972	0.472291	0.000065
 168	8.3500e+00	3.3913	-7.591236	0.000105	1.045479	0.354218	0.000049
 169	8.4000e+00	3.3913	-7.555390	-0.000153	-1.533370	-0.519520	0.000072
 170	8.4500e+00	3.3978	-7.519544	0.000153	1.533370	0.519520	0.000072
 171	8.5000e+00	3.4106	-7.486141	0.000143	1.428822	0.484098	0.000067
 172	8.5500e+00	3.4411	-7.452739	0.000143	1.428822	0.484098	0.000067
 173	8.6000e+00	3.4523	-7.420967	0.000136	1.359123	0.460483	0.000064
 174	8.6500e+00	3.4619	-7.387972	0.000141	1.411397	0.478194	0.000066
 175	8.7000e+00	3.5085	-7.354570	0.000143	1.428822	0.484098	0.000067
 176	8.7500e+00	3.5309	-7.318316	0.000155	1.550794	0.525423	0.000073
 177	8.8000e+00	3.5261	-7.290617	-0.000118	-1.184876	-0.401447	0.000055
 178	8.8500e+00	3.5694	-7.257622	0.000141	1.411397	0.478194	0.000066
 179	8.9000e+00	3.5726	-7.226664	0.000132	1.324274	0.448676	0.000062
 180	8.9500e+00	3.6015	-7.194484	0.000138	1.376548	0.466387	0.000064
 181	9.0000e+00	3.6224	-7.162304	0.000138	1.376548	0.466387	0.000064
 182	9.0500e+00	3.6352	-7.126458	0.000153	1.533370	0.519520	0.000072
 183	9.1000e+00	3.6785	-7.094278	0.000138	1.376548	0.466387	0.000064
 184	9.1500e+00	3.6673	-7.060468	-0.000145	-1.446246	-0.490001	0.000068
 185	9.2000e+00	3.6849	-7.029510	0.000132	1.324274	0.448676	0.000062
 186	9.2500e+00	3.7411	-6.997738	0.000136	1.359123	0.460483	0.000064
 187	9.3000e+00	3.7587	-6.967594	0.000129	1.289424	0.436869	0.000060
 188	9.3500e+00	3.7619	-6.930526	0.000159	1.585643	0.537231	0.000074
 189	9.4000e+00	3.7844	-6.902012	0.000122	1.219726	0.413254	0.000057
 190	9.4500e+00	3.8165	-6.866573	0.000152	1.515945	0.513616	0.000071
 191	9.5000e+00	3.7972	-6.834393	-0.000138	-1.376548	-0.466387	0.000064
 192	9.5500e+00	3.8325	-6.803435	0.000132	1.324274	0.448676	0.000062
 193	9.6000e+00	3.8710	-6.765960	0.000160	1.603068	0.543134	0.000075
 194	9.6500e+00	3.8566	-6.738260	-0.000118	-1.184876	-0.401447	0.000055
 195	9.7000e+00	3.9031	-6.705673	0.000139	1.393972	0.472291	0.000065
 196	9.7500e+00	3.9127	-6.676344	0.000125	1.254575	0.425062	0.000059
 197	9.8000e+00	3.9464	-6.639276	0.000159	1.585643	0.537231	0.000074
 198	9.8500e+00	3.9528	-6.611170	0.000120	1.202301	0.407351	0.000056
 199	9.9000e+00	3.9657	-6.576545	0.000148	1.481096	0.501809	0.000069
 200	9.9500e+00	4.0122	-6.545995	0.000131	1.306849	0.442772	0.000061
 201	1.0000e+01	4.0266	-6.513815	0.000138	1.376548	0.466387	0.000064
 202	1.0050e+01	4.0459	-6.478783	0.000150	1.498520	0.507712	0.000070
 203	1.0100e+01	4.0491	-6.450677	0.000120	1.202301	0.407351	0.000056
 204	1.0150e+01	4.0715	-6.418904	0.000136	1.359123	0.460483	0.000064
 205	1.0200e+01	4.1020	-6.385909	0.000141	1.411397	0.478194	0.000066
 206	1.0250e+01	4.1116	-6.355358	0.000131	1.306849	0.442772	0.000061
 207	1.0300e+01	4.1550	-6.323586	0.000136	1.359123	0.460483	0.000064
 208	1.0350e+01	4.1550	-6.289369	-0.000146	-1.463671	-0.495905	0.000068
 209	1.0400e+01	4.1694	-6.257596	0.000136	1.359123	0.460483	0.000064
 210	1.0450e+01	4.2127	-6.226638	0.000132	1.324274	0.448676	0.000062
 211	1.0500e+01	4.2223	-6.193643	0.000141	1.411397	0.478194	0.000066
 212	1.0550e+01	4.2448	-6.165537	0.000120	1.202301	0.407351	0.000056
 213	1.0600e+01	4.2496	-6.133764	0.000136	1.359123	0.460483	0.000064
 214	1.0650e+01	4.2737	-6.099547	0.000146	1.463671	0.495905	0.000068
 215	1.0700e+01	4.3138	-6.068589	0.000132	1.324274	0.448676	0.000062
 216	1.0750e+01	4.3026	-6.034373	-0.000146	-1.463671	-0.495905	0.000068
 217	1.0800e+01	4.3346	-6.003007	0.000134	1.341698	0.454580	0.000063
 218	1.0850e+01	4.3667	-5.974086	0.000124	1.237150	0.419158	0.000058
 219	1.0900e+01	4.3876	-5.937018	0.000159	1.585643	0.537231	0.000074
 220	1.0950e+01	4.4068	-5.908504	0.000122	1.219726	0.413254	0.000057
 221	1.1000e+01	4.4245	-5.876324	0.000138	1.376548	0.466387	0.000064
 222	1.1050e+01	4.4245	-5.848624	-0.000118	-1.184876	-0.401447	0.000055
 223	1.1100e+01	4.4325	-5.814000	0.000148	1.481096	0.501809	0.000069
 224	1.1150e+01	4.4919	-5.778154	0.000153	1.533370	0.519520	0.000072
 225	1.1200e+01	4.4902	-5.752899	-0.000108	-1.080329	-0.366025	0.000051
 226	1.1250e+01	4.5320	-5.721126	0.000136	1.359123	0.460483	0.000064
 227	1.1300e+01	4.5560	-5.689353	0.000136	1.359123	0.460483	0.000064
 228	1.1350e+01	4.5785	-5.656359	0.000141	1.411397	0.478194	0.000066
 229	1.1400e+01	4.5721	-5.628659	-0.000118	-1.184876	-0.401447	0.000055
 230	1.1450e+01	4.5817	-5.593221	0.000152	1.515945	0.513616	0.000071
 231	1.1500e+01	4.6346	-5.567151	0.000112	1.115178	0.377832	0.000052
 232	1.1550e+01	4.6507	-5.533749	0.000143	1.428822	0.484098	0.000067
 233	1.1600e+01	4.6619	-5.499532	0.000146	1.463671	0.495905	0.000068
 234	1.1650e+01	4.6779	-5.471425	0.000120	1.202301	0.407351	0.000056
 235	1.1700e+01	4.6956	-5.439245	0.000138	1.376548	0.466387	0.000064
 236	1.1750e+01	4.7517	-5.409509	0.000127	1.272000	0.430965	0.000059
 237	1.1800e+01	4.7229	-5.376922	-0.000139	-1.393972	-0.472291	0.000065
 238	1.1850e+01	4.7469	-5.346778	0.000129	1.289424	0.436869	0.000060
 239	1.1900e+01	4.7694	-5.315820	0.000132	1.324274	0.448676	0.000062
 240	1.1950e+01	4.7694	-5.287306	-0.000122	-1.219726	-0.413254	0.000057
 241	1.2000e+01	4.8191	-5.254312	0.000141	1.411397	0.478194	0.000066
 242	1.2050e+01	4.8464	-5.224576	0.000127	1.272000	0.430965	0.000059
 243	1.2100e+01	4.8528	-5.196876	0.000118	1.184876	0.401447	0.000055
 244	1.2150e+01	4.8897	-5.165511	0.000134	1.341698	0.454580	0.000063
 245	1.2200e+01	4.8945	-5.131294	0.000146	1.463671	0.495905	0.000068
 246	1.2250e+01	4.9250	-5.101151	0.000129	1.289424	0.436869	0.000060
 247	1.2300e+01	4.9298	-5.074266	0.000115	1.150027	0.389640	0.000054
 248	1.2350e+01	4.9314	-5.042901	0.000134	1.341698	0.454580	0.000063
 249	1.2400e+01	4.9827	-5.012757	0.000129	1.289424	0.436869	0.000060
 250	1.2450e+01	4.9876	-4.977726	0.000150	1.498520	0.507712	0.000070
 251	1.2500e+01	5.0309	-4.950841	0.000115	1.150027	0.389640	0.000054
 252	1.2550e+01	5.0277	-4.917439	-0.000143	-1.428822	-0.484098	0.000067
 253	1.2600e+01	5.0598	-4.885259	0.000138	1.376548	0.466387	0.000064
 254	1.2650e+01	5.1015	-4.855931	0.000125	1.254575	0.425062	0.000059
 255	1.2700e+01	5.0886	-4.824973	-0.000132	-1.324274	-0.448676	0.000062
 256	1.2750e+01	5.0854	-4.797273	-0.000118	-1.184876	-0.401447	0.000055
 257	1.2800e+01	5.1335	-4.765093	0.000138	1.376548	0.466387	0.000064
 258	1.2850e+01	5.1624	-4.734135	0.000132	1.324274	0.448676	0.000062
 259	1.2900e+01	5.1496	-4.703992	-0.000129	-1.289424	-0.436869	0.000060
 260	1.2950e+01	5.1865	-4.675070	0.000124	1.237150	0.419158	0.000058
 261	1.3000e+01	5.2154	-4.644520	0.000131	1.306849	0.442772	0.000061
 262	1.3050e+01	5.2362	-4.611525	0.000141	1.411397	0.478194	0.000066
