»»»»»»»»»»»»»»»»»»»»»»»»»»»»»»»»»»»» Hysteresis ««««««««««««««««««««««««««««««««««««
»»»  Executed Version:	5.48.1
»»»  Vision Version:	5.48.4 (R)
»»»  Vision Compiled:	9/18/24
»»»  Driver Version:	5.47.0
»»»  Windows Version:	Windows 8 or 8.1
»»»  Processor Information:	x86 (AMD or Intel) - 32 Processors
»»»  Tester Name:	PMF21124-494 (100V)
»»»  Tester S/N:	PMF21124-494
»»»  Internal Amp Type:	100V RevK 270k
»»»  Internal Amp S/N:	iAB2-596/K     
»»»  Execution Count:	1
»»»»»»»»»»»»»»»»»»»»»»»»»»»»»»»»»»»»»»»»»»««««««««««««««««««««««««««««««««««««««««««

Stored:	10/8/2025 - 19:31:28
Configured:	10/08/25 04:22:59 PM
Executed:	10/08/25 07:30:43 PM

»»»»»»»»»»»»»»»»»»»»»»»»»»»»»»»»»»» Sample Info ««««««««««««««««««««««««««««««««««««
Sample Name:	Int. Ref. Ferroelectric
Lot Name:	N/A
Wafer Name:	N/A
Die Row/Column:	0/0
Capacitor Number:	0
Sample Area (cm2):	1.00e-04
Sample Thickness (microns):	3.00e-01

Amplifier:	Internal

»»»»»»»»»»»»»»»»»»»»»»»»»»»»»»»»»»» Tester Info «««««««««««««««««««««««««««««««««««
Tester Name:	PMF21124-494 (100V)
Tester Serial Number:	PMF21124-494
Return Signal Amp. Level:	0.02 [Index: 2]

»»»»»»»»»»»»»»»»»»»»»»»»»»»»»»»» Hysteresis Info ««««««««««««««««««««««««««««««««««
Task Name:	Hyste-8
Volts:	20.00
Field:	666.67 (kV/cm)
DCBias:	0.00
DCField:	0.00 (kV/cm)
Hysteresis Period (ms):	5.00e-01
Preset:	Enabled
Preset Delay (ms):	1.00e+03
Profile:	Standard Monopolar

»»»»»»»»»»»»»»»»»»»»»»»»»»»»»»»»»»»»»» Data «««««««««««««««««««««««««««««««««««««««
Points:	1001

Valid Data

Point	Time (ms)	Drive Voltage	Measured Polarization (uC/cm2)	Capacitance (uF)	Normalized Capacitance (uF/cm2)	Dielectric Constant	Instantaneous Current (mA)
   1	0.0000e+00	0.0321	-8.956510	-0.000724	-7.239025	-2.452648	-0.058254
   2	5.0000e-04	0.0578	-9.247779	-0.000724	-7.239025	-2.452648	-0.058254
   3	1.0000e-03	0.1219	-8.883693	0.000905	9.048781	3.065810	0.072817
   4	1.5000e-03	0.1588	-8.847284	0.000090	0.904878	0.306581	0.007282
   5	2.0000e-03	0.2086	-9.102144	-0.000633	-6.334147	-2.146067	-0.050972
   6	2.5000e-03	0.2438	-8.665241	0.001086	10.858537	3.678972	0.087381
   7	3.0000e-03	0.2872	-9.029327	-0.000905	-9.048781	-3.065810	-0.072817
   8	3.5000e-03	0.2936	-8.920101	0.000271	2.714634	0.919743	0.021845
   9	4.0000e-03	0.3417	-8.810876	0.000271	2.714634	0.919743	0.021845
  10	4.5000e-03	0.4283	-8.628833	0.000452	4.524390	1.532905	0.036409
  11	5.0000e-03	0.4444	-8.301156	0.000814	8.143903	2.759229	0.065535
  12	5.5000e-03	0.4909	-8.446790	-0.000362	-3.619512	-1.226324	-0.029127
  13	6.0000e-03	0.5053	-8.628833	-0.000452	-4.524390	-1.532905	-0.036409
  14	6.5000e-03	0.5631	-8.701650	-0.000181	-1.809756	-0.613162	-0.014563
  15	7.0000e-03	0.6048	-8.082704	0.001538	15.382927	5.211877	0.123789
  16	7.5000e-03	0.6289	-8.373973	-0.000724	-7.239025	-2.452648	-0.058254
  17	8.0000e-03	0.6754	-8.301156	0.000181	1.809756	0.613162	0.014563
  18	8.5000e-03	0.7171	-8.373973	-0.000181	-1.809756	-0.613162	-0.014563
  19	9.0000e-03	0.7668	-8.119113	0.000633	6.334147	2.146067	0.050972
  20	9.5000e-03	0.7941	-8.191930	-0.000181	-1.809756	-0.613162	-0.014563
  21	1.0000e-02	0.8422	-7.791435	0.000995	9.953659	3.372391	0.080099
  22	1.0500e-02	0.8807	-8.009887	-0.000543	-5.429268	-1.839486	-0.043690
  23	1.1000e-02	0.9128	-8.046296	-0.000090	-0.904878	-0.306581	-0.007282
  24	1.1500e-02	0.9609	-7.827844	0.000543	5.429268	1.839486	0.043690
  25	1.2000e-02	0.9994	-8.082704	-0.000633	-6.334147	-2.146067	-0.050972
  26	1.2500e-02	1.0315	-7.827844	0.000633	6.334147	2.146067	0.050972
  27	1.3000e-02	1.0989	-7.463758	0.000905	9.048781	3.065810	0.072817
  28	1.3500e-02	1.1246	-7.572984	-0.000271	-2.714634	-0.919743	-0.021845
  29	1.4000e-02	1.1663	-7.718618	-0.000362	-3.619512	-1.226324	-0.029127
  30	1.4500e-02	1.2000	-7.682210	0.000090	0.904878	0.306581	0.007282
  31	1.5000e-02	1.2545	-7.609393	0.000181	1.809756	0.613162	0.014563
  32	1.5500e-02	1.2786	-7.718618	-0.000271	-2.714634	-0.919743	-0.021845
  33	1.6000e-02	1.3395	-7.427350	0.000724	7.239025	2.452648	0.058254
  34	1.6500e-02	1.3668	-7.318124	0.000271	2.714634	0.919743	0.021845
  35	1.7000e-02	1.4021	-7.536575	-0.000543	-5.429268	-1.839486	-0.043690
  36	1.7500e-02	1.4631	-7.427350	0.000271	2.714634	0.919743	0.021845
  37	1.8000e-02	1.4615	-7.682210	0.000633	6.334147	2.146067	-0.050972
  38	1.8500e-02	1.5353	-7.245307	0.001086	10.858537	3.678972	0.087381
  39	1.9000e-02	1.5497	-7.390941	-0.000362	-3.619512	-1.226324	-0.029127
  40	1.9500e-02	1.6026	-7.281715	0.000271	2.714634	0.919743	0.021845
  41	2.0000e-02	1.6508	-7.172490	0.000271	2.714634	0.919743	0.021845
  42	2.0500e-02	1.6764	-7.172490	0.000000	0.000000	0.000000	0.000000
  43	2.1000e-02	1.7438	-6.954038	0.000543	5.429268	1.839486	0.043690
  44	2.1500e-02	1.7518	-7.136081	-0.000452	-4.524390	-1.532905	-0.036409
  45	2.2000e-02	1.7983	-6.771995	0.000905	9.048781	3.065810	0.072817
  46	2.2500e-02	1.8753	-6.917630	-0.000362	-3.619512	-1.226324	-0.029127
  47	2.3000e-02	1.8818	-6.735587	0.000452	4.524390	1.532905	0.036409
  48	2.3500e-02	1.9187	-6.881221	-0.000362	-3.619512	-1.226324	-0.029127
  49	2.4000e-02	1.9844	-6.844812	0.000090	0.904878	0.306581	0.007282
  50	2.4500e-02	1.9909	-6.954038	-0.000271	-2.714634	-0.919743	-0.021845
  51	2.5000e-02	2.0502	-6.699178	0.000633	6.334147	2.146067	0.050972
  52	2.5500e-02	2.0807	-6.771995	-0.000181	-1.809756	-0.613162	-0.014563
  53	2.6000e-02	2.1176	-6.589952	0.000452	4.524390	1.532905	0.036409
  54	2.6500e-02	2.1481	-6.480727	0.000271	2.714634	0.919743	0.021845
  55	2.7000e-02	2.2042	-6.735587	-0.000633	-6.334147	-2.146067	-0.050972
  56	2.7500e-02	2.2443	-6.662770	0.000181	1.809756	0.613162	0.014563
  57	2.8000e-02	2.2844	-6.589952	0.000181	1.809756	0.613162	0.014563
  58	2.8500e-02	2.3358	-5.898189	0.001719	17.192683	5.825039	0.138353
  59	2.9000e-02	2.3406	-6.480727	-0.001448	-14.478049	-4.905296	-0.116507
  60	2.9500e-02	2.4128	-6.407910	0.000181	1.809756	0.613162	0.014563
  61	3.0000e-02	2.4336	-6.189458	0.000543	5.429268	1.839486	0.043690
  62	3.0500e-02	2.4946	-6.298684	-0.000271	-2.714634	-0.919743	-0.021845
  63	3.1000e-02	2.5331	-6.153050	0.000362	3.619512	1.226324	0.029127
  64	3.1500e-02	2.5796	-6.043824	0.000271	2.714634	0.919743	0.021845
  65	3.2000e-02	2.6085	-5.934598	0.000271	2.714634	0.919743	0.021845
  66	3.2500e-02	2.6277	-5.971007	-0.000090	-0.904878	-0.306581	-0.007282
  67	3.3000e-02	2.6839	-6.043824	-0.000181	-1.809756	-0.613162	-0.014563
  68	3.3500e-02	2.7256	-5.971007	0.000181	1.809756	0.613162	0.014563
  69	3.4000e-02	2.7497	-5.716147	0.000633	6.334147	2.146067	0.050972
  70	3.4500e-02	2.7962	-5.861781	-0.000362	-3.619512	-1.226324	-0.029127
  71	3.5000e-02	2.8539	-6.043824	-0.000452	-4.524390	-1.532905	-0.036409
  72	3.5500e-02	2.8828	-5.679738	0.000905	9.048781	3.065810	0.072817
  73	3.6000e-02	2.9133	-5.643329	0.000090	0.904878	0.306581	0.007282
  74	3.6500e-02	2.9726	-5.534104	0.000271	2.714634	0.919743	0.021845
  75	3.7000e-02	2.9999	-5.934598	-0.000995	-9.953659	-3.372391	-0.080099
  76	3.7500e-02	3.0464	-5.825372	0.000271	2.714634	0.919743	0.021845
  77	3.8000e-02	3.0753	-5.643329	0.000452	4.524390	1.532905	0.036409
  78	3.8500e-02	3.1234	-5.461287	0.000452	4.524390	1.532905	0.036409
  79	3.9000e-02	3.1411	-5.388469	0.000181	1.809756	0.613162	0.014563
  80	3.9500e-02	3.2277	-5.133609	0.000633	6.334147	2.146067	0.050972
  81	4.0000e-02	3.2566	-5.461287	-0.000814	-8.143903	-2.759229	-0.065535
  82	4.0500e-02	3.2726	-5.716147	-0.000633	-6.334147	-2.146067	-0.050972
  83	4.1000e-02	3.3336	-5.388469	0.000814	8.143903	2.759229	0.065535
  84	4.1500e-02	3.3577	-5.242835	0.000362	3.619512	1.226324	0.029127
  85	4.2000e-02	3.3962	-5.424878	-0.000452	-4.524390	-1.532905	-0.036409
  86	4.2500e-02	3.4475	-5.315652	0.000271	2.714634	0.919743	0.021845
  87	4.3000e-02	3.4716	-5.170018	0.000362	3.619512	1.226324	0.029127
  88	4.3500e-02	3.5309	-5.170018	0.000000	0.000000	0.000000	0.000000
  89	4.4000e-02	3.5662	-4.987975	0.000452	4.524390	1.532905	0.036409
  90	4.4500e-02	3.6143	-4.951566	0.000090	0.904878	0.306581	0.007282
  91	4.5000e-02	3.6416	-4.805932	0.000362	3.619512	1.226324	0.029127
  92	4.5500e-02	3.6849	-4.915158	-0.000271	-2.714634	-0.919743	-0.021845
  93	4.6000e-02	3.7282	-4.915158	0.000000	0.000000	0.000000	0.000000
  94	4.6500e-02	3.7651	-4.551072	0.000905	9.048781	3.065810	0.072817
  95	4.7000e-02	3.8084	-4.842341	-0.000724	-7.239025	-2.452648	-0.058254
  96	4.7500e-02	3.8373	-4.259804	0.001448	14.478049	4.905296	0.116507
  97	4.8000e-02	3.8790	-5.060792	-0.001991	-19.907318	-6.744782	-0.160198
  98	4.8500e-02	3.9240	-4.805932	0.000633	6.334147	2.146067	0.050972
  99	4.9000e-02	3.9753	-4.733115	0.000181	1.809756	0.613162	0.014563
 100	4.9500e-02	4.0058	-4.332621	0.000995	9.953659	3.372391	0.080099
 101	5.0000e-02	4.0427	-4.478255	-0.000362	-3.619512	-1.226324	-0.029127
 102	5.0500e-02	4.1020	-4.842341	-0.000905	-9.048781	-3.065810	-0.072817
 103	5.1000e-02	4.1421	-4.223395	0.001538	15.382927	5.211877	0.123789
 104	5.1500e-02	4.1582	-4.150578	0.000181	1.809756	0.613162	0.014563
 105	5.2000e-02	4.2031	-4.551072	-0.000995	-9.953659	-3.372391	-0.080099
 106	5.2500e-02	4.2496	-4.223395	0.000814	8.143903	2.759229	0.065535
 107	5.3000e-02	4.3042	-4.186986	0.000090	0.904878	0.306581	0.007282
 108	5.3500e-02	4.3138	-4.150578	0.000090	0.904878	0.306581	0.007282
 109	5.4000e-02	4.3378	-4.114169	0.000090	0.904878	0.306581	0.007282
 110	5.4500e-02	4.4181	-4.150578	-0.000090	-0.904878	-0.306581	-0.007282
 111	5.5000e-02	4.4325	-4.041352	0.000271	2.714634	0.919743	0.021845
 112	5.5500e-02	4.4951	-3.968535	0.000181	1.809756	0.613162	0.014563
 113	5.6000e-02	4.5127	-4.041352	-0.000181	-1.809756	-0.613162	-0.014563
 114	5.6500e-02	4.5656	-3.968535	0.000181	1.809756	0.613162	0.014563
 115	5.7000e-02	4.6122	-4.296212	-0.000814	-8.143903	-2.759229	-0.065535
 116	5.7500e-02	4.6282	-3.859309	0.001086	10.858537	3.678972	0.087381
 117	5.8000e-02	4.7036	-3.713675	0.000362	3.619512	1.226324	0.029127
 118	5.8500e-02	4.7309	-3.750083	-0.000090	-0.904878	-0.306581	-0.007282
 119	5.9000e-02	4.7822	-3.932126	-0.000452	-4.524390	-1.532905	-0.036409
 120	5.9500e-02	4.8047	-3.568041	0.000905	9.048781	3.065810	0.072817
 121	6.0000e-02	4.8496	-3.822901	-0.000633	-6.334147	-2.146067	-0.050972
 122	6.0500e-02	4.8993	-3.859309	-0.000090	-0.904878	-0.306581	-0.007282
 123	6.1000e-02	4.9186	-3.750083	0.000271	2.714634	0.919743	0.021845
 124	6.1500e-02	4.9731	-3.276772	0.001176	11.763415	3.985553	0.094662
 125	6.2000e-02	4.9860	-3.276772	0.000000	0.000000	0.000000	0.000000
 126	6.2500e-02	5.0261	-3.568041	-0.000724	-7.239025	-2.452648	-0.058254
 127	6.3000e-02	5.0870	-3.531632	0.000090	0.904878	0.306581	0.007282
 128	6.3500e-02	5.1143	-3.276772	0.000633	6.334147	2.146067	0.050972
 129	6.4000e-02	5.1528	-3.422406	-0.000362	-3.619512	-1.226324	-0.029127
 130	6.4500e-02	5.2089	-3.276772	0.000362	3.619512	1.226324	0.029127
 131	6.5000e-02	5.2667	-3.203955	0.000181	1.809756	0.613162	0.014563
 132	6.5500e-02	5.2747	-3.276772	-0.000181	-1.809756	-0.613162	-0.014563
 133	6.6000e-02	5.3244	-3.131138	0.000362	3.619512	1.226324	0.029127
 134	6.6500e-02	5.3517	-3.458815	-0.000814	-8.143903	-2.759229	-0.065535
 135	6.7000e-02	5.3966	-2.876278	0.001448	14.478049	4.905296	0.116507
 136	6.7500e-02	5.4448	-3.021912	-0.000362	-3.619512	-1.226324	-0.029127
 137	6.8000e-02	5.4993	-3.131138	-0.000271	-2.714634	-0.919743	-0.021845
 138	6.8500e-02	5.5234	-3.313181	-0.000452	-4.524390	-1.532905	-0.036409
 139	6.9000e-02	5.5956	-2.985503	0.000814	8.143903	2.759229	0.065535
 140	6.9500e-02	5.6020	-2.839869	0.000362	3.619512	1.226324	0.029127
 141	7.0000e-02	5.6469	-2.912686	-0.000181	-1.809756	-0.613162	-0.014563
 142	7.0500e-02	5.6742	-2.585009	0.000814	8.143903	2.759229	0.065535
 143	7.1000e-02	5.7143	-2.876278	-0.000724	-7.239025	-2.452648	-0.058254
 144	7.1500e-02	5.7849	-2.402966	0.001176	11.763415	3.985553	0.094662
 145	7.2000e-02	5.7993	-2.621418	-0.000543	-5.429268	-1.839486	-0.043690
 146	7.2500e-02	5.8234	-2.585009	0.000090	0.904878	0.306581	0.007282
 147	7.3000e-02	5.8635	-2.548600	0.000090	0.904878	0.306581	0.007282
 148	7.3500e-02	5.9148	-2.585009	-0.000090	-0.904878	-0.306581	-0.007282
 149	7.4000e-02	5.9726	-2.585009	0.000000	0.000000	0.000000	0.000000
 150	7.4500e-02	6.0062	-2.694235	-0.000271	-2.714634	-0.919743	-0.021845
 151	7.5000e-02	6.0431	-2.257332	0.001086	10.858537	3.678972	0.087381
 152	7.5500e-02	6.0865	-2.548600	-0.000724	-7.239025	-2.452648	-0.058254
 153	7.6000e-02	6.1282	-2.657826	-0.000271	-2.714634	-0.919743	-0.021845
 154	7.6500e-02	6.1474	-2.548600	0.000271	2.714634	0.919743	0.021845
 155	7.7000e-02	6.2180	-2.512192	0.000090	0.904878	0.306581	0.007282
 156	7.7500e-02	6.2613	-2.184515	0.000814	8.143903	2.759229	0.065535
 157	7.8000e-02	6.2709	-2.475783	-0.000724	-7.239025	-2.452648	-0.058254
 158	7.8500e-02	6.3287	-2.111697	0.000905	9.048781	3.065810	0.072817
 159	7.9000e-02	6.3656	-2.330149	-0.000543	-5.429268	-1.839486	-0.043690
 160	7.9500e-02	6.3800	-2.148106	0.000452	4.524390	1.532905	0.036409
 161	8.0000e-02	6.4442	-1.856837	0.000724	7.239025	2.452648	0.058254
 162	8.0500e-02	6.4907	-2.257332	-0.000995	-9.953659	-3.372391	-0.080099
 163	8.1000e-02	6.4955	-2.257332	0.000000	0.000000	0.000000	0.000000
 164	8.1500e-02	6.5517	-2.002472	0.000633	6.334147	2.146067	0.050972
 165	8.2000e-02	6.5950	-2.366558	-0.000905	-9.048781	-3.065810	-0.072817
 166	8.2500e-02	6.6335	-1.820429	0.001357	13.573171	4.598715	0.109226
 167	8.3000e-02	6.6640	-1.966063	-0.000362	-3.619512	-1.226324	-0.029127
 168	8.3500e-02	6.7137	-1.674795	0.000724	7.239025	2.452648	0.058254
 169	8.4000e-02	6.7634	-1.747612	-0.000181	-1.809756	-0.613162	-0.014563
 170	8.4500e-02	6.8052	-1.784020	-0.000090	-0.904878	-0.306581	-0.007282
 171	8.5000e-02	6.8581	-1.711203	0.000181	1.809756	0.613162	0.014563
 172	8.5500e-02	6.8709	-1.711203	0.000000	0.000000	0.000000	0.000000
 173	8.6000e-02	6.9255	-1.529160	0.000452	4.524390	1.532905	0.036409
 174	8.6500e-02	6.9592	-1.856837	-0.000814	-8.143903	-2.759229	-0.065535
 175	8.7000e-02	7.0073	-1.237892	0.001538	15.382927	5.211877	0.123789
 176	8.7500e-02	7.0538	-1.347117	-0.000271	-2.714634	-0.919743	-0.021845
 177	8.8000e-02	7.0715	-1.638386	-0.000724	-7.239025	-2.452648	-0.058254
 178	8.8500e-02	7.1180	-1.492752	0.000362	3.619512	1.226324	0.029127
 179	8.9000e-02	7.1453	-1.237892	0.000633	6.334147	2.146067	0.050972
 180	8.9500e-02	7.1950	-1.310709	-0.000181	-1.809756	-0.613162	-0.014563
 181	9.0000e-02	7.2303	-1.529160	-0.000543	-5.429268	-1.839486	-0.043690
 182	9.0500e-02	7.2752	-1.565569	-0.000090	-0.904878	-0.306581	-0.007282
 183	9.1000e-02	7.3265	-1.347117	0.000543	5.429268	1.839486	0.043690
 184	9.1500e-02	7.3682	-1.419935	-0.000181	-1.809756	-0.613162	-0.014563
 185	9.2000e-02	7.4051	-1.165074	0.000633	6.334147	2.146067	0.050972
 186	9.2500e-02	7.4517	-0.983032	0.000452	4.524390	1.532905	0.036409
 187	9.3000e-02	7.5110	-1.128666	-0.000362	-3.619512	-1.226324	-0.029127
 188	9.3500e-02	7.5367	-1.201483	-0.000181	-1.809756	-0.613162	-0.014563
 189	9.4000e-02	7.5656	-0.983032	0.000543	5.429268	1.839486	0.043690
 190	9.4500e-02	7.6041	-0.946623	0.000090	0.904878	0.306581	0.007282
 191	9.5000e-02	7.6714	-0.764580	0.000452	4.524390	1.532905	0.036409
 192	9.5500e-02	7.6795	-1.019440	-0.000633	-6.334147	-2.146067	-0.050972
 193	9.6000e-02	7.7228	-0.983032	0.000090	0.904878	0.306581	0.007282
 194	9.6500e-02	7.7436	-1.019440	-0.000090	-0.904878	-0.306581	-0.007282
 195	9.7000e-02	7.8014	-0.582537	0.001086	10.858537	3.678972	0.087381
 196	9.7500e-02	7.8591	-0.691763	-0.000271	-2.714634	-0.919743	-0.021845
 197	9.8000e-02	7.8976	-0.618946	0.000181	1.809756	0.613162	0.014563
 198	9.8500e-02	7.9105	-0.837397	-0.000543	-5.429268	-1.839486	-0.043690
 199	9.9000e-02	7.9698	-0.800989	0.000090	0.904878	0.306581	0.007282
 200	9.9500e-02	8.0099	-0.582537	0.000543	5.429268	1.839486	0.043690
 201	1.0000e-01	8.0260	-0.655354	-0.000181	-1.809756	-0.613162	-0.014563
 202	1.0050e-01	8.0789	-0.655354	0.000000	0.000000	0.000000	0.000000
 203	1.0100e-01	8.1286	-0.764580	-0.000271	-2.714634	-0.919743	-0.021845
 204	1.0150e-01	8.1752	-0.400494	0.000905	9.048781	3.065810	0.072817
 205	1.0200e-01	8.1816	-0.436903	-0.000090	-0.904878	-0.306581	-0.007282
 206	1.0250e-01	8.2570	-0.364086	0.000181	1.809756	0.613162	0.014563
 207	1.0300e-01	8.2650	-0.364086	0.000000	0.000000	0.000000	0.000000
 208	1.0350e-01	8.3228	-0.364086	0.000000	0.000000	0.000000	0.000000
 209	1.0400e-01	8.3789	-0.509720	-0.000362	-3.619512	-1.226324	-0.029127
 210	1.0450e-01	8.4174	-0.327677	0.000452	4.524390	1.532905	0.036409
 211	1.0500e-01	8.4543	-0.109226	0.000543	5.429268	1.839486	0.043690
 212	1.0550e-01	8.4880	-0.109226	0.000000	0.000000	0.000000	0.000000
 213	1.0600e-01	8.5313	-0.218451	-0.000271	-2.714634	-0.919743	-0.021845
 214	1.0650e-01	8.5730	-0.145634	0.000181	1.809756	0.613162	0.014563
 215	1.0700e-01	8.6292	0.109226	0.000633	6.334147	2.146067	0.050972
 216	1.0750e-01	8.6276	-0.109226	0.000543	5.429268	1.839486	-0.043690
 217	1.0800e-01	8.6741	-0.109226	0.000000	0.000000	0.000000	0.000000
 218	1.0850e-01	8.7238	-0.145634	-0.000090	-0.904878	-0.306581	-0.007282
 219	1.0900e-01	8.7800	-0.182043	-0.000090	-0.904878	-0.306581	-0.007282
 220	1.0950e-01	8.8217	0.436903	0.001538	15.382927	5.211877	0.123789
 221	1.1000e-01	8.8489	-0.109226	-0.001357	-13.573171	-4.598715	-0.109226
 222	1.1050e-01	8.8618	0.546129	0.001629	16.287805	5.518458	0.131071
 223	1.1100e-01	8.9404	0.291269	-0.000633	-6.334147	-2.146067	-0.050972
 224	1.1150e-01	8.9596	-0.036409	-0.000814	-8.143903	-2.759229	-0.065535
 225	1.1200e-01	8.9949	0.109226	0.000362	3.619512	1.226324	0.029127
 226	1.1250e-01	9.0607	0.254860	0.000362	3.619512	1.226324	0.029127
 227	1.1300e-01	9.0816	0.582537	0.000814	8.143903	2.759229	0.065535
 228	1.1350e-01	9.1072	0.218451	-0.000905	-9.048781	-3.065810	-0.072817
 229	1.1400e-01	9.1554	0.291269	0.000181	1.809756	0.613162	0.014563
 230	1.1450e-01	9.2083	0.436903	0.000362	3.619512	1.226324	0.029127
 231	1.1500e-01	9.2308	0.509720	0.000181	1.809756	0.613162	0.014563
 232	1.1550e-01	9.2693	0.546129	0.000090	0.904878	0.306581	0.007282
 233	1.1600e-01	9.3126	0.764580	0.000543	5.429268	1.839486	0.043690
 234	1.1650e-01	9.3832	0.800989	0.000090	0.904878	0.306581	0.007282
 235	1.1700e-01	9.3896	0.546129	-0.000633	-6.334147	-2.146067	-0.050972
 236	1.1750e-01	9.4457	0.764580	0.000543	5.429268	1.839486	0.043690
 237	1.1800e-01	9.4938	1.019440	0.000633	6.334147	2.146067	0.050972
 238	1.1850e-01	9.5259	0.364086	-0.001629	-16.287805	-5.518458	-0.131071
 239	1.1900e-01	9.5596	0.728172	0.000905	9.048781	3.065810	0.072817
 240	1.1950e-01	9.5997	0.728172	0.000000	0.000000	0.000000	0.000000
 241	1.2000e-01	9.6607	0.800989	0.000181	1.809756	0.613162	0.014563
 242	1.2050e-01	9.6880	0.691763	-0.000271	-2.714634	-0.919743	-0.021845
 243	1.2100e-01	9.7152	1.201483	0.001267	12.668293	4.292134	0.101944
 244	1.2150e-01	9.7602	0.983032	-0.000543	-5.429268	-1.839486	-0.043690
 245	1.2200e-01	9.8195	0.728172	-0.000633	-6.334147	-2.146067	-0.050972
 246	1.2250e-01	9.8500	0.910214	0.000452	4.524390	1.532905	0.036409
 247	1.2300e-01	9.8821	0.910214	0.000000	0.000000	0.000000	0.000000
 248	1.2350e-01	9.9254	1.419935	0.001267	12.668293	4.292134	0.101944
 249	1.2400e-01	9.9751	1.019440	-0.000995	-9.953659	-3.372391	-0.080099
 250	1.2450e-01	10.0120	1.165074	0.000362	3.619512	1.226324	0.029127
 251	1.2500e-01	10.0537	1.237892	0.000181	1.809756	0.613162	0.014563
 252	1.2550e-01	10.0858	1.201483	-0.000090	-0.904878	-0.306581	-0.007282
 253	1.2600e-01	10.1500	1.274300	0.000181	1.809756	0.613162	0.014563
 254	1.2650e-01	10.1452	1.347117	-0.000181	-1.809756	-0.613162	0.014563
 255	1.2700e-01	10.1869	1.165074	-0.000452	-4.524390	-1.532905	-0.036409
 256	1.2750e-01	10.2238	1.274300	0.000271	2.714634	0.919743	0.021845
 257	1.2800e-01	10.2767	1.383526	0.000271	2.714634	0.919743	0.021845
 258	1.2850e-01	10.3024	1.347117	-0.000090	-0.904878	-0.306581	-0.007282
 259	1.2900e-01	10.3617	1.492752	0.000362	3.619512	1.226324	0.029127
