»»»»»»»»»»»»»»»»»»»»»»»»»»»»»»»»»»»» Hysteresis ««««««««««««««««««««««««««««««««««««
»»»  Executed Version:	5.48.1
»»»  Vision Version:	5.48.4 (R)
»»»  Vision Compiled:	9/18/24
»»»  Driver Version:	5.47.0
»»»  Windows Version:	Windows 8 or 8.1
»»»  Processor Information:	x86 (AMD or Intel) - 32 Processors
»»»  Tester Name:	PMF21124-494 (100V)
»»»  Tester S/N:	PMF21124-494
»»»  Internal Amp Type:	100V RevK 270k
»»»  Internal Amp S/N:	iAB2-596/K     
»»»  Execution Count:	1
»»»»»»»»»»»»»»»»»»»»»»»»»»»»»»»»»»»»»»»»»»««««««««««««««««««««««««««««««««««««««««««

Stored:	10/8/2025 - 20:3:31
Configured:	10/08/25 04:22:59 PM
Executed:	10/08/25 08:03:08 PM

»»»»»»»»»»»»»»»»»»»»»»»»»»»»»»»»»»» Sample Info ««««««««««««««««««««««««««««««««««««
Sample Name:	Int. Ref. Ferroelectric
Lot Name:	N/A
Wafer Name:	N/A
Die Row/Column:	0/0
Capacitor Number:	0
Sample Area (cm2):	1.00e-04
Sample Thickness (microns):	3.00e-01

Amplifier:	Internal

»»»»»»»»»»»»»»»»»»»»»»»»»»»»»»»»»»» Tester Info «««««««««««««««««««««««««««««««««««
Tester Name:	PMF21124-494 (100V)
Tester Serial Number:	PMF21124-494
Return Signal Amp. Level:	1.9 [Index: 2]

»»»»»»»»»»»»»»»»»»»»»»»»»»»»»»»» Hysteresis Info ««««««««««««««««««««««««««««««««««
Task Name:	Hyste-8
Volts:	20.00
Field:	666.67 (kV/cm)
DCBias:	0.00
DCField:	0.00 (kV/cm)
Hysteresis Period (ms):	1.00e+02
Preset:	Enabled
Preset Delay (ms):	1.00e+03
Profile:	Standard Monopolar

»»»»»»»»»»»»»»»»»»»»»»»»»»»»»»»»»»»»»» Data «««««««««««««««««««««««««««««««««««««««
Points:	2001

Valid Data

Point	Time (ms)	Drive Voltage	Measured Polarization (uC/cm2)	Capacitance (uF)	Normalized Capacitance (uF/cm2)	Dielectric Constant	Instantaneous Current (mA)
   1	0.0000e+00	0.0433	-10.755880	0.000035	0.353899	0.119904	0.000017
   2	5.0000e-02	0.0465	-10.747326	0.000035	0.353899	0.119904	0.000017
   3	1.0000e-01	0.0674	-10.721256	0.000108	1.078550	0.365423	0.000052
   4	1.5000e-01	0.0658	-10.696815	-0.000101	-1.011141	-0.342584	0.000049
   5	2.0000e-01	0.1107	-10.669116	0.000115	1.145960	0.388262	0.000055
   6	2.5000e-01	0.1059	-10.644676	-0.000101	-1.011141	-0.342584	0.000049
   7	3.0000e-01	0.1059	-10.614940	-0.000123	-1.230221	-0.416810	0.000059
   8	3.5000e-01	0.1572	-10.592128	0.000094	0.943732	0.319745	0.000046
   9	4.0000e-01	0.1717	-10.563614	0.000118	1.179664	0.399681	0.000057
  10	4.5000e-01	0.1797	-10.539989	0.000098	0.977436	0.331164	0.000047
  11	5.0000e-01	0.1797	-10.514733	-0.000104	-1.044846	-0.354003	0.000051
  12	5.5000e-01	0.2390	-10.487441	0.000113	1.129107	0.382552	0.000055
  13	6.0000e-01	0.2583	-10.459742	0.000115	1.145960	0.388262	0.000055
  14	6.5000e-01	0.2807	-10.437338	0.000093	0.926879	0.314035	0.000045
  15	7.0000e-01	0.2856	-10.408010	0.000121	1.213369	0.411101	0.000059
  16	7.5000e-01	0.3289	-10.379496	0.000118	1.179664	0.399681	0.000057
  17	8.0000e-01	0.3481	-10.354240	0.000104	1.044846	0.354003	0.000051
  18	8.5000e-01	0.3465	-10.328170	-0.000108	-1.078550	-0.365423	0.000052
  19	9.0000e-01	0.4043	-10.302100	0.000108	1.078550	0.365423	0.000052
  20	9.5000e-01	0.3802	-10.277660	-0.000101	-1.011141	-0.342584	0.000049
  21	1.0000e+00	0.4219	-10.249961	0.000115	1.145960	0.388262	0.000055
  22	1.0500e+00	0.4203	-10.220225	-0.000123	-1.230221	-0.416810	0.000059
  23	1.1000e+00	0.4556	-10.195784	0.000101	1.011141	0.342584	0.000049
  24	1.1500e+00	0.4556	-10.167677	-0.000116	-1.162812	-0.393971	0.000056
  25	1.2000e+00	0.5118	-10.142830	0.000103	1.027993	0.348294	0.000050
  26	1.2500e+00	0.5278	-10.115945	0.000111	1.112255	0.376842	0.000054
  27	1.3000e+00	0.5101	-10.091912	-0.000099	-0.994289	-0.336874	0.000048
  28	1.3500e+00	0.5823	-10.064212	0.000115	1.145960	0.388262	0.000055
  29	1.4000e+00	0.5695	-10.038550	-0.000106	-1.061698	-0.359713	0.000051
  30	1.4500e+00	0.5968	-10.014109	0.000101	1.011141	0.342584	0.000049
  31	1.5000e+00	0.6369	-9.989261	0.000103	1.027993	0.348294	0.000050
  32	1.5500e+00	0.6353	-9.964821	-0.000101	-1.011141	-0.342584	0.000049
  33	1.6000e+00	0.6642	-9.935492	0.000121	1.213369	0.411101	0.000059
  34	1.6500e+00	0.7203	-9.906164	0.000121	1.213369	0.411101	0.000059
  35	1.7000e+00	0.7043	-9.879686	-0.000110	-1.095403	-0.371132	0.000053
  36	1.7500e+00	0.7171	-9.858504	0.000088	0.876322	0.296906	0.000042
  37	1.8000e+00	0.7251	-9.830805	0.000115	1.145960	0.388262	0.000055
  38	1.8500e+00	0.7700	-9.802291	0.000118	1.179664	0.399681	0.000057
  39	1.9000e+00	0.7684	-9.770518	-0.000131	-1.314483	-0.445359	0.000064
  40	1.9500e+00	0.7700	-9.749744	0.000086	0.859470	0.291196	0.000042
  41	2.0000e+00	0.7925	-9.722452	0.000113	1.129107	0.382552	0.000055
  42	2.0500e+00	0.8390	-9.695567	0.000111	1.112255	0.376842	0.000054
  43	2.1000e+00	0.8599	-9.667461	0.000116	1.162812	0.393971	0.000056
  44	2.1500e+00	0.8518	-9.639761	-0.000115	-1.145960	-0.388262	0.000055
  45	2.2000e+00	0.8968	-9.610433	0.000121	1.213369	0.411101	0.000059
  46	2.2500e+00	0.9545	-9.587214	0.000096	0.960584	0.325455	0.000046
  47	2.3000e+00	0.9305	-9.561144	-0.000108	-1.078550	-0.365423	0.000052
  48	2.3500e+00	0.9657	-9.532630	0.000118	1.179664	0.399681	0.000057
  49	2.4000e+00	0.9738	-9.506560	0.000108	1.078550	0.365423	0.000052
  50	2.4500e+00	0.9674	-9.476010	-0.000126	-1.263926	-0.428230	0.000061
  51	2.5000e+00	1.0059	-9.455643	0.000084	0.842617	0.285487	0.000041
  52	2.5500e+00	1.0379	-9.425499	0.000125	1.247074	0.422520	0.000060
  53	2.6000e+00	1.0508	-9.393319	0.000133	1.331336	0.451069	0.000064
  54	2.6500e+00	1.0780	-9.371323	0.000091	0.910027	0.308325	0.000044
  55	2.7000e+00	1.1021	-9.345660	0.000106	1.061698	0.359713	0.000051
  56	2.7500e+00	1.1310	-9.317146	0.000118	1.179664	0.399681	0.000057
  57	2.8000e+00	1.1470	-9.291891	0.000104	1.044846	0.354003	0.000051
  58	2.8500e+00	1.1663	-9.264192	0.000115	1.145960	0.388262	0.000055
  59	2.9000e+00	1.2080	-9.232012	0.000133	1.331336	0.451069	0.000064
  60	2.9500e+00	1.1984	-9.211644	-0.000084	-0.842617	-0.285487	0.000041
  61	3.0000e+00	1.2256	-9.185167	0.000110	1.095403	0.371132	0.000053
  62	3.0500e+00	1.2176	-9.154209	-0.000128	-1.280778	-0.433939	0.000062
  63	3.1000e+00	1.2738	-9.134657	0.000081	0.808913	0.274067	0.000039
  64	3.1500e+00	1.2834	-9.110216	0.000101	1.011141	0.342584	0.000049
  65	3.2000e+00	1.2850	-9.078036	0.000133	1.331336	0.451069	0.000064
  66	3.2500e+00	1.3058	-9.054818	0.000096	0.960584	0.325455	0.000046
  67	3.3000e+00	1.3476	-9.026711	0.000116	1.162812	0.393971	0.000056
  68	3.3500e+00	1.3684	-8.999826	0.000111	1.112255	0.376842	0.000054
  69	3.4000e+00	1.3684	-8.975793	-0.000099	-0.994289	-0.336874	0.000048
  70	3.4500e+00	1.3636	-8.948909	-0.000111	-1.112255	-0.376842	0.000054
  71	3.5000e+00	1.4358	-8.921617	0.000113	1.129107	0.382552	0.000055
  72	3.5500e+00	1.4647	-8.894732	0.000111	1.112255	0.376842	0.000054
  73	3.6000e+00	1.4615	-8.869069	-0.000106	-1.061698	-0.359713	0.000051
  74	3.6500e+00	1.4871	-8.841370	0.000115	1.145960	0.388262	0.000055
  75	3.7000e+00	1.5144	-8.819781	0.000089	0.893174	0.302616	0.000043
  76	3.7500e+00	1.5256	-8.788823	0.000128	1.280778	0.433939	0.000062
  77	3.8000e+00	1.5561	-8.758272	0.000126	1.263926	0.428230	0.000061
  78	3.8500e+00	1.5930	-8.735461	0.000094	0.943732	0.319745	0.000046
  79	3.9000e+00	1.5786	-8.709391	-0.000108	-1.078550	-0.365423	0.000052
  80	3.9500e+00	1.6123	-8.681284	0.000116	1.162812	0.393971	0.000056
  81	4.0000e+00	1.6363	-8.660103	0.000088	0.876322	0.296906	0.000042
  82	4.0500e+00	1.6427	-8.627108	0.000137	1.365040	0.462488	0.000066
  83	4.1000e+00	1.6620	-8.601853	0.000104	1.044846	0.354003	0.000051
  84	4.1500e+00	1.6492	-8.574561	-0.000113	-1.129107	-0.382552	0.000055
  85	4.2000e+00	1.6973	-8.549713	0.000103	1.027993	0.348294	0.000050
  86	4.2500e+00	1.6925	-8.522828	-0.000111	-1.112255	-0.376842	0.000054
  87	4.3000e+00	1.7294	-8.495129	0.000115	1.145960	0.388262	0.000055
  88	4.3500e+00	1.7839	-8.471910	0.000096	0.960584	0.325455	0.000046
  89	4.4000e+00	1.8016	-8.442174	0.000123	1.230221	0.416810	0.000059
  90	4.4500e+00	1.7903	-8.422215	-0.000083	-0.825765	-0.279777	0.000040
  91	4.5000e+00	1.8176	-8.390849	0.000130	1.297631	0.439649	0.000063
  92	4.5500e+00	1.8433	-8.366001	0.000103	1.027993	0.348294	0.000050
  93	4.6000e+00	1.8401	-8.341968	-0.000099	-0.994289	-0.336874	0.000048
  94	4.6500e+00	1.8850	-8.313454	0.000118	1.179664	0.399681	0.000057
  95	4.7000e+00	1.8818	-8.285347	-0.000116	-1.162812	-0.393971	0.000056
  96	4.7500e+00	1.9138	-8.260907	0.000101	1.011141	0.342584	0.000049
  97	4.8000e+00	1.9491	-8.234837	0.000108	1.078550	0.365423	0.000052
  98	4.8500e+00	1.9636	-8.208360	0.000110	1.095403	0.371132	0.000053
  99	4.9000e+00	2.0021	-8.185549	0.000094	0.943732	0.319745	0.000046
 100	4.9500e+00	1.9957	-8.156627	-0.000120	-1.196517	-0.405391	0.000058
 101	5.0000e+00	2.0149	-8.128521	0.000116	1.162812	0.393971	0.000056
 102	5.0500e+00	2.0390	-8.102451	0.000108	1.078550	0.365423	0.000052
 103	5.1000e+00	2.0598	-8.075159	0.000113	1.129107	0.382552	0.000055
 104	5.1500e+00	2.0791	-8.047052	0.000116	1.162812	0.393971	0.000056
 105	5.2000e+00	2.0983	-8.023019	0.000099	0.994289	0.336874	0.000048
 106	5.2500e+00	2.0823	-7.996949	-0.000108	-1.078550	-0.365423	0.000052
 107	5.3000e+00	2.1368	-7.968435	0.000118	1.179664	0.399681	0.000057
 108	5.3500e+00	2.1256	-7.945624	-0.000094	-0.943732	-0.319745	0.000046
 109	5.4000e+00	2.1689	-7.917517	0.000116	1.162812	0.393971	0.000056
 110	5.4500e+00	2.2203	-7.891040	0.000110	1.095403	0.371132	0.000053
 111	5.5000e+00	2.2170	-7.865785	-0.000104	-1.044846	-0.354003	0.000051
 112	5.5500e+00	2.2203	-7.839307	0.000110	1.095403	0.371132	0.000053
 113	5.6000e+00	2.2620	-7.810386	0.000120	1.196517	0.405391	0.000058
 114	5.6500e+00	2.2684	-7.786353	0.000099	0.994289	0.336874	0.000048
 115	5.7000e+00	2.2860	-7.762727	0.000098	0.977436	0.331164	0.000047
 116	5.7500e+00	2.3229	-7.737472	0.000104	1.044846	0.354003	0.000051
 117	5.8000e+00	2.3406	-7.711402	0.000108	1.078550	0.365423	0.000052
 118	5.8500e+00	2.3662	-7.686961	0.000101	1.011141	0.342584	0.000049
 119	5.9000e+00	2.3695	-7.659262	0.000115	1.145960	0.388262	0.000055
 120	5.9500e+00	2.4063	-7.630748	0.000118	1.179664	0.399681	0.000057
 121	6.0000e+00	2.3999	-7.614454	-0.000067	-0.674094	-0.228389	0.000033
 122	6.0500e+00	2.4449	-7.587570	0.000111	1.112255	0.376842	0.000054
 123	6.1000e+00	2.4432	-7.563944	-0.000098	-0.977436	-0.331164	0.000047
 124	6.1500e+00	2.4769	-7.534615	0.000121	1.213369	0.411101	0.000059
 125	6.2000e+00	2.4978	-7.514655	0.000083	0.825765	0.279777	0.000040
 126	6.2500e+00	2.5219	-7.489400	0.000104	1.044846	0.354003	0.000051
 127	6.3000e+00	2.5219	-7.464552	-0.000103	-1.027993	-0.348294	0.000050
 128	6.3500e+00	2.5347	-7.437260	0.000113	1.129107	0.382552	0.000055
 129	6.4000e+00	2.6005	-7.414042	0.000096	0.960584	0.325455	0.000046
 130	6.4500e+00	2.5989	-7.384306	-0.000123	-1.230221	-0.416810	0.000059
 131	6.5000e+00	2.6053	-7.364346	0.000083	0.825765	0.279777	0.000040
 132	6.5500e+00	2.6374	-7.337054	0.000113	1.129107	0.382552	0.000055
 133	6.6000e+00	2.6550	-7.315872	0.000088	0.876322	0.296906	0.000042
 134	6.6500e+00	2.7047	-7.286951	0.000120	1.196517	0.405391	0.000058
 135	6.7000e+00	2.6983	-7.263732	-0.000096	-0.960584	-0.325455	0.000046
 136	6.7500e+00	2.7288	-7.239699	0.000099	0.994289	0.336874	0.000048
 137	6.8000e+00	2.7384	-7.212407	0.000113	1.129107	0.382552	0.000055
 138	6.8500e+00	2.7801	-7.186745	0.000106	1.061698	0.359713	0.000051
 139	6.9000e+00	2.7946	-7.165970	0.000086	0.859470	0.291196	0.000042
 140	6.9500e+00	2.8106	-7.138271	0.000115	1.145960	0.388262	0.000055
 141	7.0000e+00	2.8138	-7.117089	0.000088	0.876322	0.296906	0.000042
 142	7.0500e+00	2.8459	-7.089797	0.000113	1.129107	0.382552	0.000055
 143	7.1000e+00	2.8908	-7.064135	0.000106	1.061698	0.359713	0.000051
 144	7.1500e+00	2.8844	-7.040509	-0.000098	-0.977436	-0.331164	0.000047
 145	7.2000e+00	2.9021	-7.013217	0.000113	1.129107	0.382552	0.000055
 146	7.2500e+00	2.9357	-6.989183	0.000099	0.994289	0.336874	0.000048
 147	7.3000e+00	2.9566	-6.964743	0.000101	1.011141	0.342584	0.000049
 148	7.3500e+00	2.9454	-6.943561	-0.000088	-0.876322	-0.296906	0.000042
 149	7.4000e+00	2.9871	-6.915862	0.000115	1.145960	0.388262	0.000055
 150	7.4500e+00	3.0304	-6.894680	0.000088	0.876322	0.296906	0.000042
 151	7.5000e+00	3.0272	-6.866166	-0.000118	-1.179664	-0.399681	0.000057
 152	7.5500e+00	3.0336	-6.841318	0.000103	1.027993	0.348294	0.000050
 153	7.6000e+00	3.0657	-6.816878	0.000101	1.011141	0.342584	0.000049
 154	7.6500e+00	3.0833	-6.792030	0.000103	1.027993	0.348294	0.000050
 155	7.7000e+00	3.1042	-6.767589	0.000101	1.011141	0.342584	0.000049
 156	7.7500e+00	3.1138	-6.740297	0.000113	1.129107	0.382552	0.000055
 157	7.8000e+00	3.1443	-6.716671	0.000098	0.977436	0.331164	0.000047
 158	7.8500e+00	3.1764	-6.689379	0.000113	1.129107	0.382552	0.000055
 159	7.9000e+00	3.1780	-6.664124	0.000104	1.044846	0.354003	0.000051
 160	7.9500e+00	3.1748	-6.638054	-0.000108	-1.078550	-0.365423	0.000052
 161	8.0000e+00	3.2117	-6.614836	0.000096	0.960584	0.325455	0.000046
 162	8.0500e+00	3.2678	-6.585914	0.000120	1.196517	0.405391	0.000058
 163	8.1000e+00	3.2614	-6.564733	-0.000088	-0.876322	-0.296906	0.000042
 164	8.1500e+00	3.2791	-6.536219	0.000118	1.179664	0.399681	0.000057
 165	8.2000e+00	3.2919	-6.508927	0.000113	1.129107	0.382552	0.000055
 166	8.2500e+00	3.3400	-6.479598	0.000121	1.213369	0.411101	0.000059
 167	8.3000e+00	3.3496	-6.452713	0.000111	1.112255	0.376842	0.000054
 168	8.3500e+00	3.3368	-6.432754	-0.000083	-0.825765	-0.279777	0.000040
 169	8.4000e+00	3.3464	-6.405869	0.000111	1.112255	0.376842	0.000054
 170	8.4500e+00	3.3865	-6.378577	0.000113	1.129107	0.382552	0.000055
 171	8.5000e+00	3.4122	-6.348434	0.000125	1.247074	0.422520	0.000060
 172	8.5500e+00	3.4042	-6.325622	-0.000094	-0.943732	-0.319745	0.000046
 173	8.6000e+00	3.4603	-6.294257	0.000130	1.297631	0.439649	0.000063
 174	8.6500e+00	3.4716	-6.269409	0.000103	1.027993	0.348294	0.000050
 175	8.7000e+00	3.4972	-6.238859	0.000126	1.263926	0.428230	0.000061
 176	8.7500e+00	3.5229	-6.214418	0.000101	1.011141	0.342584	0.000049
 177	8.8000e+00	3.5277	-6.187941	0.000110	1.095403	0.371132	0.000053
 178	8.8500e+00	3.5534	-6.163093	0.000103	1.027993	0.348294	0.000050
 179	8.9000e+00	3.5742	-6.135801	0.000113	1.129107	0.382552	0.000055
 180	8.9500e+00	3.5983	-6.108916	0.000111	1.112255	0.376842	0.000054
 181	9.0000e+00	3.6079	-6.081217	0.000115	1.145960	0.388262	0.000055
 182	9.0500e+00	3.6320	-6.055962	0.000104	1.044846	0.354003	0.000051
 183	9.1000e+00	3.6528	-6.027448	0.000118	1.179664	0.399681	0.000057
 184	9.1500e+00	3.6994	-6.003007	0.000101	1.011141	0.342584	0.000049
 185	9.2000e+00	3.7010	-5.973679	0.000121	1.213369	0.411101	0.000059
 186	9.2500e+00	3.7186	-5.948831	0.000103	1.027993	0.348294	0.000050
 187	9.3000e+00	3.7459	-5.926019	0.000094	0.943732	0.319745	0.000046
 188	9.3500e+00	3.7539	-5.898320	0.000115	1.145960	0.388262	0.000055
 189	9.4000e+00	3.7780	-5.875916	0.000093	0.926879	0.314035	0.000045
 190	9.4500e+00	3.8084	-5.844958	0.000128	1.280778	0.433939	0.000062
 191	9.5000e+00	3.8229	-5.823776	0.000088	0.876322	0.296906	0.000042
 192	9.5500e+00	3.8470	-5.789967	0.000140	1.398745	0.473908	0.000068
 193	9.6000e+00	3.8726	-5.765119	0.000103	1.027993	0.348294	0.000050
 194	9.6500e+00	3.8855	-5.739049	0.000108	1.078550	0.365423	0.000052
 195	9.7000e+00	3.8806	-5.712572	-0.000110	-1.095403	-0.371132	0.000053
 196	9.7500e+00	3.8967	-5.691390	0.000088	0.876322	0.296906	0.000042
 197	9.8000e+00	3.9320	-5.657581	0.000140	1.398745	0.473908	0.000068
 198	9.8500e+00	3.9721	-5.628252	0.000121	1.213369	0.411101	0.000059
 199	9.9000e+00	3.9913	-5.609107	0.000079	0.792060	0.268357	0.000038
 200	9.9500e+00	4.0026	-5.579371	0.000123	1.230221	0.416810	0.000059
 201	1.0000e+01	4.0250	-5.553301	0.000108	1.078550	0.365423	0.000052
 202	1.0050e+01	4.0411	-5.529268	0.000099	0.994289	0.336874	0.000048
 203	1.0100e+01	4.0427	-5.506049	0.000096	0.960584	0.325455	0.000046
 204	1.0150e+01	4.0812	-5.477535	0.000118	1.179664	0.399681	0.000057
 205	1.0200e+01	4.1261	-5.455131	0.000093	0.926879	0.314035	0.000045
 206	1.0250e+01	4.1036	-5.426210	-0.000120	-1.196517	-0.405391	0.000058
 207	1.0300e+01	4.1646	-5.402584	0.000098	0.977436	0.331164	0.000047
 208	1.0350e+01	4.1854	-5.374478	0.000116	1.162812	0.393971	0.000056
 209	1.0400e+01	4.1742	-5.354925	-0.000081	-0.808913	-0.274067	0.000039
 210	1.0450e+01	4.2047	-5.330485	0.000101	1.011141	0.342584	0.000049
 211	1.0500e+01	4.2352	-5.304007	0.000110	1.095403	0.371132	0.000053
 212	1.0550e+01	4.2175	-5.279567	-0.000101	-1.011141	-0.342584	0.000049
 213	1.0600e+01	4.2496	-5.257163	0.000093	0.926879	0.314035	0.000045
 214	1.0650e+01	4.2833	-5.230278	0.000111	1.112255	0.376842	0.000054
 215	1.0700e+01	4.3138	-5.207060	0.000096	0.960584	0.325455	0.000046
 216	1.0750e+01	4.3202	-5.183841	0.000096	0.960584	0.325455	0.000046
 217	1.0800e+01	4.3234	-5.156142	0.000115	1.145960	0.388262	0.000055
 218	1.0850e+01	4.3427	-5.130072	0.000108	1.078550	0.365423	0.000052
 219	1.0900e+01	4.3796	-5.104410	0.000106	1.061698	0.359713	0.000051
 220	1.0950e+01	4.4181	-5.079562	0.000103	1.027993	0.348294	0.000050
 221	1.1000e+01	4.4020	-5.054306	-0.000104	-1.044846	-0.354003	0.000051
 222	1.1050e+01	4.4485	-5.033939	0.000084	0.842617	0.285487	0.000041
 223	1.1100e+01	4.4534	-5.009091	0.000103	1.027993	0.348294	0.000050
 224	1.1150e+01	4.4806	-4.978948	0.000125	1.247074	0.422520	0.000060
 225	1.1200e+01	4.5095	-4.955322	0.000098	0.977436	0.331164	0.000047
 226	1.1250e+01	4.5015	-4.929660	-0.000106	-1.061698	-0.359713	0.000051
 227	1.1300e+01	4.5496	-4.904404	0.000104	1.044846	0.354003	0.000051
 228	1.1350e+01	4.5608	-4.881186	0.000096	0.960584	0.325455	0.000046
 229	1.1400e+01	4.5608	-4.858375	-0.000094	-0.943732	-0.319745	0.000046
 230	1.1450e+01	4.5897	-4.832305	0.000108	1.078550	0.365423	0.000052
 231	1.1500e+01	4.6250	-4.808271	0.000099	0.994289	0.336874	0.000048
 232	1.1550e+01	4.6603	-4.782202	0.000108	1.078550	0.365423	0.000052
 233	1.1600e+01	4.6715	-4.759798	0.000093	0.926879	0.314035	0.000045
 234	1.1650e+01	4.6795	-4.734950	0.000103	1.027993	0.348294	0.000050
 235	1.1700e+01	4.7164	-4.711324	0.000098	0.977436	0.331164	0.000047
 236	1.1750e+01	4.7325	-4.687291	0.000099	0.994289	0.336874	0.000048
 237	1.1800e+01	4.7582	-4.659999	0.000113	1.129107	0.382552	0.000055
 238	1.1850e+01	4.7630	-4.638817	0.000088	0.876322	0.296906	0.000042
 239	1.1900e+01	4.8015	-4.612340	0.000110	1.095403	0.371132	0.000053
 240	1.1950e+01	4.7983	-4.583826	-0.000118	-1.179664	-0.399681	0.000057
 241	1.2000e+01	4.8127	-4.563459	0.000084	0.842617	0.285487	0.000041
 242	1.2050e+01	4.8255	-4.542684	0.000086	0.859470	0.291196	0.000042
 243	1.2100e+01	4.8753	-4.511319	0.000130	1.297631	0.439649	0.000063
 244	1.2150e+01	4.8849	-4.495025	0.000067	0.674094	0.228389	0.000033
 245	1.2200e+01	4.9378	-4.459994	0.000145	1.449302	0.491037	0.000070
 246	1.2250e+01	4.9138	-4.440034	-0.000083	-0.825765	-0.279777	0.000040
 247	1.2300e+01	4.9442	-4.418852	0.000088	0.876322	0.296906	0.000042
 248	1.2350e+01	4.9988	-4.393597	0.000104	1.044846	0.354003	0.000051
 249	1.2400e+01	4.9827	-4.372415	-0.000088	-0.876322	-0.296906	0.000042
 250	1.2450e+01	5.0148	-4.347567	0.000103	1.027993	0.348294	0.000050
 251	1.2500e+01	5.0405	-4.317424	0.000125	1.247074	0.422520	0.000060
 252	1.2550e+01	5.0405	-4.295020	-0.000093	-0.926879	-0.314035	0.000045
 253	1.2600e+01	5.0694	-4.270987	0.000099	0.994289	0.336874	0.000048
 254	1.2650e+01	5.0694	-4.247361	-0.000098	-0.977436	-0.331164	0.000047
 255	1.2700e+01	5.0742	-4.223735	0.000098	0.977436	0.331164	0.000047
 256	1.2750e+01	5.1175	-4.200924	0.000094	0.943732	0.319745	0.000046
 257	1.2800e+01	5.1271	-4.176483	0.000101	1.011141	0.342584	0.000049
 258	1.2850e+01	5.1496	-4.150006	0.000110	1.095403	0.371132	0.000053
 259	1.2900e+01	5.1737	-4.125973	0.000099	0.994289	0.336874	0.000048
 260	1.2950e+01	5.2057	-4.103569	0.000093	0.926879	0.314035	0.000045
 261	1.3000e+01	5.1977	-4.077906	-0.000106	-1.061698	-0.359713	0.000051
 262	1.3050e+01	5.2314	-4.052651	0.000104	1.044846	0.354003	0.000051
