»»»»»»»»»»»»»»»»»»»»»»»»»»»»»»»»»»»» Hysteresis ««««««««««««««««««««««««««««««««««««
»»»  Executed Version:	5.48.1
»»»  Vision Version:	5.48.4 (R)
»»»  Vision Compiled:	9/18/24
»»»  Driver Version:	5.47.0
»»»  Windows Version:	Windows 8 or 8.1
»»»  Processor Information:	x86 (AMD or Intel) - 32 Processors
»»»  Tester Name:	PMF21124-494 (100V)
»»»  Tester S/N:	PMF21124-494
»»»  Internal Amp Type:	100V RevK 270k
»»»  Internal Amp S/N:	iAB2-596/K     
»»»  Execution Count:	1
»»»»»»»»»»»»»»»»»»»»»»»»»»»»»»»»»»»»»»»»»»««««««««««««««««««««««««««««««««««««««««««

Stored:	10/8/2025 - 20:9:54
Configured:	10/08/25 04:22:59 PM
Executed:	10/08/25 08:09:29 PM

»»»»»»»»»»»»»»»»»»»»»»»»»»»»»»»»»»» Sample Info ««««««««««««««««««««««««««««««««««««
Sample Name:	Int. Ref. Ferroelectric
Lot Name:	N/A
Wafer Name:	N/A
Die Row/Column:	0/0
Capacitor Number:	0
Sample Area (cm2):	1.00e-04
Sample Thickness (microns):	3.00e-01

Amplifier:	Internal

»»»»»»»»»»»»»»»»»»»»»»»»»»»»»»»»»»» Tester Info «««««««««««««««««««««««««««««««««««
Tester Name:	PMF21124-494 (100V)
Tester Serial Number:	PMF21124-494
Return Signal Amp. Level:	0.02 [Index: 2]

»»»»»»»»»»»»»»»»»»»»»»»»»»»»»»»» Hysteresis Info ««««««««««««««««««««««««««««««««««
Task Name:	Hyste-8
Volts:	20.00
Field:	666.67 (kV/cm)
DCBias:	0.00
DCField:	0.00 (kV/cm)
Hysteresis Period (ms):	5.00e-01
Preset:	Enabled
Preset Delay (ms):	1.00e+03
Profile:	Standard Monopolar

»»»»»»»»»»»»»»»»»»»»»»»»»»»»»»»»»»»»»» Data «««««««««««««««««««««««««««««««««««««««
Points:	1001

Valid Data

Point	Time (ms)	Drive Voltage	Measured Polarization (uC/cm2)	Capacitance (uF)	Normalized Capacitance (uF/cm2)	Dielectric Constant	Instantaneous Current (mA)
   1	0.0000e+00	0.0465	-25.303961	-0.000180	-1.795864	-0.608455	-0.014563
   2	5.0000e-04	0.0626	-25.376778	-0.000180	-1.795864	-0.608455	-0.014563
   3	1.0000e-03	0.1219	-25.085510	0.000718	7.183456	2.433821	0.058254
   4	1.5000e-03	0.1749	-25.231144	-0.000359	-3.591728	-1.216910	-0.029127
   5	2.0000e-03	0.1861	-25.267552	-0.000090	-0.897932	-0.304228	-0.007282
   6	2.5000e-03	0.2278	-24.867058	0.000988	9.877251	3.346503	0.080099
   7	3.0000e-03	0.2856	-24.939875	-0.000180	-1.795864	-0.608455	-0.014563
   8	3.5000e-03	0.3192	-24.867058	0.000180	1.795864	0.608455	0.014563
   9	4.0000e-03	0.3674	-24.575789	0.000718	7.183456	2.433821	0.058254
  10	4.5000e-03	0.3834	-24.320929	0.000629	6.285524	2.129593	0.050972
  11	5.0000e-03	0.4556	-24.138887	0.000449	4.489660	1.521138	0.036409
  12	5.5000e-03	0.5101	-24.066069	0.000180	1.795864	0.608455	0.014563
  13	6.0000e-03	0.5294	-24.138887	-0.000180	-1.795864	-0.608455	-0.014563
  14	6.5000e-03	0.5968	-23.920435	0.000539	5.387592	1.825365	0.043690
  15	7.0000e-03	0.6016	-23.447124	0.001167	11.673115	3.954959	0.094662
  16	7.5000e-03	0.6353	-23.701984	-0.000629	-6.285524	-2.129593	-0.050972
  17	8.0000e-03	0.6658	-23.155855	0.001347	13.468979	4.563414	0.109226
  18	8.5000e-03	0.7379	-23.665575	-0.001257	-12.571047	-4.259186	-0.101944
  19	9.0000e-03	0.7444	-23.155855	0.001257	12.571047	4.259186	0.101944
  20	9.5000e-03	0.8486	-23.119446	0.000090	0.897932	0.304228	0.007282
  21	1.0000e-02	0.8406	-22.828178	-0.000718	-7.183456	-2.433821	0.058254
  22	1.0500e-02	0.8984	-23.046629	-0.000539	-5.387592	-1.825365	-0.043690
  23	1.1000e-02	0.9433	-22.609726	0.001078	10.775183	3.650731	0.087381
  24	1.1500e-02	0.9609	-22.718952	-0.000269	-2.693796	-0.912683	-0.021845
  25	1.2000e-02	0.9930	-22.500501	0.000539	5.387592	1.825365	0.043690
  26	1.2500e-02	1.0540	-22.136415	0.000898	8.979320	3.042276	0.072817
  27	1.3000e-02	1.0973	-22.354866	-0.000539	-5.387592	-1.825365	-0.043690
  28	1.3500e-02	1.1230	-21.990780	0.000898	8.979320	3.042276	0.072817
  29	1.4000e-02	1.1486	-21.808738	0.000449	4.489660	1.521138	0.036409
  30	1.4500e-02	1.1984	-21.735920	0.000180	1.795864	0.608455	0.014563
  31	1.5000e-02	1.2577	-21.808738	-0.000180	-1.795864	-0.608455	-0.014563
  32	1.5500e-02	1.2962	-21.663103	0.000359	3.591728	1.216910	0.029127
  33	1.6000e-02	1.3267	-21.299018	0.000898	8.979320	3.042276	0.072817
  34	1.6500e-02	1.3780	-21.553878	-0.000629	-6.285524	-2.129593	-0.050972
  35	1.7000e-02	1.4101	-21.080566	0.001167	11.673115	3.954959	0.094662
  36	1.7500e-02	1.4149	-21.116975	-0.000090	-0.897932	-0.304228	-0.007282
  37	1.8000e-02	1.4871	-20.752889	0.000898	8.979320	3.042276	0.072817
  38	1.8500e-02	1.5417	-21.116975	-0.000898	-8.979320	-3.042276	-0.072817
  39	1.9000e-02	1.5770	-20.607255	0.001257	12.571047	4.259186	0.101944
  40	1.9500e-02	1.5689	-20.862115	0.000629	6.285524	2.129593	-0.050972
  41	2.0000e-02	1.6395	-20.097534	0.001886	18.856571	6.388779	0.152916
  42	2.0500e-02	1.6844	-20.352395	-0.000629	-6.285524	-2.129593	-0.050972
  43	2.1000e-02	1.7406	-19.842674	0.001257	12.571047	4.259186	0.101944
  44	2.1500e-02	1.7759	-20.243169	-0.000988	-9.877251	-3.346503	-0.080099
  45	2.2000e-02	1.8080	-20.170352	0.000180	1.795864	0.608455	0.014563
  46	2.2500e-02	1.8689	-19.988309	0.000449	4.489660	1.521138	0.036409
  47	2.3000e-02	1.9058	-19.624223	0.000898	8.979320	3.042276	0.072817
  48	2.3500e-02	1.9203	-19.187320	0.001078	10.775183	3.650731	0.087381
  49	2.4000e-02	1.9652	-19.369363	-0.000449	-4.489660	-1.521138	-0.036409
  50	2.4500e-02	2.0502	-19.041686	0.000808	8.081388	2.738048	0.065535
  51	2.5000e-02	2.0390	-19.369363	0.000808	8.081388	2.738048	-0.065535
  52	2.5500e-02	2.0727	-19.078094	0.000718	7.183456	2.433821	0.058254
  53	2.6000e-02	2.1304	-18.568374	0.001257	12.571047	4.259186	0.101944
  54	2.6500e-02	2.1721	-18.968869	-0.000988	-9.877251	-3.346503	-0.080099
  55	2.7000e-02	2.1994	-18.677600	0.000718	7.183456	2.433821	0.058254
  56	2.7500e-02	2.2539	-18.386331	0.000718	7.183456	2.433821	0.058254
  57	2.8000e-02	2.2860	-18.604783	-0.000539	-5.387592	-1.825365	-0.043690
  58	2.8500e-02	2.3021	-18.058654	0.001347	13.468979	4.563414	0.109226
  59	2.9000e-02	2.3534	-18.313514	-0.000629	-6.285524	-2.129593	-0.050972
  60	2.9500e-02	2.3871	-17.985837	0.000808	8.081388	2.738048	0.065535
  61	3.0000e-02	2.4368	-17.694568	0.000718	7.183456	2.433821	0.058254
  62	3.0500e-02	2.5010	-17.985837	-0.000718	-7.183456	-2.433821	-0.058254
  63	3.1000e-02	2.5491	-17.621751	0.000898	8.979320	3.042276	0.072817
  64	3.1500e-02	2.5636	-17.294074	0.000808	8.081388	2.738048	0.065535
  65	3.2000e-02	2.6037	-17.548934	-0.000629	-6.285524	-2.129593	-0.050972
  66	3.2500e-02	2.6438	-17.294074	0.000629	6.285524	2.129593	0.050972
  67	3.3000e-02	2.6983	-17.366891	-0.000180	-1.795864	-0.608455	-0.014563
  68	3.3500e-02	2.7160	-16.711537	0.001616	16.162775	5.476096	0.131071
  69	3.4000e-02	2.7641	-17.257665	-0.001347	-13.468979	-4.563414	-0.109226
  70	3.4500e-02	2.8154	-16.675128	0.001437	14.366911	4.867641	0.116507
  71	3.5000e-02	2.8315	-16.747945	-0.000180	-1.795864	-0.608455	-0.014563
  72	3.5500e-02	2.8828	-16.165408	0.001437	14.366911	4.867641	0.116507
  73	3.6000e-02	2.9149	-16.602311	-0.001078	-10.775183	-3.650731	-0.087381
  74	3.6500e-02	2.9662	-16.383860	0.000539	5.387592	1.825365	0.043690
  75	3.7000e-02	2.9967	-16.165408	0.000539	5.387592	1.825365	0.043690
  76	3.7500e-02	3.0384	-16.274634	-0.000269	-2.693796	-0.912683	-0.021845
  77	3.8000e-02	3.1106	-15.619280	0.001616	16.162775	5.476096	0.131071
  78	3.8500e-02	3.1266	-15.728505	-0.000269	-2.693796	-0.912683	-0.021845
  79	3.9000e-02	3.1523	-15.582871	0.000359	3.591728	1.216910	0.029127
  80	3.9500e-02	3.2261	-15.437237	0.000359	3.591728	1.216910	0.029127
  81	4.0000e-02	3.2422	-15.510054	-0.000180	-1.795864	-0.608455	-0.014563
  82	4.0500e-02	3.2614	-15.182377	0.000808	8.081388	2.738048	0.065535
  83	4.1000e-02	3.3224	-14.818291	0.000898	8.979320	3.042276	0.072817
  84	4.1500e-02	3.3593	-15.182377	-0.000898	-8.979320	-3.042276	-0.072817
  85	4.2000e-02	3.3801	-14.818291	0.000898	8.979320	3.042276	0.072817
  86	4.2500e-02	3.4491	-14.636248	0.000449	4.489660	1.521138	0.036409
  87	4.3000e-02	3.4892	-14.818291	-0.000449	-4.489660	-1.521138	-0.036409
  88	4.3500e-02	3.5373	-14.454205	0.000898	8.979320	3.042276	0.072817
  89	4.4000e-02	3.5630	-14.454205	0.000000	0.000000	0.000000	0.000000
  90	4.4500e-02	3.6143	-14.563431	-0.000269	-2.693796	-0.912683	-0.021845
  91	4.5000e-02	3.6464	-14.126528	0.001078	10.775183	3.650731	0.087381
  92	4.5500e-02	3.6994	-14.308571	-0.000449	-4.489660	-1.521138	-0.036409
  93	4.6000e-02	3.7202	-13.980894	0.000808	8.081388	2.738048	0.065535
  94	4.6500e-02	3.7507	-13.980894	0.000000	0.000000	0.000000	0.000000
  95	4.7000e-02	3.7924	-13.543991	0.001078	10.775183	3.650731	0.087381
  96	4.7500e-02	3.8646	-13.762442	-0.000539	-5.387592	-1.825365	-0.043690
  97	4.8000e-02	3.9031	-13.398356	0.000898	8.979320	3.042276	0.072817
  98	4.8500e-02	3.9143	-13.653216	-0.000629	-6.285524	-2.129593	-0.050972
  99	4.9000e-02	3.9560	-13.434765	0.000539	5.387592	1.825365	0.043690
 100	4.9500e-02	4.0106	-13.325539	0.000269	2.693796	0.912683	0.021845
 101	5.0000e-02	4.0411	-12.888636	0.001078	10.775183	3.650731	0.087381
 102	5.0500e-02	4.1084	-13.289131	-0.000988	-9.877251	-3.346503	-0.080099
 103	5.1000e-02	4.1133	-12.451733	0.002065	20.652435	6.997234	0.167479
 104	5.1500e-02	4.1614	-12.633776	-0.000449	-4.489660	-1.521138	-0.036409
 105	5.2000e-02	4.1951	-12.597368	0.000090	0.897932	0.304228	0.007282
 106	5.2500e-02	4.2143	-12.633776	-0.000090	-0.897932	-0.304228	-0.007282
 107	5.3000e-02	4.2785	-12.124056	0.001257	12.571047	4.259186	0.101944
 108	5.3500e-02	4.3234	-12.269690	-0.000359	-3.591728	-1.216910	-0.029127
 109	5.4000e-02	4.3699	-12.014830	0.000629	6.285524	2.129593	0.050972
 110	5.4500e-02	4.4245	-11.905605	0.000269	2.693796	0.912683	0.021845
 111	5.5000e-02	4.4662	-11.759970	0.000359	3.591728	1.216910	0.029127
 112	5.5500e-02	4.5015	-11.796379	-0.000090	-0.897932	-0.304228	-0.007282
 113	5.6000e-02	4.5352	-11.432293	0.000898	8.979320	3.042276	0.072817
 114	5.6500e-02	4.5384	-11.577927	-0.000359	-3.591728	-1.216910	-0.029127
 115	5.7000e-02	4.6090	-11.359476	0.000539	5.387592	1.825365	0.043690
 116	5.7500e-02	4.6491	-11.505110	-0.000359	-3.591728	-1.216910	-0.029127
 117	5.8000e-02	4.6956	-11.177433	0.000808	8.081388	2.738048	0.065535
 118	5.8500e-02	4.7421	-11.031799	0.000359	3.591728	1.216910	0.029127
 119	5.9000e-02	4.7614	-11.104616	-0.000180	-1.795864	-0.608455	-0.014563
 120	5.9500e-02	4.8303	-10.995390	0.000269	2.693796	0.912683	0.021845
 121	6.0000e-02	4.8368	-10.704122	0.000718	7.183456	2.433821	0.058254
 122	6.0500e-02	4.8785	-11.031799	-0.000808	-8.081388	-2.738048	-0.065535
 123	6.1000e-02	4.9234	-10.340036	0.001706	17.060707	5.780324	0.138353
 124	6.1500e-02	4.9908	-10.449262	-0.000269	-2.693796	-0.912683	-0.021845
 125	6.2000e-02	4.9876	-9.903133	-0.001347	-13.468979	-4.563414	0.109226
 126	6.2500e-02	5.0453	-10.267219	-0.000898	-8.979320	-3.042276	-0.072817
 127	6.3000e-02	5.0822	-10.194402	0.000180	1.795864	0.608455	0.014563
 128	6.3500e-02	5.1223	-9.721090	0.001167	11.673115	3.954959	0.094662
 129	6.4000e-02	5.1560	-9.975950	-0.000629	-6.285524	-2.129593	-0.050972
 130	6.4500e-02	5.2298	-9.575456	0.000988	9.877251	3.346503	0.080099
 131	6.5000e-02	5.2330	-9.611864	-0.000090	-0.897932	-0.304228	-0.007282
 132	6.5500e-02	5.2892	-9.320596	0.000718	7.183456	2.433821	0.058254
 133	6.6000e-02	5.3036	-9.284187	0.000090	0.897932	0.304228	0.007282
 134	6.6500e-02	5.3613	-9.284187	0.000000	0.000000	0.000000	0.000000
 135	6.7000e-02	5.4079	-8.992919	0.000718	7.183456	2.433821	0.058254
 136	6.7500e-02	5.4127	-9.247779	-0.000629	-6.285524	-2.129593	-0.050972
 137	6.8000e-02	5.4720	-8.883693	0.000898	8.979320	3.042276	0.072817
 138	6.8500e-02	5.5346	-9.065736	-0.000449	-4.489660	-1.521138	-0.036409
 139	6.9000e-02	5.5715	-8.883693	0.000449	4.489660	1.521138	0.036409
 140	6.9500e-02	5.6228	-8.556016	0.000808	8.081388	2.738048	0.065535
 141	7.0000e-02	5.6373	-8.446790	0.000269	2.693796	0.912683	0.021845
 142	7.0500e-02	5.6822	-8.155521	0.000718	7.183456	2.433821	0.058254
 143	7.1000e-02	5.7191	-8.046296	0.000269	2.693796	0.912683	0.021845
 144	7.1500e-02	5.7704	-7.973478	0.000180	1.795864	0.608455	0.014563
 145	7.2000e-02	5.7849	-7.609393	0.000898	8.979320	3.042276	0.072817
 146	7.2500e-02	5.8587	-7.718618	-0.000269	-2.693796	-0.912683	-0.021845
 147	7.3000e-02	5.8875	-7.682210	0.000090	0.897932	0.304228	0.007282
 148	7.3500e-02	5.9437	-8.009887	-0.000808	-8.081388	-2.738048	-0.065535
 149	7.4000e-02	5.9405	-7.281715	-0.001796	-17.958639	-6.084552	0.145634
 150	7.4500e-02	5.9838	-7.318124	-0.000090	-0.897932	-0.304228	-0.007282
 151	7.5000e-02	6.0367	-6.954038	0.000898	8.979320	3.042276	0.072817
 152	7.5500e-02	6.0929	-7.136081	-0.000449	-4.489660	-1.521138	-0.036409
 153	7.6000e-02	6.1715	-6.917630	0.000539	5.387592	1.825365	0.043690
 154	7.6500e-02	6.1731	-6.662770	0.000629	6.285524	2.129593	0.050972
 155	7.7000e-02	6.2036	-6.844812	-0.000449	-4.489660	-1.521138	-0.036409
 156	7.7500e-02	6.2597	-6.844812	0.000000	0.000000	0.000000	0.000000
 157	7.8000e-02	6.2886	-6.626361	0.000539	5.387592	1.825365	0.043690
 158	7.8500e-02	6.3175	-6.444318	0.000449	4.489660	1.521138	0.036409
 159	7.9000e-02	6.3768	-6.589952	-0.000359	-3.591728	-1.216910	-0.029127
 160	7.9500e-02	6.3929	-6.298684	0.000718	7.183456	2.433821	0.058254
 161	8.0000e-02	6.4217	-5.825372	0.001167	11.673115	3.954959	0.094662
 162	8.0500e-02	6.5052	-6.189458	-0.000898	-8.979320	-3.042276	-0.072817
 163	8.1000e-02	6.4955	-5.934598	-0.000629	-6.285524	-2.129593	0.050972
 164	8.1500e-02	6.5533	-5.934598	0.000000	0.000000	0.000000	0.000000
 165	8.2000e-02	6.6287	-5.861781	0.000180	1.795864	0.608455	0.014563
 166	8.2500e-02	6.6624	-5.060792	0.001975	19.754503	6.693007	0.160198
 167	8.3000e-02	6.6672	-5.716147	-0.001616	-16.162775	-5.476096	-0.131071
 168	8.3500e-02	6.7073	-5.352061	0.000898	8.979320	3.042276	0.072817
 169	8.4000e-02	6.7602	-5.206427	0.000359	3.591728	1.216910	0.029127
 170	8.4500e-02	6.7699	-5.388469	-0.000449	-4.489660	-1.521138	-0.036409
 171	8.5000e-02	6.8517	-4.733115	0.001616	16.162775	5.476096	0.131071
 172	8.5500e-02	6.8886	-5.206427	-0.001167	-11.673115	-3.954959	-0.094662
 173	8.6000e-02	6.9255	-4.623889	0.001437	14.366911	4.867641	0.116507
 174	8.6500e-02	6.9560	-4.551072	0.000180	1.795864	0.608455	0.014563
 175	8.7000e-02	7.0217	-4.660298	-0.000269	-2.693796	-0.912683	-0.021845
 176	8.7500e-02	7.0346	-4.478255	0.000449	4.489660	1.521138	0.036409
 177	8.8000e-02	7.0699	-4.296212	0.000449	4.489660	1.521138	0.036409
 178	8.8500e-02	7.1244	-4.478255	-0.000449	-4.489660	-1.521138	-0.036409
 179	8.9000e-02	7.1645	-4.114169	0.000898	8.979320	3.042276	0.072817
 180	8.9500e-02	7.2030	-3.932126	0.000449	4.489660	1.521138	0.036409
 181	9.0000e-02	7.2527	-3.677266	0.000629	6.285524	2.129593	0.050972
 182	9.0500e-02	7.2880	-4.441846	-0.001886	-18.856571	-6.388779	-0.152916
 183	9.1000e-02	7.3233	-3.604449	0.002065	20.652435	6.997234	0.167479
 184	9.1500e-02	7.3731	-3.531632	0.000180	1.795864	0.608455	0.014563
 185	9.2000e-02	7.3971	-3.203955	0.000808	8.081388	2.738048	0.065535
 186	9.2500e-02	7.4404	-3.531632	-0.000808	-8.081388	-2.738048	-0.065535
 187	9.3000e-02	7.4645	-3.240363	0.000718	7.183456	2.433821	0.058254
 188	9.3500e-02	7.5190	-3.313181	-0.000180	-1.795864	-0.608455	-0.014563
 189	9.4000e-02	7.5784	-3.094729	0.000539	5.387592	1.825365	0.043690
 190	9.4500e-02	7.5944	-3.349589	-0.000629	-6.285524	-2.129593	-0.050972
 191	9.5000e-02	7.6458	-2.767052	0.001437	14.366911	4.867641	0.116507
 192	9.5500e-02	7.7003	-2.694235	0.000180	1.795864	0.608455	0.014563
 193	9.6000e-02	7.7292	-2.730643	-0.000090	-0.897932	-0.304228	-0.007282
 194	9.6500e-02	7.7324	-2.621418	0.000269	2.693796	0.912683	0.021845
 195	9.7000e-02	7.7902	-2.657826	-0.000090	-0.897932	-0.304228	-0.007282
 196	9.7500e-02	7.8383	-2.402966	0.000629	6.285524	2.129593	0.050972
 197	9.8000e-02	7.8816	-2.548600	-0.000359	-3.591728	-1.216910	-0.029127
 198	9.8500e-02	7.9105	-2.184515	0.000898	8.979320	3.042276	0.072817
 199	9.9000e-02	7.9682	-2.184515	0.000000	0.000000	0.000000	0.000000
 200	9.9500e-02	8.0019	-1.856837	0.000808	8.081388	2.738048	0.065535
 201	1.0000e-01	8.0549	-2.002472	-0.000359	-3.591728	-1.216910	-0.029127
 202	1.0050e-01	8.0901	-1.929655	0.000180	1.795864	0.608455	0.014563
 203	1.0100e-01	8.1046	-1.492752	0.001078	10.775183	3.650731	0.087381
 204	1.0150e-01	8.1639	-1.529160	-0.000090	-0.897932	-0.304228	-0.007282
 205	1.0200e-01	8.2185	-1.310709	0.000539	5.387592	1.825365	0.043690
 206	1.0250e-01	8.2201	-1.128666	0.000449	4.489660	1.521138	0.036409
 207	1.0300e-01	8.2987	-1.201483	-0.000180	-1.795864	-0.608455	-0.014563
 208	1.0350e-01	8.3420	-1.165074	0.000090	0.897932	0.304228	0.007282
 209	1.0400e-01	8.3709	-0.764580	0.000988	9.877251	3.346503	0.080099
 210	1.0450e-01	8.4046	-0.946623	-0.000449	-4.489660	-1.521138	-0.036409
 211	1.0500e-01	8.4495	-0.728172	0.000539	5.387592	1.825365	0.043690
 212	1.0550e-01	8.5137	-0.873806	-0.000359	-3.591728	-1.216910	-0.029127
 213	1.0600e-01	8.5377	-0.546129	0.000808	8.081388	2.738048	0.065535
 214	1.0650e-01	8.5810	-0.254860	0.000718	7.183456	2.433821	0.058254
 215	1.0700e-01	8.5923	-0.364086	-0.000269	-2.693796	-0.912683	-0.021845
 216	1.0750e-01	8.6613	-0.327677	0.000090	0.897932	0.304228	0.007282
 217	1.0800e-01	8.6645	-0.254860	0.000180	1.795864	0.608455	0.014563
 218	1.0850e-01	8.7367	-0.291269	-0.000090	-0.897932	-0.304228	-0.007282
 219	1.0900e-01	8.7559	0.182043	0.001167	11.673115	3.954959	0.094662
 220	1.0950e-01	8.8040	0.182043	0.000000	0.000000	0.000000	0.000000
 221	1.1000e-01	8.8538	0.364086	0.000449	4.489660	1.521138	0.036409
 222	1.1050e-01	8.8698	0.546129	0.000449	4.489660	1.521138	0.036409
 223	1.1100e-01	8.9163	0.473312	-0.000180	-1.795864	-0.608455	-0.014563
 224	1.1150e-01	8.9661	0.546129	0.000180	1.795864	0.608455	0.014563
 225	1.1200e-01	8.9997	0.728172	0.000449	4.489660	1.521138	0.036409
 226	1.1250e-01	9.0334	0.837397	0.000269	2.693796	0.912683	0.021845
 227	1.1300e-01	9.0944	0.837397	0.000000	0.000000	0.000000	0.000000
 228	1.1350e-01	9.1409	0.910214	0.000180	1.795864	0.608455	0.014563
 229	1.1400e-01	9.1602	1.310709	0.000988	9.877251	3.346503	0.080099
 230	1.1450e-01	9.1955	1.092257	-0.000539	-5.387592	-1.825365	-0.043690
 231	1.1500e-01	9.2564	1.383526	0.000718	7.183456	2.433821	0.058254
 232	1.1550e-01	9.2612	1.310709	-0.000180	-1.795864	-0.608455	-0.014563
 233	1.1600e-01	9.3366	1.529160	0.000539	5.387592	1.825365	0.043690
 234	1.1650e-01	9.3655	1.492752	-0.000090	-0.897932	-0.304228	-0.007282
 235	1.1700e-01	9.3880	1.601977	0.000269	2.693796	0.912683	0.021845
 236	1.1750e-01	9.4409	1.784020	0.000449	4.489660	1.521138	0.036409
 237	1.1800e-01	9.5147	1.820429	0.000090	0.897932	0.304228	0.007282
 238	1.1850e-01	9.5243	2.148106	0.000808	8.081388	2.738048	0.065535
 239	1.1900e-01	9.5516	2.184515	0.000090	0.897932	0.304228	0.007282
 240	1.1950e-01	9.6126	2.148106	-0.000090	-0.897932	-0.304228	-0.007282
 241	1.2000e-01	9.6398	2.293740	0.000359	3.591728	1.216910	0.029127
 242	1.2050e-01	9.6928	2.257332	-0.000090	-0.897932	-0.304228	-0.007282
 243	1.2100e-01	9.7361	2.548600	0.000718	7.183456	2.433821	0.058254
 244	1.2150e-01	9.7569	2.657826	0.000269	2.693796	0.912683	0.021845
 245	1.2200e-01	9.8051	2.512192	-0.000359	-3.591728	-1.216910	-0.029127
 246	1.2250e-01	9.8323	2.949095	0.001078	10.775183	3.650731	0.087381
 247	1.2300e-01	9.8789	3.058320	0.000269	2.693796	0.912683	0.021845
 248	1.2350e-01	9.9174	3.240363	0.000449	4.489660	1.521138	0.036409
 249	1.2400e-01	9.9847	3.167546	-0.000180	-1.795864	-0.608455	-0.014563
 250	1.2450e-01	9.9815	3.276772	-0.000269	-2.693796	-0.912683	0.021845
 251	1.2500e-01	10.0393	3.240363	-0.000090	-0.897932	-0.304228	-0.007282
 252	1.2550e-01	10.0698	3.349589	0.000269	2.693796	0.912683	0.021845
 253	1.2600e-01	10.1179	3.604449	0.000629	6.285524	2.129593	0.050972
 254	1.2650e-01	10.1676	3.604449	0.000000	0.000000	0.000000	0.000000
 255	1.2700e-01	10.1933	3.495223	-0.000269	-2.693796	-0.912683	-0.021845
 256	1.2750e-01	10.2527	3.859309	0.000898	8.979320	3.042276	0.072817
 257	1.2800e-01	10.2767	3.568041	-0.000718	-7.183456	-2.433821	-0.058254
 258	1.2850e-01	10.3120	4.041352	0.001167	11.673115	3.954959	0.094662
