»»»»»»»»»»»»»»»»»»»»»»»»»»»»»»»»»»»» Hysteresis ««««««««««««««««««««««««««««««««««««
»»»  Executed Version:	5.48.1
»»»  Vision Version:	5.48.4 (R)
»»»  Vision Compiled:	9/18/24
»»»  Driver Version:	5.47.0
»»»  Windows Version:	Windows 8 or 8.1
»»»  Processor Information:	x86 (AMD or Intel) - 32 Processors
»»»  Tester Name:	PMF21124-494 (100V)
»»»  Tester S/N:	PMF21124-494
»»»  Internal Amp Type:	100V RevK 270k
»»»  Internal Amp S/N:	iAB2-596/K     
»»»  Execution Count:	1
»»»»»»»»»»»»»»»»»»»»»»»»»»»»»»»»»»»»»»»»»»««««««««««««««««««««««««««««««««««««««««««

Stored:	6/10/2025 - 15:51:31
Configured:	06/10/25 03:08:08 PM
Executed:	06/10/25 03:50:58 PM

»»»»»»»»»»»»»»»»»»»»»»»»»»»»»»»»»»» Sample Info ««««««««««««««««««««««««««««««««««««
Sample Name:	
Lot Name:	
Wafer Name:	
Die Row/Column:	0/0
Capacitor Number:	0
Sample Area (cm2):	1.00e-04
Sample Thickness (microns):	3.00e-01

Amplifier:	Internal

»»»»»»»»»»»»»»»»»»»»»»»»»»»»»»»»»»» Tester Info «««««««««««««««««««««««««««««««««««
Tester Name:	PMF21124-494 (100V)
Tester Serial Number:	PMF21124-494
Return Signal Amp. Level:	0.19 [Index: 3]

»»»»»»»»»»»»»»»»»»»»»»»»»»»»»»»» Hysteresis Info ««««««««««««««««««««««««««««««««««
Task Name:	Hyst-1091
Volts:	20.00
Field:	666.67 (kV/cm)
DCBias:	0.00
DCField:	0.00 (kV/cm)
Hysteresis Period (ms):	2.00e+02
Preset:	Enabled
Preset Delay (ms):	1.00e+03
Profile:	Standard Bipolar

»»»»»»»»»»»»»»»»»»»»»»»»»»»»»»»»»»»»»» Data «««««««««««««««««««««««««««««««««««««««
Points:	2009

Valid Data

Point	Time (ms)	Drive Voltage	Measured Polarization (uC/cm2)	Capacitance (uF)	Normalized Capacitance (uF/cm2)	Dielectric Constant	Instantaneous Current (mA)
   1	0.0000e+00	-0.0064	0.327008	0.000416	4.155539	1.407935	0.000166
   2	9.9500e-02	0.0289	0.492531	0.000416	4.155539	1.407935	0.000166
   3	1.9900e-01	0.0642	0.714573	0.000557	5.574504	1.888693	0.000223
   4	2.9850e-01	0.1059	0.916430	0.000507	5.067731	1.716994	0.000203
   5	3.9800e-01	0.1508	1.142509	0.000568	5.675858	1.923033	0.000227
   6	4.9750e-01	0.1861	1.332255	0.000476	4.763667	1.613974	0.000191
   7	5.9700e-01	0.2294	1.602743	0.000679	6.790759	2.300772	0.000272
   8	6.9650e-01	0.2695	1.832860	0.000578	5.777213	1.957373	0.000231
   9	7.9600e-01	0.3096	2.022605	0.000476	4.763667	1.613974	0.000191
  10	8.9550e-01	0.3481	2.252722	0.000578	5.777213	1.957373	0.000231
  11	9.9500e-01	0.3914	2.446504	0.000487	4.865022	1.648314	0.000195
  12	1.0945e+00	0.4412	2.676621	0.000578	5.777213	1.957373	0.000231
  13	1.1940e+00	0.4588	2.914812	0.000598	5.979922	2.026053	0.000239
  14	1.2935e+00	0.5134	3.161077	0.000618	6.182632	2.094732	0.000248
  15	1.3930e+00	0.5503	3.366971	0.000517	5.169085	1.751334	0.000207
  16	1.4925e+00	0.5920	3.617274	0.000628	6.283986	2.129072	0.000252
  17	1.5920e+00	0.6257	3.867576	0.000628	6.283986	2.129072	0.000252
  18	1.6915e+00	0.6674	4.077507	0.000527	5.270440	1.785673	0.000211
  19	1.7910e+00	0.7043	4.279364	0.000507	5.067731	1.716994	0.000203
  20	1.8905e+00	0.7396	4.533703	0.000639	6.385341	2.163412	0.000256
  21	1.9900e+00	0.7893	4.751709	0.000547	5.473149	1.854353	0.000219
  22	2.0895e+00	0.8198	5.002011	0.000628	6.283986	2.129072	0.000252
  23	2.1890e+00	0.8727	5.199831	0.000497	4.966376	1.682654	0.000199
  24	2.2885e+00	0.9064	5.494542	0.000740	7.398887	2.506811	0.000296
  25	2.3880e+00	0.9401	5.700436	0.000517	5.169085	1.751334	0.000207
  26	2.4875e+00	0.9802	5.906330	0.000517	5.169085	1.751334	0.000207
  27	2.5870e+00	1.0203	6.144521	0.000598	5.979922	2.026053	0.000239
  28	2.6865e+00	1.0732	6.358489	0.000537	5.371795	1.820013	0.000215
  29	2.7860e+00	1.1053	6.616865	0.000649	6.486695	2.197752	0.000260
  30	2.8855e+00	1.1454	6.826797	0.000527	5.270440	1.785673	0.000211
  31	2.9850e+00	1.1887	7.081136	0.000639	6.385341	2.163412	0.000256
  32	3.0845e+00	1.2240	7.307216	0.000568	5.675858	1.923033	0.000227
  33	3.1840e+00	1.2770	7.561555	0.000639	6.385341	2.163412	0.000256
  34	3.2835e+00	1.3058	7.771486	0.000527	5.270440	1.785673	0.000211
  35	3.3830e+00	1.3443	8.029863	0.000649	6.486695	2.197752	0.000260
  36	3.4825e+00	1.3861	8.259980	0.000578	5.777213	1.957373	0.000231
  37	3.5820e+00	1.4326	8.469911	0.000527	5.270440	1.785673	0.000211
  38	3.6815e+00	1.4550	8.760585	0.000730	7.297532	2.472471	0.000292
  39	3.7810e+00	1.5192	8.966478	0.000517	5.169085	1.751334	0.000207
  40	3.8805e+00	1.5465	9.224855	0.000649	6.486695	2.197752	0.000260
  41	3.9800e+00	1.5914	9.414601	0.000476	4.763667	1.613974	0.000191
  42	4.0795e+00	1.6283	9.677014	0.000659	6.588050	2.232092	0.000264
  43	4.1790e+00	1.6684	9.907131	0.000578	5.777213	1.957373	0.000231
  44	4.2785e+00	1.7037	10.169545	0.000659	6.588050	2.232092	0.000264
  45	4.3780e+00	1.7486	10.363327	0.000487	4.865022	1.648314	0.000195
  46	4.4775e+00	1.7743	10.601518	0.000598	5.979922	2.026053	0.000239
  47	4.5770e+00	1.8176	10.827598	0.000568	5.675858	1.923033	0.000227
  48	4.6765e+00	1.8673	11.090012	0.000659	6.588050	2.232092	0.000264
  49	4.7760e+00	1.9058	11.340314	0.000628	6.283986	2.129072	0.000252
  50	4.8755e+00	1.9507	11.530060	0.000476	4.763667	1.613974	0.000191
  51	4.9750e+00	1.9780	11.792473	0.000659	6.588050	2.232092	0.000264
  52	5.0745e+00	2.0181	12.002405	0.000527	5.270440	1.785673	0.000211
  53	5.1740e+00	2.0630	12.264818	0.000659	6.588050	2.232092	0.000264
  54	5.2735e+00	2.0999	12.454564	0.000476	4.763667	1.613974	0.000191
  55	5.3730e+00	2.1417	12.712940	0.000649	6.486695	2.197752	0.000260
  56	5.4725e+00	2.1818	12.951131	0.000598	5.979922	2.026053	0.000239
  57	5.5720e+00	2.2251	13.189322	0.000598	5.979922	2.026053	0.000239
  58	5.6715e+00	2.2716	13.443662	0.000639	6.385341	2.163412	0.000256
  59	5.7710e+00	2.2973	13.641482	0.000497	4.966376	1.682654	0.000199
  60	5.8705e+00	2.3454	13.887747	0.000618	6.182632	2.094732	0.000248
  61	5.9700e+00	2.3823	14.101715	0.000537	5.371795	1.820013	0.000215
  62	6.0695e+00	2.4320	14.396426	0.000740	7.398887	2.506811	0.000296
  63	6.1690e+00	2.4593	14.574060	0.000446	4.459603	1.510954	0.000179
  64	6.2685e+00	2.5026	14.800140	0.000568	5.675858	1.923033	0.000227
  65	6.3680e+00	2.5475	15.070628	0.000679	6.790759	2.300772	0.000272
  66	6.4675e+00	2.5780	15.260373	0.000476	4.763667	1.613974	0.000191
  67	6.5670e+00	2.6181	15.526824	0.000669	6.689405	2.266432	0.000268
  68	6.6665e+00	2.6630	15.732718	0.000517	5.169085	1.751334	0.000207
  69	6.7660e+00	2.6903	15.970909	0.000598	5.979922	2.026053	0.000239
  70	6.8655e+00	2.7416	16.196989	0.000568	5.675858	1.923033	0.000227
  71	6.9650e+00	2.7801	16.414994	0.000547	5.473149	1.854353	0.000219
  72	7.0645e+00	2.8154	16.669333	0.000639	6.385341	2.163412	0.000256
  73	7.1640e+00	2.8587	16.875227	0.000517	5.169085	1.751334	0.000207
  74	7.2635e+00	2.8972	17.113418	0.000598	5.979922	2.026053	0.000239
  75	7.3630e+00	2.9245	17.343535	0.000578	5.777213	1.957373	0.000231
  76	7.4625e+00	2.9855	17.561540	0.000547	5.473149	1.854353	0.000219
  77	7.5620e+00	3.0192	17.795694	0.000588	5.878568	1.991713	0.000235
  78	7.6615e+00	3.0625	18.021774	0.000568	5.675858	1.923033	0.000227
  79	7.7610e+00	3.1042	18.227668	0.000517	5.169085	1.751334	0.000207
  80	7.8605e+00	3.1395	18.441636	0.000537	5.371795	1.820013	0.000215
  81	7.9600e+00	3.1700	18.695976	0.000639	6.385341	2.163412	0.000256
  82	8.0595e+00	3.2213	18.926092	0.000578	5.777213	1.957373	0.000231
  83	8.1590e+00	3.2582	19.127949	0.000507	5.067731	1.716994	0.000203
  84	8.2585e+00	3.2983	19.345954	0.000547	5.473149	1.854353	0.000219
  85	8.3580e+00	3.3432	19.608368	0.000659	6.588050	2.232092	0.000264
  86	8.4575e+00	3.3753	19.810225	0.000507	5.067731	1.716994	0.000203
  87	8.5570e+00	3.4202	20.080713	0.000679	6.790759	2.300772	0.000272
  88	8.6565e+00	3.4523	20.274496	0.000487	4.865022	1.648314	0.000195
  89	8.7560e+00	3.5020	20.500575	0.000568	5.675858	1.923033	0.000227
  90	8.8555e+00	3.5454	20.730692	0.000578	5.777213	1.957373	0.000231
  91	8.9550e+00	3.5742	20.932549	0.000507	5.067731	1.716994	0.000203
  92	9.0545e+00	3.6063	21.146517	0.000537	5.371795	1.820013	0.000215
  93	9.1540e+00	3.6593	21.400857	0.000639	6.385341	2.163412	0.000256
  94	9.2535e+00	3.6913	21.606750	0.000517	5.169085	1.751334	0.000207
  95	9.3530e+00	3.7330	21.836867	0.000578	5.777213	1.957373	0.000231
  96	9.4525e+00	3.7716	22.058910	0.000557	5.574504	1.888693	0.000223
  97	9.5520e+00	3.8117	22.276915	0.000547	5.473149	1.854353	0.000219
  98	9.6515e+00	3.8582	22.462623	0.000466	4.662312	1.579634	0.000187
  99	9.7510e+00	3.8935	22.668517	0.000517	5.169085	1.751334	0.000207
 100	9.8505e+00	3.9336	22.922857	0.000639	6.385341	2.163412	0.000256
 101	9.9500e+00	3.9721	23.165085	0.000608	6.081277	2.060392	0.000243
 102	1.0050e+01	4.0170	23.346756	0.000456	4.560958	1.545294	0.000183
 103	1.0149e+01	4.0603	23.556687	0.000527	5.270440	1.785673	0.000211
 104	1.0248e+01	4.0924	23.819101	0.000659	6.588050	2.232092	0.000264
 105	1.0348e+01	4.1341	24.033069	0.000537	5.371795	1.820013	0.000215
 106	1.0447e+01	4.1790	24.243000	0.000527	5.270440	1.785673	0.000211
 107	1.0547e+01	4.2079	24.465043	0.000557	5.574504	1.888693	0.000223
 108	1.0646e+01	4.2544	24.691122	0.000568	5.675858	1.923033	0.000227
 109	1.0746e+01	4.2929	24.917202	0.000568	5.675858	1.923033	0.000227
 110	1.0845e+01	4.3314	25.115021	0.000497	4.966376	1.682654	0.000199
 111	1.0945e+01	4.3747	25.320915	0.000517	5.169085	1.751334	0.000207
 112	1.1044e+01	4.4148	25.563143	0.000608	6.081277	2.060392	0.000243
 113	1.1144e+01	4.4598	25.760963	0.000497	4.966376	1.682654	0.000199
 114	1.1243e+01	4.4951	25.970894	0.000527	5.270440	1.785673	0.000211
 115	1.1343e+01	4.5352	26.217159	0.000618	6.182632	2.094732	0.000248
 116	1.1443e+01	4.5737	26.386719	0.000426	4.256894	1.442275	0.000170
 117	1.1542e+01	4.6122	26.604725	0.000547	5.473149	1.854353	0.000219
 118	1.1642e+01	4.6507	26.822730	0.000547	5.473149	1.854353	0.000219
 119	1.1741e+01	4.6892	27.016512	0.000487	4.865022	1.648314	0.000195
 120	1.1841e+01	4.7293	27.202221	0.000466	4.662312	1.579634	0.000187
 121	1.1940e+01	4.7758	27.456560	0.000639	6.385341	2.163412	0.000256
 122	1.2040e+01	4.8143	27.646306	0.000476	4.763667	1.613974	0.000191
 123	1.2139e+01	4.8528	27.872385	0.000568	5.675858	1.923033	0.000227
 124	1.2239e+01	4.8961	28.090390	0.000547	5.473149	1.854353	0.000219
 125	1.2338e+01	4.9330	28.292247	0.000507	5.067731	1.716994	0.000203
 126	1.2438e+01	4.9683	28.502178	0.000527	5.270440	1.785673	0.000211
 127	1.2537e+01	5.0116	28.695961	0.000487	4.865022	1.648314	0.000195
 128	1.2636e+01	5.0485	28.918003	0.000557	5.574504	1.888693	0.000223
 129	1.2736e+01	5.0870	29.107749	0.000476	4.763667	1.613974	0.000191
 130	1.2835e+01	5.1319	29.317680	0.000527	5.270440	1.785673	0.000211
 131	1.2935e+01	5.1688	29.515499	0.000497	4.966376	1.682654	0.000199
 132	1.3034e+01	5.2089	29.725430	0.000527	5.270440	1.785673	0.000211
 133	1.3134e+01	5.2507	29.923250	0.000497	4.966376	1.682654	0.000199
 134	1.3233e+01	5.2940	30.137218	0.000537	5.371795	1.820013	0.000215
 135	1.3333e+01	5.3277	30.343112	0.000517	5.169085	1.751334	0.000207
 136	1.3432e+01	5.3742	30.536895	0.000487	4.865022	1.648314	0.000195
 137	1.3532e+01	5.4063	30.742789	0.000517	5.169085	1.751334	0.000207
 138	1.3632e+01	5.4480	30.964831	0.000557	5.574504	1.888693	0.000223
 139	1.3731e+01	5.4881	31.186874	0.000557	5.574504	1.888693	0.000223
 140	1.3831e+01	5.5314	31.384693	0.000497	4.966376	1.682654	0.000199
 141	1.3930e+01	5.5683	31.606736	0.000557	5.574504	1.888693	0.000223
 142	1.4030e+01	5.6148	31.764184	0.000395	3.952830	1.339255	0.000158
 143	1.4129e+01	5.6533	32.002375	0.000598	5.979922	2.026053	0.000239
 144	1.4229e+01	5.6790	32.151749	0.000375	3.750121	1.270575	0.000150
 145	1.4328e+01	5.7319	32.389940	0.000598	5.979922	2.026053	0.000239
 146	1.4428e+01	5.7688	32.591797	0.000507	5.067731	1.716994	0.000203
 147	1.4527e+01	5.8025	32.805765	0.000537	5.371795	1.820013	0.000215
 148	1.4627e+01	5.8442	32.983399	0.000446	4.459603	1.510954	0.000179
 149	1.4726e+01	5.8907	33.181219	0.000497	4.966376	1.682654	0.000199
 150	1.4825e+01	5.9308	33.427484	0.000618	6.182632	2.094732	0.000248
 151	1.4925e+01	5.9661	33.572821	0.000365	3.648766	1.236235	0.000146
 152	1.5024e+01	6.0062	33.798900	0.000568	5.675858	1.923033	0.000227
 153	1.5124e+01	6.0383	34.033054	0.000588	5.878568	1.991713	0.000235
 154	1.5223e+01	6.0929	34.198577	0.000416	4.155539	1.407935	0.000166
 155	1.5323e+01	6.1234	34.388322	0.000476	4.763667	1.613974	0.000191
 156	1.5422e+01	6.1586	34.569993	0.000456	4.560958	1.545294	0.000183
 157	1.5522e+01	6.2084	34.836444	0.000669	6.689405	2.266432	0.000268
 158	1.5621e+01	6.2517	34.997930	0.000405	4.054185	1.373595	0.000162
 159	1.5721e+01	6.2886	35.199786	0.000507	5.067731	1.716994	0.000203
 160	1.5820e+01	6.3255	35.433940	0.000588	5.878568	1.991713	0.000235
 161	1.5920e+01	6.3736	35.579277	0.000365	3.648766	1.236235	0.000146
 162	1.6020e+01	6.4089	35.813431	0.000588	5.878568	1.991713	0.000235
 163	1.6119e+01	6.4490	35.995102	0.000456	4.560958	1.545294	0.000183
 164	1.6218e+01	6.4923	36.184848	0.000476	4.763667	1.613974	0.000191
 165	1.6318e+01	6.5244	36.378630	0.000487	4.865022	1.648314	0.000195
 166	1.6418e+01	6.5677	36.564338	0.000466	4.662312	1.579634	0.000187
 167	1.6517e+01	6.6030	36.758121	0.000487	4.865022	1.648314	0.000195
 168	1.6616e+01	6.6383	36.964015	0.000517	5.169085	1.751334	0.000207
 169	1.6716e+01	6.6864	37.125500	0.000405	4.054185	1.373595	0.000162
 170	1.6816e+01	6.7153	37.404063	0.000699	6.993468	2.369451	0.000280
 171	1.6915e+01	6.7602	37.545362	0.000355	3.547412	1.201896	0.000142
 172	1.7015e+01	6.8116	37.739145	0.000487	4.865022	1.648314	0.000195
 173	1.7114e+01	6.8324	37.904667	0.000416	4.155539	1.407935	0.000166
 174	1.7213e+01	6.8838	38.082301	0.000446	4.459603	1.510954	0.000179
 175	1.7313e+01	6.9175	38.324530	0.000608	6.081277	2.060392	0.000243
 176	1.7413e+01	6.9624	38.498126	0.000436	4.358248	1.476615	0.000174
 177	1.7512e+01	7.0009	38.691909	0.000487	4.865022	1.648314	0.000195
 178	1.7611e+01	7.0410	38.885691	0.000487	4.865022	1.648314	0.000195
 179	1.7711e+01	7.0763	39.059288	0.000436	4.358248	1.476615	0.000174
 180	1.7811e+01	7.1244	39.244997	0.000466	4.662312	1.579634	0.000187
 181	1.7910e+01	7.1597	39.487225	0.000608	6.081277	2.060392	0.000243
 182	1.8009e+01	7.1982	39.616413	0.000324	3.243348	1.098876	0.000130
 183	1.8109e+01	7.2399	39.830381	0.000537	5.371795	1.820013	0.000215
 184	1.8209e+01	7.2816	40.020127	0.000476	4.763667	1.613974	0.000191
 185	1.8308e+01	7.3265	40.197761	0.000446	4.459603	1.510954	0.000179
 186	1.8407e+01	7.3682	40.407692	0.000527	5.270440	1.785673	0.000211
 187	1.8507e+01	7.4116	40.577251	0.000426	4.256894	1.442275	0.000170
 188	1.8607e+01	7.4485	40.766997	0.000476	4.763667	1.613974	0.000191
 189	1.8706e+01	7.4757	40.932519	0.000416	4.155539	1.407935	0.000166
 190	1.8805e+01	7.5158	41.081893	0.000375	3.750121	1.270575	0.000150
 191	1.8905e+01	7.5656	41.283750	0.000507	5.067731	1.716994	0.000203
 192	1.9005e+01	7.6009	41.477533	0.000487	4.865022	1.648314	0.000195
 193	1.9104e+01	7.6345	41.695538	0.000547	5.473149	1.854353	0.000219
 194	1.9203e+01	7.6795	41.885283	0.000476	4.763667	1.613974	0.000191
 195	1.9303e+01	7.7276	42.054843	0.000426	4.256894	1.442275	0.000170
 196	1.9402e+01	7.7565	42.196143	0.000355	3.547412	1.201896	0.000142
 197	1.9502e+01	7.8062	42.398000	0.000507	5.067731	1.716994	0.000203
 198	1.9602e+01	7.8303	42.575633	0.000446	4.459603	1.510954	0.000179
 199	1.9701e+01	7.8672	42.789602	0.000537	5.371795	1.820013	0.000215
 200	1.9800e+01	7.9185	42.967236	0.000446	4.459603	1.510954	0.000179
 201	1.9900e+01	7.9634	43.169092	0.000507	5.067731	1.716994	0.000203
 202	2.0000e+01	7.9987	43.322504	0.000385	3.851475	1.304915	0.000154
 203	2.0099e+01	8.0372	43.532435	0.000527	5.270440	1.785673	0.000211
 204	2.0198e+01	8.0709	43.657586	0.000314	3.141993	1.064536	0.000126
 205	2.0298e+01	8.1190	43.867517	0.000527	5.270440	1.785673	0.000211
 206	2.0398e+01	8.1591	44.037077	0.000426	4.256894	1.442275	0.000170
 207	2.0497e+01	8.1928	44.230859	0.000487	4.865022	1.648314	0.000195
 208	2.0596e+01	8.2458	44.436753	0.000517	5.169085	1.751334	0.000207
 209	2.0696e+01	8.2778	44.622461	0.000466	4.662312	1.579634	0.000187
 210	2.0796e+01	8.3228	44.779910	0.000395	3.952830	1.339255	0.000158
 211	2.0895e+01	8.3645	44.965618	0.000466	4.662312	1.579634	0.000187
 212	2.0994e+01	8.4030	45.135178	0.000426	4.256894	1.442275	0.000170
 213	2.1094e+01	8.4318	45.324923	0.000476	4.763667	1.613974	0.000191
 214	2.1194e+01	8.4784	45.474297	0.000375	3.750121	1.270575	0.000150
 215	2.1293e+01	8.5137	45.664042	0.000476	4.763667	1.613974	0.000191
 216	2.1392e+01	8.5602	45.861862	0.000497	4.966376	1.682654	0.000199
 217	2.1492e+01	8.5891	46.011236	0.000375	3.750121	1.270575	0.000150
 218	2.1591e+01	8.6356	46.209056	0.000497	4.966376	1.682654	0.000199
 219	2.1691e+01	8.6805	46.394764	0.000466	4.662312	1.579634	0.000187
 220	2.1791e+01	8.7174	46.564324	0.000426	4.256894	1.442275	0.000170
 221	2.1890e+01	8.7527	46.762143	0.000497	4.966376	1.682654	0.000199
 222	2.1989e+01	8.8008	46.883257	0.000304	3.040638	1.030196	0.000122
 223	2.2089e+01	8.8393	47.085114	0.000507	5.067731	1.716994	0.000203
 224	2.2189e+01	8.8842	47.250637	0.000416	4.155539	1.407935	0.000166
 225	2.2288e+01	8.9163	47.412122	0.000405	4.054185	1.373595	0.000162
 226	2.2387e+01	8.9548	47.561496	0.000375	3.750121	1.270575	0.000150
 227	2.2487e+01	8.9917	47.759316	0.000497	4.966376	1.682654	0.000199
 228	2.2587e+01	9.0302	47.936950	0.000446	4.459603	1.510954	0.000179
 229	2.2686e+01	9.0767	48.090361	0.000385	3.851475	1.304915	0.000154
 230	2.2785e+01	9.1072	48.300292	0.000527	5.270440	1.785673	0.000211
 231	2.2885e+01	9.1521	48.453703	0.000385	3.851475	1.304915	0.000154
 232	2.2985e+01	9.1987	48.627300	0.000436	4.358248	1.476615	0.000174
 233	2.3084e+01	9.2275	48.784748	0.000395	3.952830	1.339255	0.000158
 234	2.3183e+01	9.2821	48.966419	0.000456	4.560958	1.545294	0.000183
 235	2.3283e+01	9.3078	49.176350	0.000527	5.270440	1.785673	0.000211
 236	2.3383e+01	9.3511	49.301502	0.000314	3.141993	1.064536	0.000126
 237	2.3482e+01	9.3944	49.467024	0.000416	4.155539	1.407935	0.000166
 238	2.3581e+01	9.4361	49.616398	0.000375	3.750121	1.270575	0.000150
 239	2.3681e+01	9.4698	49.794032	0.000446	4.459603	1.510954	0.000179
 240	2.3780e+01	9.5163	49.995889	0.000507	5.067731	1.716994	0.000203
 241	2.3880e+01	9.5548	50.141226	0.000365	3.648766	1.236235	0.000146
 242	2.3980e+01	9.5981	50.266377	0.000314	3.141993	1.064536	0.000126
 243	2.4079e+01	9.6270	50.488420	0.000557	5.574504	1.888693	0.000223
 244	2.4178e+01	9.6767	50.682202	0.000487	4.865022	1.648314	0.000195
 245	2.4278e+01	9.7072	50.811390	0.000324	3.243348	1.098876	0.000130
 246	2.4378e+01	9.7569	50.980950	0.000426	4.256894	1.442275	0.000170
 247	2.4477e+01	9.8067	51.134361	0.000385	3.851475	1.304915	0.000154
 248	2.4576e+01	9.8372	51.307958	0.000436	4.358248	1.476615	0.000174
 249	2.4676e+01	9.8708	51.453295	0.000365	3.648766	1.236235	0.000146
 250	2.4776e+01	9.9061	51.598632	0.000365	3.648766	1.236235	0.000146
 251	2.4875e+01	9.9495	51.784340	0.000466	4.662312	1.579634	0.000187
 252	2.4974e+01	9.9847	51.937751	0.000385	3.851475	1.304915	0.000154
 253	2.5074e+01	10.0232	52.111348	0.000436	4.358248	1.476615	0.000174
 254	2.5174e+01	10.0714	52.264759	0.000385	3.851475	1.304915	0.000154
 255	2.5273e+01	10.1115	52.454505	0.000476	4.763667	1.613974	0.000191
 256	2.5372e+01	10.1484	52.624064	0.000426	4.256894	1.442275	0.000170
 257	2.5472e+01	10.1885	52.777476	0.000385	3.851475	1.304915	0.000154
 258	2.5572e+01	10.2238	52.902627	0.000314	3.141993	1.064536	0.000126
 259	2.5671e+01	10.2671	53.068149	0.000416	4.155539	1.407935	0.000166
 260	2.5770e+01	10.3184	53.229635	0.000405	4.054185	1.373595	0.000162
 261	2.5870e+01	10.3489	53.423417	0.000487	4.865022	1.648314	0.000195
 262	2.5970e+01	10.3890	53.560680	0.000345	3.446057	1.167556	0.000138
 263	2.6069e+01	10.4371	53.758499	0.000497	4.966376	1.682654	0.000199
 264	2.6169e+01	10.4644	53.907874	0.000375	3.750121	1.270575	0.000150
 265	2.6268e+01	10.5141	54.049173	0.000355	3.547412	1.201896	0.000142
 266	2.6367e+01	10.5559	54.222770	0.000436	4.358248	1.476615	0.000174
