»»»»»»»»»»»»»»»»»»»»»»»»»»»»»»»»»»»» Hysteresis ««««««««««««««««««««««««««««««««««««
»»»  Executed Version:	5.48.1
»»»  Vision Version:	5.48.4 (R)
»»»  Vision Compiled:	9/18/24
»»»  Driver Version:	5.47.0
»»»  Windows Version:	Windows 8 or 8.1
»»»  Processor Information:	x86 (AMD or Intel) - 32 Processors
»»»  Tester Name:	PMF21124-494 (100V)
»»»  Tester S/N:	PMF21124-494
»»»  Internal Amp Type:	100V RevK 270k
»»»  Internal Amp S/N:	iAB2-596/K     
»»»  Execution Count:	1
»»»»»»»»»»»»»»»»»»»»»»»»»»»»»»»»»»»»»»»»»»««««««««««««««««««««««««««««««««««««««««««

Stored:	6/11/2025 - 10:24:53
Configured:	06/11/25 10:21:25 AM
Executed:	06/11/25 10:24:22 AM

»»»»»»»»»»»»»»»»»»»»»»»»»»»»»»»»»»» Sample Info ««««««««««««««««««««««««««««««««««««
Sample Name:	
Lot Name:	
Wafer Name:	
Die Row/Column:	0/0
Capacitor Number:	0
Sample Area (cm2):	1.00e-04
Sample Thickness (microns):	3.00e-01

Amplifier:	Internal

»»»»»»»»»»»»»»»»»»»»»»»»»»»»»»»»»»» Tester Info «««««««««««««««««««««««««««««««««««
Tester Name:	PMF21124-494 (100V)
Tester Serial Number:	PMF21124-494
Return Signal Amp. Level:	0.19 [Index: 3]

»»»»»»»»»»»»»»»»»»»»»»»»»»»»»»»» Hysteresis Info ««««««««««««««««««««««««««««««««««
Task Name:	Hyst-1175
Volts:	20.00
Field:	666.67 (kV/cm)
DCBias:	0.00
DCField:	0.00 (kV/cm)
Hysteresis Period (ms):	2.00e+02
Preset:	Enabled
Preset Delay (ms):	1.00e+03
Profile:	Standard Bipolar

»»»»»»»»»»»»»»»»»»»»»»»»»»»»»»»»»»»»»» Data «««««««««««««««««««««««««««««««««««««««
Points:	2009

Valid Data

Point	Time (ms)	Drive Voltage	Measured Polarization (uC/cm2)	Capacitance (uF)	Normalized Capacitance (uF/cm2)	Dielectric Constant	Instantaneous Current (mA)
   1	0.0000e+00	-0.0273	-5.504635	0.000426	4.256467	1.442130	0.000170
   2	9.9500e-02	0.0016	-5.335075	0.000426	4.256467	1.442130	0.000170
   3	1.9900e-01	0.0401	-5.145329	0.000476	4.763189	1.613812	0.000191
   4	2.9850e-01	0.0754	-4.927324	0.000547	5.472600	1.854167	0.000219
   5	3.9800e-01	0.1251	-4.709319	0.000547	5.472600	1.854167	0.000219
   6	4.9750e-01	0.1620	-4.499388	0.000527	5.269911	1.785494	0.000211
   7	5.9700e-01	0.2021	-4.261197	0.000598	5.979323	2.025849	0.000239
   8	6.9650e-01	0.2374	-4.039154	0.000557	5.573945	1.888504	0.000223
   9	7.9600e-01	0.2839	-3.772703	0.000669	6.688734	2.266204	0.000268
  10	8.9550e-01	0.3192	-3.611218	0.000405	4.053778	1.373457	0.000162
  11	9.9500e-01	0.3593	-3.352841	0.000649	6.486045	2.197532	0.000260
  12	1.0945e+00	0.4011	-3.134836	0.000547	5.472600	1.854167	0.000219
  13	1.1940e+00	0.4396	-2.892608	0.000608	6.080667	2.060186	0.000243
  14	1.2935e+00	0.4845	-2.646342	0.000618	6.182012	2.094522	0.000248
  15	1.3930e+00	0.5150	-2.448523	0.000497	4.965878	1.682485	0.000199
  16	1.4925e+00	0.5486	-2.210332	0.000598	5.979323	2.025849	0.000239
  17	1.5920e+00	0.5952	-2.016549	0.000486	4.864534	1.648149	0.000195
  18	1.6915e+00	0.6385	-1.778358	0.000598	5.979323	2.025849	0.000239
  19	1.7910e+00	0.6786	-1.548242	0.000578	5.776634	1.957176	0.000231
  20	1.8905e+00	0.7251	-1.277753	0.000679	6.790078	2.300541	0.000272
  21	1.9900e+00	0.7460	-1.059748	0.000547	5.472600	1.854167	0.000219
  22	2.0895e+00	0.7941	-0.797334	0.000659	6.587389	2.231868	0.000264
  23	2.1890e+00	0.8358	-0.575292	0.000557	5.573945	1.888504	0.000223
  24	2.2885e+00	0.8759	-0.397658	0.000446	4.459156	1.510803	0.000179
  25	2.3880e+00	0.9080	-0.135244	0.000659	6.587389	2.231868	0.000264
  26	2.4875e+00	0.9593	0.098910	0.000588	5.877978	1.991513	0.000235
  27	2.5870e+00	0.9930	0.345175	0.000618	6.182012	2.094522	0.000248
  28	2.6865e+00	1.0395	0.571255	0.000568	5.675289	1.922840	0.000227
  29	2.7860e+00	1.0700	0.777149	0.000517	5.168567	1.751158	0.000207
  30	2.8855e+00	1.1182	1.003228	0.000568	5.675289	1.922840	0.000227
  31	2.9850e+00	1.1567	1.261605	0.000649	6.486045	2.197532	0.000260
  32	3.0845e+00	1.1952	1.491722	0.000578	5.776634	1.957176	0.000231
  33	3.1840e+00	1.2337	1.725876	0.000588	5.877978	1.991513	0.000235
  34	3.2835e+00	1.2722	1.960029	0.000588	5.877978	1.991513	0.000235
  35	3.3830e+00	1.3171	2.194183	0.000588	5.877978	1.991513	0.000235
  36	3.4825e+00	1.3588	2.440449	0.000618	6.182012	2.094522	0.000248
  37	3.5820e+00	1.3989	2.654417	0.000537	5.371256	1.819831	0.000215
  38	3.6815e+00	1.4406	2.892608	0.000598	5.979323	2.025849	0.000239
  39	3.7810e+00	1.4743	3.126762	0.000588	5.877978	1.991513	0.000235
  40	3.8805e+00	1.5192	3.364953	0.000598	5.979323	2.025849	0.000239
  41	3.9800e+00	1.5577	3.582958	0.000547	5.472600	1.854167	0.000219
  42	4.0795e+00	1.5930	3.833260	0.000628	6.283356	2.128859	0.000252
  43	4.1790e+00	1.6331	4.083563	0.000628	6.283356	2.128859	0.000252
  44	4.2785e+00	1.6796	4.309642	0.000568	5.675289	1.922840	0.000227
  45	4.3780e+00	1.7133	4.515536	0.000517	5.168567	1.751158	0.000207
  46	4.4775e+00	1.7486	4.741616	0.000568	5.675289	1.922840	0.000227
  47	4.5770e+00	1.7967	5.008067	0.000669	6.688734	2.266204	0.000268
  48	4.6765e+00	1.8385	5.197812	0.000476	4.763189	1.613812	0.000191
  49	4.7760e+00	1.8753	5.452152	0.000638	6.384700	2.163195	0.000256
  50	4.8755e+00	1.9267	5.670157	0.000547	5.472600	1.854167	0.000219
  51	4.9750e+00	1.9540	5.900274	0.000578	5.776634	1.957176	0.000231
  52	5.0745e+00	1.9941	6.166725	0.000669	6.688734	2.266204	0.000268
  53	5.1740e+00	2.0358	6.380693	0.000537	5.371256	1.819831	0.000215
  54	5.2735e+00	2.0727	6.594661	0.000537	5.371256	1.819831	0.000215
  55	5.3730e+00	2.1112	6.840927	0.000618	6.182012	2.094522	0.000248
  56	5.4725e+00	2.1545	7.054895	0.000537	5.371256	1.819831	0.000215
  57	5.5720e+00	2.1834	7.285011	0.000578	5.776634	1.957176	0.000231
  58	5.6715e+00	2.2411	7.523202	0.000598	5.979323	2.025849	0.000239
  59	5.7710e+00	2.2732	7.745245	0.000557	5.573945	1.888504	0.000223
  60	5.8705e+00	2.3181	7.967287	0.000557	5.573945	1.888504	0.000223
  61	5.9700e+00	2.3566	8.213553	0.000618	6.182012	2.094522	0.000248
  62	6.0695e+00	2.3919	8.451744	0.000598	5.979323	2.025849	0.000239
  63	6.1690e+00	2.4400	8.657638	0.000517	5.168567	1.751158	0.000207
  64	6.2685e+00	2.4769	8.911977	0.000638	6.384700	2.163195	0.000256
  65	6.3680e+00	2.5090	9.154205	0.000608	6.080667	2.060186	0.000243
  66	6.4675e+00	2.5539	9.380285	0.000568	5.675289	1.922840	0.000227
  67	6.5670e+00	2.5940	9.614439	0.000588	5.877978	1.991513	0.000235
  68	6.6665e+00	2.6261	9.816296	0.000507	5.067223	1.716821	0.000203
  69	6.7660e+00	2.6710	10.074672	0.000649	6.486045	2.197532	0.000260
  70	6.8655e+00	2.7160	10.300752	0.000568	5.675289	1.922840	0.000227
  71	6.9650e+00	2.7529	10.547017	0.000618	6.182012	2.094522	0.000248
  72	7.0645e+00	2.7978	10.724651	0.000446	4.459156	1.510803	0.000179
  73	7.1640e+00	2.8363	10.938619	0.000537	5.371256	1.819831	0.000215
  74	7.2635e+00	2.8748	11.192959	0.000638	6.384700	2.163195	0.000256
  75	7.3630e+00	2.9053	11.386741	0.000486	4.864534	1.648149	0.000195
  76	7.4625e+00	2.9630	11.608784	0.000557	5.573945	1.888504	0.000223
  77	7.5620e+00	2.9903	11.814678	0.000517	5.168567	1.751158	0.000207
  78	7.6615e+00	3.0416	12.085166	0.000679	6.790078	2.300541	0.000272
  79	7.7610e+00	3.0769	12.287023	0.000507	5.067223	1.716821	0.000203
  80	7.8605e+00	3.1074	12.529251	0.000608	6.080667	2.060186	0.000243
  81	7.9600e+00	3.1459	12.767442	0.000598	5.979323	2.025849	0.000239
  82	8.0595e+00	3.1924	12.965261	0.000497	4.965878	1.682485	0.000199
  83	8.1590e+00	3.2325	13.183267	0.000547	5.472600	1.854167	0.000219
  84	8.2585e+00	3.2662	13.397235	0.000537	5.371256	1.819831	0.000215
  85	8.3580e+00	3.3063	13.595055	0.000497	4.965878	1.682485	0.000199
  86	8.4575e+00	3.3480	13.841320	0.000618	6.182012	2.094522	0.000248
  87	8.5570e+00	3.3978	14.010880	0.000426	4.256467	1.442130	0.000170
  88	8.6565e+00	3.4331	14.265219	0.000638	6.384700	2.163195	0.000256
  89	8.7560e+00	3.4619	14.442853	0.000446	4.459156	1.510803	0.000179
  90	8.8555e+00	3.5085	14.689118	0.000618	6.182012	2.094522	0.000248
  91	8.9550e+00	3.5454	14.862715	0.000436	4.357811	1.476466	0.000174
  92	9.0545e+00	3.5839	15.108980	0.000618	6.182012	2.094522	0.000248
  93	9.1540e+00	3.6224	15.322949	0.000537	5.371256	1.819831	0.000215
  94	9.2535e+00	3.6609	15.508657	0.000466	4.661845	1.579476	0.000187
  95	9.3530e+00	3.7042	15.726662	0.000547	5.472600	1.854167	0.000219
  96	9.4525e+00	3.7539	15.944668	0.000547	5.472600	1.854167	0.000219
  97	9.5520e+00	3.7908	16.207081	0.000659	6.587389	2.231868	0.000264
  98	9.6515e+00	3.8229	16.360493	0.000385	3.851089	1.304784	0.000154
  99	9.7510e+00	3.8550	16.586572	0.000568	5.675289	1.922840	0.000227
 100	9.8505e+00	3.9063	16.764206	0.000446	4.459156	1.510803	0.000179
 101	9.9500e+00	3.9512	16.994323	0.000578	5.776634	1.957176	0.000231
 102	1.0050e+01	3.9817	17.216365	0.000557	5.573945	1.888504	0.000223
 103	1.0149e+01	4.0314	17.430334	0.000537	5.371256	1.819831	0.000215
 104	1.0248e+01	4.0731	17.640265	0.000527	5.269911	1.785494	0.000211
 105	1.0348e+01	4.0956	17.862307	0.000557	5.573945	1.888504	0.000223
 106	1.0447e+01	4.1421	18.084350	0.000557	5.573945	1.888504	0.000223
 107	1.0547e+01	4.1903	18.249872	0.000416	4.155123	1.407794	0.000166
 108	1.0646e+01	4.2304	18.484026	0.000588	5.877978	1.991513	0.000235
 109	1.0746e+01	4.2705	18.677808	0.000486	4.864534	1.648149	0.000195
 110	1.0845e+01	4.3058	18.891777	0.000537	5.371256	1.819831	0.000215
 111	1.0945e+01	4.3459	19.121893	0.000578	5.776634	1.957176	0.000231
 112	1.1044e+01	4.3860	19.311639	0.000476	4.763189	1.613812	0.000191
 113	1.1144e+01	4.4277	19.497347	0.000466	4.661845	1.579476	0.000187
 114	1.1243e+01	4.4646	19.743612	0.000618	6.182012	2.094522	0.000248
 115	1.1343e+01	4.5095	19.901061	0.000395	3.952434	1.339121	0.000158
 116	1.1443e+01	4.5448	20.123103	0.000557	5.573945	1.888504	0.000223
 117	1.1542e+01	4.5881	20.292663	0.000426	4.256467	1.442130	0.000170
 118	1.1642e+01	4.6186	20.522780	0.000578	5.776634	1.957176	0.000231
 119	1.1741e+01	4.6731	20.720599	0.000497	4.965878	1.682485	0.000199
 120	1.1841e+01	4.7148	20.894196	0.000436	4.357811	1.476466	0.000174
 121	1.1940e+01	4.7533	21.120276	0.000568	5.675289	1.922840	0.000227
 122	1.2040e+01	4.7838	21.310021	0.000476	4.763189	1.613812	0.000191
 123	1.2139e+01	4.8111	21.528026	0.000547	5.472600	1.854167	0.000219
 124	1.2239e+01	4.8608	21.717772	0.000476	4.763189	1.613812	0.000191
 125	1.2338e+01	4.8977	21.923666	0.000517	5.168567	1.751158	0.000207
 126	1.2438e+01	4.9410	22.109374	0.000466	4.661845	1.579476	0.000187
 127	1.2537e+01	4.9827	22.327379	0.000547	5.472600	1.854167	0.000219
 128	1.2636e+01	5.0245	22.505013	0.000446	4.459156	1.510803	0.000179
 129	1.2736e+01	5.0614	22.690721	0.000466	4.661845	1.579476	0.000187
 130	1.2835e+01	5.1031	22.880467	0.000476	4.763189	1.613812	0.000191
 131	1.2935e+01	5.1384	23.102509	0.000557	5.573945	1.888504	0.000223
 132	1.3034e+01	5.1833	23.268032	0.000416	4.155123	1.407794	0.000166
 133	1.3134e+01	5.2234	23.534483	0.000669	6.688734	2.266204	0.000268
 134	1.3233e+01	5.2587	23.704042	0.000426	4.256467	1.442130	0.000170
 135	1.3333e+01	5.3020	23.857454	0.000385	3.851089	1.304784	0.000154
 136	1.3432e+01	5.3389	24.087570	0.000578	5.776634	1.957176	0.000231
 137	1.3532e+01	5.3790	24.297501	0.000527	5.269911	1.785494	0.000211
 138	1.3632e+01	5.4175	24.467061	0.000426	4.256467	1.442130	0.000170
 139	1.3731e+01	5.4608	24.705252	0.000598	5.979323	2.025849	0.000239
 140	1.3831e+01	5.5105	24.838478	0.000334	3.344367	1.133102	0.000134
 141	1.3930e+01	5.5298	25.052446	0.000537	5.371256	1.819831	0.000215
 142	1.4030e+01	5.5779	25.254303	0.000507	5.067223	1.716821	0.000203
 143	1.4129e+01	5.6276	25.419825	0.000416	4.155123	1.407794	0.000166
 144	1.4229e+01	5.6694	25.625719	0.000517	5.168567	1.751158	0.000207
 145	1.4328e+01	5.7063	25.787205	0.000405	4.053778	1.373457	0.000162
 146	1.4428e+01	5.7319	26.021358	0.000588	5.877978	1.991513	0.000235
 147	1.4527e+01	5.7817	26.162658	0.000355	3.547056	1.201775	0.000142
 148	1.4627e+01	5.8298	26.392775	0.000578	5.776634	1.957176	0.000231
 149	1.4726e+01	5.8635	26.562335	0.000426	4.256467	1.442130	0.000170
 150	1.4825e+01	5.8923	26.768229	0.000517	5.168567	1.751158	0.000207
 151	1.4925e+01	5.9469	26.933751	0.000416	4.155123	1.407794	0.000166
 152	1.5024e+01	5.9790	27.119459	0.000466	4.661845	1.579476	0.000187
 153	1.5124e+01	6.0207	27.284982	0.000416	4.155123	1.407794	0.000166
 154	1.5223e+01	6.0560	27.498950	0.000537	5.371256	1.819831	0.000215
 155	1.5323e+01	6.0993	27.704844	0.000517	5.168567	1.751158	0.000207
 156	1.5422e+01	6.1362	27.842107	0.000345	3.445711	1.167439	0.000138
 157	1.5522e+01	6.1747	28.043963	0.000507	5.067223	1.716821	0.000203
 158	1.5621e+01	6.2244	28.209486	0.000416	4.155123	1.407794	0.000166
 159	1.5721e+01	6.2565	28.435566	0.000568	5.675289	1.922840	0.000227
 160	1.5820e+01	6.2950	28.597051	0.000405	4.053778	1.373457	0.000162
 161	1.5920e+01	6.3319	28.750462	0.000385	3.851089	1.304784	0.000154
 162	1.6020e+01	6.3832	28.984616	0.000588	5.877978	1.991513	0.000235
 163	1.6119e+01	6.4298	29.142064	0.000395	3.952434	1.339121	0.000158
 164	1.6218e+01	6.4602	29.315661	0.000436	4.357811	1.476466	0.000174
 165	1.6318e+01	6.4907	29.505407	0.000476	4.763189	1.613812	0.000191
 166	1.6418e+01	6.5405	29.703226	0.000497	4.965878	1.682485	0.000199
 167	1.6517e+01	6.5790	29.876823	0.000436	4.357811	1.476466	0.000174
 168	1.6616e+01	6.6191	30.074643	0.000497	4.965878	1.682485	0.000199
 169	1.6716e+01	6.6511	30.260351	0.000466	4.661845	1.579476	0.000187
 170	1.6816e+01	6.6977	30.409725	0.000375	3.749745	1.270448	0.000150
 171	1.6915e+01	6.7458	30.635805	0.000568	5.675289	1.922840	0.000227
 172	1.7015e+01	6.7827	30.805364	0.000426	4.256467	1.442130	0.000170
 173	1.7114e+01	6.8148	30.954738	0.000375	3.749745	1.270448	0.000150
 174	1.7213e+01	6.8517	31.108149	0.000385	3.851089	1.304784	0.000154
 175	1.7313e+01	6.8918	31.322118	0.000537	5.371256	1.819831	0.000215
 176	1.7413e+01	6.9383	31.536086	0.000537	5.371256	1.819831	0.000215
 177	1.7512e+01	6.9688	31.709683	0.000436	4.357811	1.476466	0.000174
 178	1.7611e+01	7.0057	31.850982	0.000355	3.547056	1.201775	0.000142
 179	1.7711e+01	7.0474	32.064951	0.000537	5.371256	1.819831	0.000215
 180	1.7811e+01	7.0987	32.238547	0.000436	4.357811	1.476466	0.000174
 181	1.7910e+01	7.1356	32.400033	0.000405	4.053778	1.373457	0.000162
 182	1.8009e+01	7.1741	32.549407	0.000375	3.749745	1.270448	0.000150
 183	1.8109e+01	7.2190	32.763375	0.000537	5.371256	1.819831	0.000215
 184	1.8209e+01	7.2495	32.941009	0.000446	4.459156	1.510803	0.000179
 185	1.8308e+01	7.2961	33.118643	0.000446	4.459156	1.510803	0.000179
 186	1.8407e+01	7.3297	33.280128	0.000405	4.053778	1.373457	0.000162
 187	1.8507e+01	7.3731	33.457762	0.000446	4.459156	1.510803	0.000179
 188	1.8607e+01	7.4116	33.631359	0.000436	4.357811	1.476466	0.000174
 189	1.8706e+01	7.4501	33.772659	0.000355	3.547056	1.201775	0.000142
 190	1.8805e+01	7.4934	33.958367	0.000466	4.661845	1.579476	0.000187
 191	1.8905e+01	7.5351	34.172335	0.000537	5.371256	1.819831	0.000215
 192	1.9005e+01	7.5591	34.301524	0.000324	3.243022	1.098766	0.000130
 193	1.9104e+01	7.6153	34.499343	0.000497	4.965878	1.682485	0.000199
 194	1.9203e+01	7.6554	34.660829	0.000405	4.053778	1.373457	0.000162
 195	1.9303e+01	7.6891	34.834426	0.000436	4.357811	1.476466	0.000174
 196	1.9402e+01	7.7308	34.999948	0.000416	4.155123	1.407794	0.000166
 197	1.9502e+01	7.7709	35.193731	0.000486	4.864534	1.648149	0.000195
 198	1.9602e+01	7.8094	35.363290	0.000426	4.256467	1.442130	0.000170
 199	1.9701e+01	7.8543	35.544962	0.000456	4.560500	1.545139	0.000183
 200	1.9800e+01	7.8848	35.694336	0.000375	3.749745	1.270448	0.000150
 201	1.9900e+01	7.9281	35.863895	0.000426	4.256467	1.442130	0.000170
 202	2.0000e+01	7.9698	36.041529	0.000446	4.459156	1.510803	0.000179
 203	2.0099e+01	8.0051	36.207052	0.000416	4.155123	1.407794	0.000166
 204	2.0198e+01	8.0549	36.380649	0.000436	4.357811	1.476466	0.000174
 205	2.0298e+01	8.0885	36.550208	0.000426	4.256467	1.442130	0.000170
 206	2.0398e+01	8.1335	36.711694	0.000405	4.053778	1.373457	0.000162
 207	2.0497e+01	8.1704	36.869142	0.000395	3.952434	1.339121	0.000158
 208	2.0596e+01	8.1976	37.030628	0.000405	4.053778	1.373457	0.000162
 209	2.0696e+01	8.2522	37.212299	0.000456	4.560500	1.545139	0.000183
 210	2.0796e+01	8.2923	37.377821	0.000416	4.155123	1.407794	0.000166
 211	2.0895e+01	8.3260	37.547381	0.000426	4.256467	1.442130	0.000170
 212	2.0994e+01	8.3741	37.708866	0.000405	4.053778	1.373457	0.000162
 213	2.1094e+01	8.3998	37.882463	0.000436	4.357811	1.476466	0.000174
 214	2.1194e+01	8.4527	38.060097	0.000446	4.459156	1.510803	0.000179
 215	2.1293e+01	8.4928	38.181211	0.000304	3.040334	1.030093	0.000122
 216	2.1392e+01	8.5297	38.403254	0.000557	5.573945	1.888504	0.000223
 217	2.1492e+01	8.5666	38.552628	0.000375	3.749745	1.270448	0.000150
 218	2.1591e+01	8.6099	38.734299	0.000456	4.560500	1.545139	0.000183
 219	2.1691e+01	8.6548	38.899821	0.000416	4.155123	1.407794	0.000166
 220	2.1791e+01	8.6853	39.069381	0.000426	4.256467	1.442130	0.000170
 221	2.1890e+01	8.7254	39.202607	0.000334	3.344367	1.133102	0.000134
 222	2.1989e+01	8.7687	39.376203	0.000436	4.357811	1.476466	0.000174
 223	2.2089e+01	8.8072	39.529615	0.000385	3.851089	1.304784	0.000154
 224	2.2189e+01	8.8489	39.707249	0.000446	4.459156	1.510803	0.000179
 225	2.2288e+01	8.8971	39.848548	0.000355	3.547056	1.201775	0.000142
 226	2.2387e+01	8.9243	40.026182	0.000446	4.459156	1.510803	0.000179
 227	2.2487e+01	8.9693	40.195742	0.000426	4.256467	1.442130	0.000170
 228	2.2587e+01	9.0158	40.345116	0.000375	3.749745	1.270448	0.000150
 229	2.2686e+01	9.0495	40.530824	0.000466	4.661845	1.579476	0.000187
 230	2.2785e+01	9.0816	40.704421	0.000436	4.357811	1.476466	0.000174
 231	2.2885e+01	9.1297	40.837647	0.000334	3.344367	1.133102	0.000134
 232	2.2985e+01	9.1586	41.011243	0.000436	4.357811	1.476466	0.000174
 233	2.3084e+01	9.2035	41.192915	0.000456	4.560500	1.545139	0.000183
 234	2.3183e+01	9.2500	41.354400	0.000405	4.053778	1.373457	0.000162
 235	2.3283e+01	9.2885	41.463403	0.000274	2.736300	0.927084	0.000110
 236	2.3383e+01	9.3270	41.669297	0.000517	5.168567	1.751158	0.000207
 237	2.3482e+01	9.3687	41.859042	0.000476	4.763189	1.613812	0.000191
 238	2.3581e+01	9.4008	41.980156	0.000304	3.040334	1.030093	0.000122
 239	2.3681e+01	9.4377	42.161827	0.000456	4.560500	1.545139	0.000183
 240	2.3780e+01	9.4874	42.335424	0.000436	4.357811	1.476466	0.000174
 241	2.3880e+01	9.5243	42.480761	0.000365	3.648400	1.236111	0.000146
 242	2.3980e+01	9.5628	42.638209	0.000395	3.952434	1.339121	0.000158
 243	2.4079e+01	9.6061	42.795657	0.000395	3.952434	1.339121	0.000158
 244	2.4178e+01	9.6495	42.940994	0.000365	3.648400	1.236111	0.000146
 245	2.4278e+01	9.6912	43.098443	0.000395	3.952434	1.339121	0.000158
 246	2.4378e+01	9.7249	43.284151	0.000466	4.661845	1.579476	0.000187
 247	2.4477e+01	9.7730	43.405265	0.000304	3.040334	1.030093	0.000122
 248	2.4576e+01	9.7987	43.595010	0.000476	4.763189	1.613812	0.000191
 249	2.4676e+01	9.8516	43.740347	0.000365	3.648400	1.236111	0.000146
 250	2.4776e+01	9.8853	43.853387	0.000284	2.837645	0.961420	0.000114
 251	2.4875e+01	9.9238	44.043132	0.000476	4.763189	1.613812	0.000191
 252	2.4974e+01	9.9607	44.220766	0.000446	4.459156	1.510803	0.000179
 253	2.5074e+01	9.9960	44.333806	0.000284	2.837645	0.961420	0.000114
 254	2.5174e+01	10.0489	44.483180	0.000375	3.749745	1.270448	0.000150
 255	2.5273e+01	10.0762	44.668888	0.000466	4.661845	1.579476	0.000187
 256	2.5372e+01	10.1211	44.818262	0.000375	3.749745	1.270448	0.000150
 257	2.5472e+01	10.1580	44.979748	0.000405	4.053778	1.373457	0.000162
 258	2.5572e+01	10.2013	45.117010	0.000345	3.445711	1.167439	0.000138
 259	2.5671e+01	10.2414	45.270422	0.000385	3.851089	1.304784	0.000154
 260	2.5770e+01	10.2960	45.423833	0.000385	3.851089	1.304784	0.000154
 261	2.5870e+01	10.3200	45.577244	0.000385	3.851089	1.304784	0.000154
 262	2.5970e+01	10.3649	45.714507	0.000345	3.445711	1.167439	0.000138
 263	2.6069e+01	10.4018	45.871955	0.000395	3.952434	1.339121	0.000158
 264	2.6169e+01	10.4403	46.041515	0.000426	4.256467	1.442130	0.000170
 265	2.6268e+01	10.4772	46.170703	0.000324	3.243022	1.098766	0.000130
 266	2.6367e+01	10.5093	46.340263	0.000426	4.256467	1.442130	0.000170
