»»»»»»»»»»»»»»»»»»»»»»»»»»»»»»»»»»»» Hysteresis ««««««««««««««««««««««««««««««««««««
»»»  Executed Version:	5.48.1
»»»  Vision Version:	5.48.4 (R)
»»»  Vision Compiled:	9/18/24
»»»  Driver Version:	5.47.0
»»»  Windows Version:	Windows 8 or 8.1
»»»  Processor Information:	x86 (AMD or Intel) - 32 Processors
»»»  Tester Name:	PMF21124-494 (100V)
»»»  Tester S/N:	PMF21124-494
»»»  Internal Amp Type:	100V RevK 270k
»»»  Internal Amp S/N:	iAB2-596/K     
»»»  Execution Count:	1
»»»»»»»»»»»»»»»»»»»»»»»»»»»»»»»»»»»»»»»»»»««««««««««««««««««««««««««««««««««««««««««

Stored:	6/11/2025 - 14:4:11
Configured:	06/11/25 01:55:56 PM
Executed:	06/11/25 02:03:33 PM

»»»»»»»»»»»»»»»»»»»»»»»»»»»»»»»»»»» Sample Info ««««««««««««««««««««««««««««««««««««
Sample Name:	
Lot Name:	
Wafer Name:	
Die Row/Column:	0/0
Capacitor Number:	0
Sample Area (cm2):	1.00e-04
Sample Thickness (microns):	3.00e-01

Amplifier:	Internal

»»»»»»»»»»»»»»»»»»»»»»»»»»»»»»»»»»» Tester Info «««««««««««««««««««««««««««««««««««
Tester Name:	PMF21124-494 (100V)
Tester Serial Number:	PMF21124-494
Return Signal Amp. Level:	1.9 [Index: 2]

»»»»»»»»»»»»»»»»»»»»»»»»»»»»»»»» Hysteresis Info ««««««««««««««««««««««««««««««««««
Task Name:	Hyst-1287
Volts:	20.00
Field:	666.67 (kV/cm)
DCBias:	0.00
DCField:	0.00 (kV/cm)
Hysteresis Period (ms):	2.00e+02
Preset:	Enabled
Preset Delay (ms):	1.00e+03
Profile:	Standard Bipolar

»»»»»»»»»»»»»»»»»»»»»»»»»»»»»»»»»»»»»» Data «««««««««««««««««««««««««««««««««««««««
Points:	2009

Valid Data

Point	Time (ms)	Drive Voltage	Measured Polarization (uC/cm2)	Capacitance (uF)	Normalized Capacitance (uF/cm2)	Dielectric Constant	Instantaneous Current (mA)
   1	0.0000e+00	0.0128	-1.919398	0.000135	1.353729	0.458656	0.000054
   2	9.9500e-02	0.0417	-1.865222	0.000135	1.353729	0.458656	0.000054
   3	1.9900e-01	0.0866	-1.789048	0.000190	1.903363	0.644877	0.000077
   4	2.9850e-01	0.1235	-1.714097	0.000187	1.872828	0.634531	0.000075
   5	3.9800e-01	0.1572	-1.635888	0.000195	1.954255	0.662119	0.000079
   6	4.9750e-01	0.2037	-1.556049	0.000199	1.994969	0.675914	0.000080
   7	5.9700e-01	0.2471	-1.479875	0.000190	1.903363	0.644877	0.000077
   8	6.9650e-01	0.2888	-1.395556	0.000211	2.106931	0.713848	0.000085
   9	7.9600e-01	0.3289	-1.320605	0.000187	1.872828	0.634531	0.000075
  10	8.9550e-01	0.3658	-1.235470	0.000213	2.127288	0.720745	0.000086
  11	9.9500e-01	0.3930	-1.156446	0.000197	1.974612	0.669017	0.000079
  12	1.0945e+00	0.4412	-1.075384	0.000203	2.025504	0.686259	0.000081
  13	1.1940e+00	0.4813	-0.994731	0.000202	2.015325	0.682811	0.000081
  14	1.2935e+00	0.5326	-0.908781	0.000215	2.147645	0.727642	0.000086
  15	1.3930e+00	0.5615	-0.831793	0.000192	1.923720	0.651774	0.000077
  16	1.4925e+00	0.6160	-0.746252	0.000214	2.137466	0.724193	0.000086
  17	1.5920e+00	0.6577	-0.663154	0.000208	2.076396	0.703502	0.000084
  18	1.6915e+00	0.6946	-0.578426	0.000212	2.117109	0.717296	0.000085
  19	1.7910e+00	0.7171	-0.496958	0.000204	2.035682	0.689708	0.000082
  20	1.8905e+00	0.7700	-0.411009	0.000215	2.147645	0.727642	0.000086
  21	1.9900e+00	0.7973	-0.330355	0.000202	2.015325	0.682811	0.000081
  22	2.0895e+00	0.8294	-0.243998	0.000216	2.157823	0.731090	0.000087
  23	2.1890e+00	0.8791	-0.157234	0.000217	2.168002	0.734539	0.000087
  24	2.2885e+00	0.9128	-0.073729	0.000209	2.086574	0.706950	0.000084
  25	2.3880e+00	0.9481	0.011813	0.000214	2.137466	0.724193	0.000086
  26	2.4875e+00	0.9994	0.097762	0.000215	2.147645	0.727642	0.000086
  27	2.5870e+00	1.0460	0.182082	0.000211	2.106931	0.713848	0.000085
  28	2.6865e+00	1.0909	0.265995	0.000210	2.096753	0.710399	0.000084
  29	2.7860e+00	1.1149	0.350315	0.000211	2.106931	0.713848	0.000085
  30	2.8855e+00	1.1807	0.439115	0.000222	2.218894	0.751782	0.000089
  31	2.9850e+00	1.2112	0.521398	0.000206	2.056039	0.696605	0.000083
  32	3.0845e+00	1.2353	0.609792	0.000221	2.208715	0.748333	0.000089
  33	3.1840e+00	1.2818	0.687594	0.000194	1.944076	0.658671	0.000078
  34	3.2835e+00	1.3091	0.773136	0.000214	2.137466	0.724193	0.000086
  35	3.3830e+00	1.3796	0.862752	0.000224	2.239250	0.758679	0.000090
  36	3.4825e+00	1.4117	0.945849	0.000208	2.076396	0.703502	0.000084
  37	3.5820e+00	1.4406	1.024059	0.000195	1.954255	0.662119	0.000079
  38	3.6815e+00	1.4791	1.112453	0.000221	2.208715	0.748333	0.000089
  39	3.7810e+00	1.5224	1.195550	0.000208	2.076396	0.703502	0.000084
  40	3.8805e+00	1.5657	1.282722	0.000218	2.178180	0.737987	0.000088
  41	3.9800e+00	1.5882	1.366634	0.000210	2.096753	0.710399	0.000084
  42	4.0795e+00	1.6427	1.447695	0.000203	2.025504	0.686259	0.000081
  43	4.1790e+00	1.6700	1.537718	0.000225	2.249429	0.762127	0.000090
  44	4.2785e+00	1.7246	1.617965	0.000201	2.005147	0.679362	0.000081
  45	4.3780e+00	1.7438	1.702692	0.000212	2.117109	0.717296	0.000085
  46	4.4775e+00	1.7871	1.784568	0.000205	2.045861	0.693156	0.000082
  47	4.5770e+00	1.8385	1.874590	0.000225	2.249429	0.762127	0.000090
  48	4.6765e+00	1.8721	1.953208	0.000196	1.964433	0.665568	0.000079
  49	4.7760e+00	1.9315	2.044045	0.000227	2.269786	0.769024	0.000091
  50	4.8755e+00	1.9652	2.121847	0.000194	1.944076	0.658671	0.000078
  51	4.9750e+00	1.9989	2.209019	0.000218	2.178180	0.737987	0.000088
  52	5.0745e+00	2.0454	2.293746	0.000212	2.117109	0.717296	0.000085
  53	5.1740e+00	2.0630	2.386620	0.000232	2.320678	0.786267	0.000093
  54	5.2735e+00	2.1096	2.463608	0.000192	1.923720	0.651774	0.000077
  55	5.3730e+00	2.1561	2.555260	0.000229	2.290142	0.775921	0.000092
  56	5.4725e+00	2.1898	2.635099	0.000199	1.994969	0.675914	0.000080
  57	5.5720e+00	2.2331	2.721456	0.000216	2.157823	0.731090	0.000087
  58	5.6715e+00	2.2908	2.809034	0.000219	2.188358	0.741436	0.000088
  59	5.7710e+00	2.3277	2.891725	0.000207	2.066217	0.700053	0.000083
  60	5.8705e+00	2.3646	2.976045	0.000211	2.106931	0.713848	0.000085
  61	5.9700e+00	2.4080	3.058735	0.000207	2.066217	0.700053	0.000083
  62	6.0695e+00	2.4465	3.147129	0.000221	2.208715	0.748333	0.000089
  63	6.1690e+00	2.4705	3.226153	0.000197	1.974612	0.669017	0.000079
  64	6.2685e+00	2.5090	3.312102	0.000215	2.147645	0.727642	0.000086
  65	6.3680e+00	2.5604	3.395200	0.000208	2.076396	0.703502	0.000084
  66	6.4675e+00	2.6037	3.481557	0.000216	2.157823	0.731090	0.000087
  67	6.5670e+00	2.6213	3.563433	0.000205	2.045861	0.693156	0.000082
  68	6.6665e+00	2.6791	3.647753	0.000211	2.106931	0.713848	0.000085
  69	6.7660e+00	2.7160	3.730443	0.000207	2.066217	0.700053	0.000083
  70	6.8655e+00	2.7577	3.813948	0.000209	2.086574	0.706950	0.000084
  71	6.9650e+00	2.8058	3.897454	0.000209	2.086574	0.706950	0.000084
  72	7.0645e+00	2.8267	3.978107	0.000202	2.015325	0.682811	0.000081
  73	7.1640e+00	2.8716	4.063242	0.000213	2.127288	0.720745	0.000086
  74	7.2635e+00	2.9165	4.150821	0.000219	2.188358	0.741436	0.000088
  75	7.3630e+00	2.9598	4.229845	0.000197	1.974612	0.669017	0.000079
  76	7.4625e+00	2.9935	4.313758	0.000210	2.096753	0.710399	0.000084
  77	7.5620e+00	3.0320	4.395226	0.000204	2.035682	0.689708	0.000082
  78	7.6615e+00	3.0609	4.475880	0.000202	2.015325	0.682811	0.000081
  79	7.7610e+00	3.1507	4.558163	0.000206	2.056039	0.696605	0.000083
  80	7.8605e+00	3.1635	4.641668	0.000209	2.086574	0.706950	0.000084
  81	7.9600e+00	3.1764	4.726803	0.000213	2.127288	0.720745	0.000086
  82	8.0595e+00	3.2293	4.808679	0.000205	2.045861	0.693156	0.000082
  83	8.1590e+00	3.2438	4.896257	0.000219	2.188358	0.741436	0.000088
  84	8.2585e+00	3.3176	4.978133	0.000205	2.045861	0.693156	0.000082
  85	8.3580e+00	3.3416	5.063675	0.000214	2.137466	0.724193	0.000086
  86	8.4575e+00	3.3962	5.146366	0.000207	2.066217	0.700053	0.000083
  87	8.5570e+00	3.4427	5.233537	0.000218	2.178180	0.737987	0.000088
  88	8.6565e+00	3.4651	5.314598	0.000203	2.025504	0.686259	0.000081
  89	8.7560e+00	3.5133	5.395252	0.000202	2.015325	0.682811	0.000081
  90	8.8555e+00	3.5421	5.479979	0.000212	2.117109	0.717296	0.000085
  91	8.9550e+00	3.5790	5.563892	0.000210	2.096753	0.710399	0.000084
  92	9.0545e+00	3.6368	5.642509	0.000196	1.964433	0.665568	0.000079
  93	9.1540e+00	3.6929	5.729273	0.000217	2.168002	0.734539	0.000087
  94	9.2535e+00	3.7234	5.808297	0.000197	1.974612	0.669017	0.000079
  95	9.3530e+00	3.7443	5.884470	0.000190	1.903363	0.644877	0.000077
  96	9.4525e+00	3.7956	5.969198	0.000212	2.117109	0.717296	0.000085
  97	9.5520e+00	3.8437	6.051074	0.000205	2.045861	0.693156	0.000082
  98	9.6515e+00	3.8774	6.127654	0.000191	1.913541	0.648325	0.000077
  99	9.7510e+00	3.9063	6.207493	0.000199	1.994969	0.675914	0.000080
 100	9.8505e+00	3.9512	6.287332	0.000199	1.994969	0.675914	0.000080
 101	9.9500e+00	3.9849	6.370430	0.000208	2.076396	0.703502	0.000084
 102	1.0050e+01	4.0250	6.445381	0.000187	1.872828	0.634531	0.000075
 103	1.0149e+01	4.0555	6.528886	0.000209	2.086574	0.706950	0.000084
 104	1.0248e+01	4.1036	6.606689	0.000194	1.944076	0.658671	0.000078
 105	1.0348e+01	4.1405	6.684899	0.000195	1.954255	0.662119	0.000079
 106	1.0447e+01	4.1903	6.763108	0.000195	1.954255	0.662119	0.000079
 107	1.0547e+01	4.2175	6.836837	0.000184	1.842292	0.624186	0.000074
 108	1.0646e+01	4.2737	6.917491	0.000202	2.015325	0.682811	0.000081
 109	1.0746e+01	4.3009	6.993257	0.000189	1.893184	0.641428	0.000076
 110	1.0845e+01	4.3266	7.073911	0.000202	2.015325	0.682811	0.000081
 111	1.0945e+01	4.3956	7.148047	0.000185	1.852471	0.627634	0.000075
 112	1.1044e+01	4.4229	7.222998	0.000187	1.872828	0.634531	0.000075
 113	1.1144e+01	4.4774	7.301208	0.000195	1.954255	0.662119	0.000079
 114	1.1243e+01	4.5223	7.382269	0.000203	2.025504	0.686259	0.000081
 115	1.1343e+01	4.5368	7.458442	0.000190	1.903363	0.644877	0.000077
 116	1.1443e+01	4.5817	7.537874	0.000198	1.984790	0.672465	0.000080
 117	1.1542e+01	4.6298	7.609566	0.000179	1.791400	0.606943	0.000072
 118	1.1642e+01	4.6940	7.691849	0.000206	2.056039	0.696605	0.000083
 119	1.1741e+01	4.6812	7.768430	-0.000191	-1.913541	-0.648325	0.000077
 120	1.1841e+01	4.7357	7.843381	0.000187	1.872828	0.634531	0.000075
 121	1.1940e+01	4.7934	7.916702	0.000183	1.832114	0.620737	0.000074
 122	1.2040e+01	4.8287	7.998171	0.000204	2.035682	0.689708	0.000082
 123	1.2139e+01	4.8753	8.075566	0.000193	1.933898	0.655222	0.000078
 124	1.2239e+01	4.8993	8.151332	0.000189	1.893184	0.641428	0.000076
 125	1.2338e+01	4.9362	8.229134	0.000194	1.944076	0.658671	0.000078
 126	1.2438e+01	5.0100	8.303271	0.000185	1.852471	0.627634	0.000075
 127	1.2537e+01	5.0309	8.378222	0.000187	1.872828	0.634531	0.000075
 128	1.2636e+01	5.0774	8.457246	0.000197	1.974612	0.669017	0.000079
 129	1.2736e+01	5.0902	8.532197	0.000187	1.872828	0.634531	0.000075
 130	1.2835e+01	5.1416	8.608370	0.000190	1.903363	0.644877	0.000077
 131	1.2935e+01	5.1753	8.684543	0.000190	1.903363	0.644877	0.000077
 132	1.3034e+01	5.2250	8.767234	0.000207	2.066217	0.700053	0.000083
 133	1.3134e+01	5.2827	8.841777	0.000186	1.862649	0.631083	0.000075
 134	1.3233e+01	5.2843	8.908582	0.000167	1.669259	0.565560	0.000067
 135	1.3333e+01	5.3341	8.985162	0.000191	1.913541	0.648325	0.000077
 136	1.3432e+01	5.3678	9.062150	0.000192	1.923720	0.651774	0.000077
 137	1.3532e+01	5.4335	9.137101	0.000187	1.872828	0.634531	0.000075
 138	1.3632e+01	5.4448	9.206349	0.000173	1.730330	0.586252	0.000070
 139	1.3731e+01	5.5282	9.285373	0.000197	1.974612	0.669017	0.000079
 140	1.3831e+01	5.5330	9.354622	0.000173	1.730330	0.586252	0.000070
 141	1.3930e+01	5.5747	9.436090	0.000204	2.035682	0.689708	0.000082
 142	1.4030e+01	5.6116	9.505746	0.000174	1.740508	0.589700	0.000070
 143	1.4129e+01	5.6517	9.582734	0.000192	1.923720	0.651774	0.000077
 144	1.4229e+01	5.6950	9.651982	0.000173	1.730330	0.586252	0.000070
 145	1.4328e+01	5.7351	9.731414	0.000198	1.984790	0.672465	0.000080
 146	1.4428e+01	5.7881	9.801476	0.000175	1.750687	0.593149	0.000070
 147	1.4527e+01	5.8073	9.876020	0.000186	1.862649	0.631083	0.000075
 148	1.4627e+01	5.8587	9.949342	0.000183	1.832114	0.620737	0.000074
 149	1.4726e+01	5.8988	10.025515	0.000190	1.903363	0.644877	0.000077
 150	1.4825e+01	5.9276	10.096800	0.000178	1.781222	0.603494	0.000072
 151	1.4925e+01	5.9934	10.170936	0.000185	1.852471	0.627634	0.000075
 152	1.5024e+01	6.0127	10.242221	0.000178	1.781222	0.603494	0.000072
 153	1.5124e+01	6.0480	10.315543	0.000183	1.832114	0.620737	0.000074
 154	1.5223e+01	6.1041	10.388457	0.000182	1.821936	0.617288	0.000073
 155	1.5323e+01	6.1266	10.465852	0.000193	1.933898	0.655222	0.000078
 156	1.5422e+01	6.1875	10.534286	0.000171	1.709973	0.579355	0.000069
 157	1.5522e+01	6.2212	10.605163	0.000177	1.771044	0.600046	0.000071
 158	1.5621e+01	6.2822	10.681744	0.000191	1.913541	0.648325	0.000077
 159	1.5721e+01	6.2950	10.752621	0.000177	1.771044	0.600046	0.000071
 160	1.5820e+01	6.3528	10.824314	0.000179	1.791400	0.606943	0.000072
 161	1.5920e+01	6.3784	10.896006	0.000179	1.791400	0.606943	0.000072
 162	1.6020e+01	6.4298	10.968106	0.000180	1.801579	0.610391	0.000072
 163	1.6119e+01	6.4554	11.038576	0.000176	1.760865	0.596597	0.000071
 164	1.6218e+01	6.5052	11.103343	0.000162	1.618367	0.548318	0.000065
 165	1.6318e+01	6.5164	11.178294	0.000187	1.872828	0.634531	0.000075
 166	1.6418e+01	6.5886	11.247950	0.000174	1.740508	0.589700	0.000070
 167	1.6517e+01	6.6383	11.316791	0.000172	1.720151	0.582803	0.000069
 168	1.6616e+01	6.6576	11.387261	0.000176	1.760865	0.596597	0.000071
 169	1.6716e+01	6.6993	11.454880	0.000169	1.689616	0.572457	0.000068
 170	1.6816e+01	6.7233	11.522091	0.000168	1.679438	0.569009	0.000068
 171	1.6915e+01	6.7795	11.591747	0.000174	1.740508	0.589700	0.000070
 172	1.7015e+01	6.8228	11.660588	0.000172	1.720151	0.582803	0.000069
 173	1.7114e+01	6.8597	11.726985	0.000166	1.659081	0.562112	0.000067
 174	1.7213e+01	6.8966	11.797048	0.000175	1.750687	0.593149	0.000070
 175	1.7313e+01	6.9560	11.868333	0.000178	1.781222	0.603494	0.000072
 176	1.7413e+01	6.9848	11.937988	0.000174	1.740508	0.589700	0.000070
 177	1.7512e+01	7.0153	12.006829	0.000172	1.720151	0.582803	0.000069
 178	1.7611e+01	7.0554	12.075670	0.000172	1.720151	0.582803	0.000069
 179	1.7711e+01	7.0891	12.145733	0.000175	1.750687	0.593149	0.000070
 180	1.7811e+01	7.1420	12.214574	0.000172	1.720151	0.582803	0.000069
 181	1.7910e+01	7.1789	12.281378	0.000167	1.669259	0.565560	0.000067
 182	1.8009e+01	7.2223	12.353070	0.000179	1.791400	0.606943	0.000072
 183	1.8109e+01	7.2511	12.428429	0.000188	1.883006	0.637980	0.000076
 184	1.8209e+01	7.3073	12.496862	0.000171	1.709973	0.579355	0.000069
 185	1.8308e+01	7.3474	12.564481	0.000169	1.689616	0.572457	0.000068
 186	1.8407e+01	7.3763	12.632100	0.000169	1.689616	0.572457	0.000068
 187	1.8507e+01	7.4083	12.702977	0.000177	1.771044	0.600046	0.000071
 188	1.8607e+01	7.4805	12.772226	0.000173	1.730330	0.586252	0.000070
 189	1.8706e+01	7.5046	12.843511	0.000178	1.781222	0.603494	0.000072
 190	1.8805e+01	7.5255	12.914388	0.000177	1.771044	0.600046	0.000071
 191	1.8905e+01	7.5640	12.984451	0.000175	1.750687	0.593149	0.000070
 192	1.9005e+01	7.6297	13.052885	0.000171	1.709973	0.579355	0.000069
 193	1.9104e+01	7.6602	13.124577	0.000179	1.791400	0.606943	0.000072
 194	1.9203e+01	7.6811	13.192603	0.000170	1.699795	0.575906	0.000068
 195	1.9303e+01	7.7244	13.262666	0.000175	1.750687	0.593149	0.000070
 196	1.9402e+01	7.7693	13.331100	0.000171	1.709973	0.579355	0.000069
 197	1.9502e+01	7.8110	13.401570	0.000176	1.760865	0.596597	0.000071
 198	1.9602e+01	7.8623	13.470003	0.000171	1.709973	0.579355	0.000069
 199	1.9701e+01	7.8944	13.536808	0.000167	1.669259	0.565560	0.000067
 200	1.9800e+01	7.9442	13.600760	0.000160	1.598011	0.541421	0.000064
 201	1.9900e+01	7.9586	13.672453	0.000179	1.791400	0.606943	0.000072
 202	2.0000e+01	8.0260	13.737220	0.000162	1.618367	0.548318	0.000065
 203	2.0099e+01	8.0661	13.806061	0.000172	1.720151	0.582803	0.000069
 204	2.0198e+01	8.0918	13.871236	0.000163	1.628546	0.551766	0.000066
 205	2.0298e+01	8.1174	13.939669	0.000171	1.709973	0.579355	0.000069
 206	2.0398e+01	8.1816	14.003215	0.000159	1.587832	0.537972	0.000064
 207	2.0497e+01	8.2233	14.072870	0.000174	1.740508	0.589700	0.000070
 208	2.0596e+01	8.2746	14.136416	0.000159	1.587832	0.537972	0.000064
 209	2.0696e+01	8.2891	14.205664	0.000173	1.730330	0.586252	0.000070
 210	2.0796e+01	8.3340	14.274505	0.000172	1.720151	0.582803	0.000069
 211	2.0895e+01	8.3725	14.338865	0.000161	1.608189	0.544869	0.000065
 212	2.0994e+01	8.4142	14.407706	0.000172	1.720151	0.582803	0.000069
 213	2.1094e+01	8.4511	14.467585	0.000150	1.496226	0.506935	0.000060
 214	2.1194e+01	8.5105	14.537648	0.000175	1.750687	0.593149	0.000070
 215	2.1293e+01	8.5313	14.599972	0.000156	1.557297	0.527626	0.000063
 216	2.1392e+01	8.5650	14.667183	0.000168	1.679438	0.569009	0.000068
 217	2.1492e+01	8.6083	14.733987	0.000167	1.669259	0.565560	0.000067
 218	2.1591e+01	8.6468	14.798755	0.000162	1.618367	0.548318	0.000065
 219	2.1691e+01	8.6821	14.863522	0.000162	1.618367	0.548318	0.000065
 220	2.1791e+01	8.7479	14.929512	0.000165	1.648903	0.558663	0.000066
 221	2.1890e+01	8.7735	14.998760	0.000173	1.730330	0.586252	0.000070
 222	2.1989e+01	8.8281	15.062713	0.000160	1.598011	0.541421	0.000064
 223	2.2089e+01	8.8457	15.126666	0.000160	1.598011	0.541421	0.000064
 224	2.2189e+01	8.8971	15.195507	0.000172	1.720151	0.582803	0.000069
 225	2.2288e+01	8.9420	15.257423	0.000155	1.547118	0.524178	0.000062
 226	2.2387e+01	8.9757	15.324227	0.000167	1.669259	0.565560	0.000067
 227	2.2487e+01	9.0142	15.384106	0.000150	1.496226	0.506935	0.000060
 228	2.2587e+01	9.0543	15.454984	0.000177	1.771044	0.600046	0.000071
 229	2.2686e+01	9.0832	15.515678	0.000152	1.516583	0.513832	0.000061
 230	2.2785e+01	9.1297	15.578409	0.000157	1.567475	0.531075	0.000063
 231	2.2885e+01	9.1682	15.644398	0.000165	1.648903	0.558663	0.000066
 232	2.2985e+01	9.2035	15.703463	0.000148	1.475870	0.500038	0.000059
 233	2.3084e+01	9.2452	15.772304	0.000172	1.720151	0.582803	0.000069
 234	2.3183e+01	9.2853	15.837478	0.000163	1.628546	0.551766	0.000066
 235	2.3283e+01	9.3479	15.896543	0.000148	1.475870	0.500038	0.000059
 236	2.3383e+01	9.3783	15.960089	0.000159	1.587832	0.537972	0.000064
 237	2.3482e+01	9.4088	16.027707	0.000169	1.689616	0.572457	0.000068
 238	2.3581e+01	9.4537	16.090031	0.000156	1.557297	0.527626	0.000063
 239	2.3681e+01	9.5179	16.149095	0.000148	1.475870	0.500038	0.000059
 240	2.3780e+01	9.5243	16.215900	0.000167	1.669259	0.565560	0.000067
 241	2.3880e+01	9.5805	16.280667	0.000162	1.618367	0.548318	0.000065
 242	2.3980e+01	9.6206	16.342583	0.000155	1.547118	0.524178	0.000062
 243	2.4079e+01	9.6463	16.404499	0.000155	1.547118	0.524178	0.000062
 244	2.4178e+01	9.6896	16.463971	0.000149	1.486048	0.503487	0.000060
 245	2.4278e+01	9.7120	16.529146	0.000163	1.628546	0.551766	0.000066
 246	2.4378e+01	9.7569	16.590247	0.000153	1.526762	0.517281	0.000061
 247	2.4477e+01	9.8356	16.658274	0.000170	1.699795	0.575906	0.000068
 248	2.4576e+01	9.8468	16.712858	0.000136	1.363907	0.462104	0.000055
 249	2.4676e+01	9.8917	16.776810	0.000160	1.598011	0.541421	0.000064
 250	2.4776e+01	9.9254	16.840763	0.000160	1.598011	0.541421	0.000064
 251	2.4875e+01	9.9751	16.906345	0.000164	1.638724	0.555215	0.000066
 252	2.4974e+01	10.0024	16.966225	0.000150	1.496226	0.506935	0.000060
 253	2.5074e+01	10.0521	17.036288	0.000175	1.750687	0.593149	0.000070
 254	2.5174e+01	10.0794	17.101462	0.000163	1.628546	0.551766	0.000066
 255	2.5273e+01	10.1243	17.162971	0.000154	1.536940	0.520729	0.000062
 256	2.5372e+01	10.1612	17.228553	0.000164	1.638724	0.555215	0.000066
 257	2.5472e+01	10.2077	17.289247	0.000152	1.516583	0.513832	0.000061
 258	2.5572e+01	10.2398	17.349941	0.000152	1.516583	0.513832	0.000061
 259	2.5671e+01	10.2783	17.414709	0.000162	1.618367	0.548318	0.000065
 260	2.5770e+01	10.3120	17.477440	0.000157	1.567475	0.531075	0.000063
 261	2.5870e+01	10.3826	17.536912	0.000149	1.486048	0.503487	0.000060
 262	2.5970e+01	10.3922	17.601679	0.000162	1.618367	0.548318	0.000065
 263	2.6069e+01	10.4516	17.660744	0.000148	1.475870	0.500038	0.000059
 264	2.6169e+01	10.4821	17.723474	0.000157	1.567475	0.531075	0.000063
 265	2.6268e+01	10.5238	17.785798	0.000156	1.557297	0.527626	0.000063
 266	2.6367e+01	10.5607	17.845677	0.000150	1.496226	0.506935	0.000060
 267	2.6467e+01	10.6152	17.903927	0.000146	1.455513	0.493141	0.000059
