»»»»»»»»»»»»»»»»»»»»»»»»»»»»»»»»»»»» Hysteresis ««««««««««««««««««««««««««««««««««««
»»»  Executed Version:	5.48.1
»»»  Vision Version:	5.48.4 (R)
»»»  Vision Compiled:	9/18/24
»»»  Driver Version:	5.47.0
»»»  Windows Version:	Windows 8 or 8.1
»»»  Processor Information:	x86 (AMD or Intel) - 32 Processors
»»»  Tester Name:	PMF21124-494 (100V)
»»»  Tester S/N:	PMF21124-494
»»»  Internal Amp Type:	100V RevK 270k
»»»  Internal Amp S/N:	iAB2-596/K     
»»»  Execution Count:	1
»»»»»»»»»»»»»»»»»»»»»»»»»»»»»»»»»»»»»»»»»»««««««««««««««««««««««««««««««««««««««««««

Stored:	6/12/2025 - 10:21:48
Configured:	06/12/25 10:06:17 AM
Executed:	06/12/25 10:21:23 AM

»»»»»»»»»»»»»»»»»»»»»»»»»»»»»»»»»»» Sample Info ««««««««««««««««««««««««««««««««««««
Sample Name:	
Lot Name:	
Wafer Name:	
Die Row/Column:	0/0
Capacitor Number:	0
Sample Area (cm2):	1.00e-04
Sample Thickness (microns):	3.00e-01

Amplifier:	Internal

»»»»»»»»»»»»»»»»»»»»»»»»»»»»»»»»»»» Tester Info «««««««««««««««««««««««««««««««««««
Tester Name:	PMF21124-494 (100V)
Tester Serial Number:	PMF21124-494
Return Signal Amp. Level:	1.79 [Index: 2]

»»»»»»»»»»»»»»»»»»»»»»»»»»»»»»»» Hysteresis Info ««««««««««««««««««««««««««««««««««
Task Name:	Hyst-1390
Volts:	20.00
Field:	666.67 (kV/cm)
DCBias:	0.00
DCField:	0.00 (kV/cm)
Hysteresis Period (ms):	1.00e+00
Preset:	Enabled
Preset Delay (ms):	1.00e+03
Profile:	Standard Bipolar

»»»»»»»»»»»»»»»»»»»»»»»»»»»»»»»»»»»»»» Data «««««««««««««««««««««««««««««««««««««««
Points:	2001

Valid Data

Point	Time (ms)	Drive Voltage	Measured Polarization (uC/cm2)	Capacitance (uF)	Normalized Capacitance (uF/cm2)	Dielectric Constant	Instantaneous Current (mA)
   1	0.0000e+00	0.0353	-1.113536	-0.000388	-3.883461	-1.315752	0.031559
   2	5.0000e-04	0.0257	-0.955742	-0.000388	-3.883461	-1.315752	0.031559
   3	1.0000e-03	0.1139	-0.973275	-0.000043	-0.431496	-0.146195	-0.003507
   4	1.5000e-03	0.1668	-0.871928	0.000249	2.494255	0.845077	0.020269
   5	2.0000e-03	0.1765	-0.771864	0.000246	2.462682	0.834379	0.020013
   6	2.5000e-03	0.2406	-0.663247	0.000267	2.673168	0.905694	0.021723
   7	3.0000e-03	0.2791	-0.591406	0.000177	1.768080	0.599042	0.014368
   8	3.5000e-03	0.3064	-0.467822	0.000304	3.041518	1.030494	0.024717
   9	4.0000e-03	0.3658	-0.425487	0.000104	1.041904	0.353007	0.008467
  10	4.5000e-03	0.3978	-0.297627	0.000315	3.146761	1.066151	0.025572
  11	5.0000e-03	0.4508	-0.225359	0.000178	1.778604	0.602607	0.014454
  12	5.5000e-03	0.4797	-0.153517	0.000177	1.768080	0.599042	0.014368
  13	6.0000e-03	0.5406	-0.025658	0.000315	3.146761	1.066151	0.025572
  14	6.5000e-03	0.5470	0.082959	0.000267	2.673168	0.905694	0.021723
  15	7.0000e-03	0.6096	0.165491	0.000203	2.031187	0.688185	0.016506
  16	7.5000e-03	0.6321	0.275391	0.000270	2.704741	0.916391	0.021980
  17	8.0000e-03	0.6609	0.381869	0.000262	2.620547	0.887865	0.021296
  18	8.5000e-03	0.7171	0.471243	0.000220	2.199575	0.745236	0.017875
  19	9.0000e-03	0.7732	0.537953	0.000164	1.641788	0.556253	0.013342
  20	9.5000e-03	0.8053	0.627326	0.000220	2.199575	0.745236	0.017875
  21	1.0000e-02	0.8166	0.761601	0.000330	3.304625	1.119637	0.026855
  22	1.0500e-02	0.8535	0.883901	0.000301	3.009945	1.019797	0.024460
  23	1.1000e-02	0.8968	0.977124	0.000229	2.294294	0.777328	0.018644
  24	1.1500e-02	0.9577	1.015182	0.000094	0.936661	0.317349	0.007612
  25	1.2000e-02	0.9962	1.113536	0.000242	2.420585	0.820116	0.019671
  26	1.2500e-02	1.0363	1.228995	0.000284	2.841557	0.962745	0.023092
  27	1.3000e-02	1.0395	1.353862	0.000307	3.073091	1.041191	0.024973
  28	1.3500e-02	1.1165	1.411591	0.000142	1.420778	0.481373	0.011546
  29	1.4000e-02	1.1326	1.502675	0.000224	2.241672	0.759499	0.018217
  30	1.4500e-02	1.1968	1.608299	0.000260	2.599498	0.880734	0.021125
  31	1.5000e-02	1.2160	1.701093	0.000228	2.283769	0.773762	0.018559
  32	1.5500e-02	1.2561	1.833230	0.000325	3.252004	1.101809	0.026427
  33	1.6000e-02	1.3395	1.848624	0.000038	0.378874	0.128366	0.003079
  34	1.6500e-02	1.3411	1.994444	0.000359	3.588781	1.215912	0.029164
  35	1.7000e-02	1.3989	2.037207	0.000105	1.052428	0.356572	0.008553
  36	1.7500e-02	1.4262	2.176613	0.000343	3.430916	1.162426	0.027881
  37	1.8000e-02	1.4791	2.244177	0.000166	1.662837	0.563384	0.013513
  38	1.8500e-02	1.5272	2.372037	0.000315	3.146761	1.066151	0.025572
  39	1.9000e-02	1.5609	2.437464	0.000161	1.610215	0.545556	0.013085
  40	1.9500e-02	1.5625	2.567035	0.000319	3.188858	1.080414	0.025914
  41	2.0000e-02	1.6508	2.635027	0.000167	1.673361	0.566950	0.013598
  42	2.0500e-02	1.6556	2.730815	0.000236	2.357439	0.798722	0.019158
  43	2.1000e-02	1.7310	2.815057	0.000207	2.073284	0.702448	0.016848
  44	2.1500e-02	1.7727	2.898444	0.000205	2.052235	0.695316	0.016677
  45	2.2000e-02	1.7967	3.025449	0.000313	3.125712	1.059020	0.025401
  46	2.2500e-02	1.8208	3.036995	0.000028	0.284156	0.096275	0.002309
  47	2.3000e-02	1.8529	3.182387	0.000358	3.578256	1.212346	0.029079
  48	2.3500e-02	1.9171	3.285445	0.000254	2.536352	0.859339	0.020612
  49	2.4000e-02	1.9347	3.414588	0.000318	3.178334	1.076849	0.025829
  50	2.4500e-02	1.9844	3.432976	0.000045	0.452544	0.153326	0.003678
  51	2.5000e-02	2.0358	3.608730	0.000433	4.325480	1.465512	0.035151
  52	2.5500e-02	2.0807	3.674584	0.000162	1.620740	0.549121	0.013171
  53	2.6000e-02	2.1015	3.775931	0.000249	2.494255	0.845077	0.020269
  54	2.6500e-02	2.1449	3.852904	0.000189	1.894371	0.641830	0.015395
  55	2.7000e-02	2.1818	3.905074	0.000128	1.283963	0.435018	0.010434
  56	2.7500e-02	2.2170	4.021816	0.000287	2.873129	0.973443	0.023348
  57	2.8000e-02	2.2572	4.117604	0.000236	2.357439	0.798722	0.019158
  58	2.8500e-02	2.3101	4.195004	0.000190	1.904895	0.645396	0.015480
  59	2.9000e-02	2.3438	4.342962	0.000364	3.641402	1.233740	0.029592
  60	2.9500e-02	2.4063	4.375462	0.000080	0.799846	0.270995	0.006500
  61	3.0000e-02	2.4384	4.474671	0.000244	2.441634	0.827248	0.019842
  62	3.0500e-02	2.4801	4.565327	0.000223	2.231148	0.755933	0.018131
  63	3.1000e-02	2.5042	4.663254	0.000241	2.410061	0.816551	0.019585
  64	3.1500e-02	2.5459	4.779568	0.000286	2.862605	0.969877	0.023263
  65	3.2000e-02	2.6133	4.819337	0.000098	0.978758	0.331612	0.007954
  66	3.2500e-02	2.6213	4.954894	0.000334	3.336198	1.130334	0.027111
  67	3.3000e-02	2.6903	5.068642	0.000280	2.799459	0.948483	0.022750
  68	3.3500e-02	2.7160	5.146470	0.000192	1.915420	0.648962	0.015566
  69	3.4000e-02	2.7609	5.192226	0.000113	1.126098	0.381532	0.009151
  70	3.4500e-02	2.7994	5.274330	0.000202	2.020662	0.684619	0.016421
  71	3.5000e-02	2.8090	5.382092	0.000265	2.652119	0.898562	0.021552
  72	3.5500e-02	2.8571	5.451795	0.000172	1.715458	0.581213	0.013941
  73	3.6000e-02	2.9133	5.551859	0.000246	2.462682	0.834379	0.020013
  74	3.6500e-02	2.9694	5.635673	0.000206	2.062760	0.698882	0.016763
  75	3.7000e-02	2.9710	5.751560	0.000285	2.852081	0.966311	0.023177
  76	3.7500e-02	3.0529	5.796461	0.000111	1.105050	0.374401	0.008980
  77	3.8000e-02	3.0769	5.943136	0.000361	3.609829	1.223043	0.029335
  78	3.8500e-02	3.0962	5.989747	0.000115	1.147147	0.388664	0.009322
  79	3.9000e-02	3.1652	6.097081	0.000264	2.641595	0.894997	0.021467
  80	3.9500e-02	3.1828	6.171916	0.000184	1.841750	0.624002	0.014967
  81	4.0000e-02	3.2550	6.206553	0.000085	0.852467	0.288824	0.006928
  82	4.0500e-02	3.2630	6.363492	0.000386	3.862412	1.308621	0.031388
  83	4.1000e-02	3.3176	6.450300	0.000214	2.136430	0.723842	0.017362
  84	4.1500e-02	3.3577	6.494345	0.000108	1.084001	0.367270	0.008809
  85	4.2000e-02	3.3913	6.619212	0.000307	3.073091	1.041191	0.024973
  86	4.2500e-02	3.4363	6.677796	0.000144	1.441827	0.488504	0.011717
  87	4.3000e-02	3.4780	6.764604	0.000214	2.136430	0.723842	0.017362
  88	4.3500e-02	3.5101	6.868517	0.000256	2.557401	0.866471	0.020783
  89	4.4000e-02	3.5582	6.948055	0.000196	1.957517	0.663225	0.015908
  90	4.4500e-02	3.6015	6.992101	0.000108	1.084001	0.367270	0.008809
  91	4.5000e-02	3.6175	7.137066	0.000357	3.567732	1.208780	0.028993
  92	4.5500e-02	3.6657	7.227295	0.000222	2.220624	0.752368	0.018046
  93	4.6000e-02	3.7218	7.270485	0.000106	1.062953	0.360138	0.008638
  94	4.6500e-02	3.7635	7.314958	0.000109	1.094525	0.370835	0.008895
  95	4.7000e-02	3.7828	7.456074	0.000347	3.473014	1.176689	0.028223
  96	4.7500e-02	3.8357	7.529198	0.000180	1.799652	0.609739	0.014625
  97	4.8000e-02	3.8871	7.594197	0.000160	1.599691	0.541990	0.013000
  98	4.8500e-02	3.8710	7.721630	-0.000314	-3.136236	-1.062586	0.025486
  99	4.9000e-02	3.9737	7.774227	0.000129	1.294487	0.438584	0.010520
 100	4.9500e-02	3.9961	7.857614	0.000205	2.052235	0.695316	0.016677
 101	5.0000e-02	4.0218	7.957679	0.000246	2.462682	0.834379	0.020013
 102	5.0500e-02	4.0876	8.058171	0.000247	2.473207	0.837945	0.020098
 103	5.1000e-02	4.0988	8.110341	0.000128	1.283963	0.435018	0.010434
 104	5.1500e-02	4.1485	8.155669	0.000112	1.115574	0.377967	0.009066
 105	5.2000e-02	4.2031	8.234352	0.000194	1.936468	0.656093	0.015737
 106	5.2500e-02	4.2191	8.363067	0.000317	3.167809	1.073283	0.025743
 107	5.3000e-02	4.2737	8.475961	0.000278	2.778411	0.941351	0.022579
 108	5.3500e-02	4.3122	8.532835	0.000140	1.399730	0.474241	0.011375
 109	5.4000e-02	4.3314	8.625629	0.000228	2.283769	0.773762	0.018559
 110	5.4500e-02	4.3828	8.714575	0.000219	2.189051	0.741671	0.017789
 111	5.5000e-02	4.4213	8.765035	0.000124	1.241865	0.420755	0.010092
 112	5.5500e-02	4.4726	8.842008	0.000189	1.894371	0.641830	0.015395
 113	5.6000e-02	4.5111	8.933092	0.000224	2.241672	0.759499	0.018217
 114	5.6500e-02	4.5400	9.031446	0.000242	2.420585	0.820116	0.019671
 115	5.7000e-02	4.6186	9.053255	0.000054	0.536738	0.181852	0.004362
 116	5.7500e-02	4.6298	9.157595	0.000257	2.567925	0.870037	0.020868
 117	5.8000e-02	4.6651	9.277758	0.000296	2.957324	1.001968	0.024033
 118	5.8500e-02	4.7068	9.353875	0.000187	1.873322	0.634699	0.015223
 119	5.9000e-02	4.7566	9.431275	0.000190	1.904895	0.645396	0.015480
 120	5.9500e-02	4.8143	9.508248	0.000189	1.894371	0.641830	0.015395
 121	6.0000e-02	4.8175	9.586503	0.000193	1.925944	0.652527	0.015651
 122	6.0500e-02	4.8576	9.684430	0.000241	2.410061	0.816551	0.019585
 123	6.1000e-02	4.9025	9.799033	0.000282	2.820508	0.955614	0.022921
 124	6.1500e-02	4.9555	9.805020	0.000015	0.147340	0.049920	0.001197
 125	6.2000e-02	4.9908	9.904229	0.000244	2.441634	0.827248	0.019842
 126	6.2500e-02	5.0437	10.018405	0.000281	2.809984	0.952048	0.022835
 127	6.3000e-02	5.0710	10.079128	0.000149	1.494448	0.506333	0.012145
 128	6.3500e-02	5.1143	10.106496	0.000067	0.673554	0.228206	0.005474
 129	6.4000e-02	5.1496	10.221099	0.000282	2.820508	0.955614	0.022921
 130	6.4500e-02	5.1977	10.303631	0.000203	2.031187	0.688185	0.016506
 131	6.5000e-02	5.2266	10.406689	0.000254	2.536352	0.859339	0.020612
 132	6.5500e-02	5.2603	10.508463	0.000250	2.504779	0.848642	0.020355
 133	6.6000e-02	5.3212	10.562772	0.000134	1.336584	0.452847	0.010862
 134	6.6500e-02	5.3437	10.673527	0.000273	2.725789	0.923522	0.022151
 135	6.7000e-02	5.3950	10.671389	-0.000005	-0.052621	-0.017829	-0.000428
 136	6.7500e-02	5.4400	10.774446	0.000254	2.536352	0.859339	0.020612
 137	6.8000e-02	5.4736	10.849281	0.000184	1.841750	0.624002	0.014967
 138	6.8500e-02	5.5089	10.980134	0.000322	3.220431	1.091111	0.026171
 139	6.9000e-02	5.5362	11.037864	0.000142	1.420778	0.481373	0.011546
 140	6.9500e-02	5.5779	11.075495	0.000093	0.926137	0.313784	0.007526
 141	7.0000e-02	5.6389	11.161020	0.000210	2.104857	0.713145	0.017105
 142	7.0500e-02	5.6517	11.270064	0.000268	2.683692	0.909260	0.021809
 143	7.1000e-02	5.7079	11.367135	0.000239	2.389012	0.809419	0.019414
 144	7.1500e-02	5.7640	11.379536	0.000031	0.305204	0.103406	0.002480
 145	7.2000e-02	5.7881	11.489436	0.000270	2.704741	0.916391	0.021980
 146	7.2500e-02	5.8234	11.554007	0.000159	1.589167	0.538424	0.012914
 147	7.3000e-02	5.8731	11.642953	0.000219	2.189051	0.741671	0.017789
 148	7.3500e-02	5.9100	11.735748	0.000228	2.283769	0.773762	0.018559
 149	7.4000e-02	5.9437	11.814431	0.000194	1.936468	0.656093	0.015737
 150	7.4500e-02	5.9934	11.881141	0.000164	1.641788	0.556253	0.013342
 151	7.5000e-02	6.0239	11.958113	0.000189	1.894371	0.641830	0.015395
 152	7.5500e-02	6.0592	12.031237	0.000180	1.799652	0.609739	0.014625
 153	7.6000e-02	6.1041	12.113341	0.000202	2.020662	0.684619	0.016421
 154	7.6500e-02	6.1426	12.207846	0.000233	2.325867	0.788025	0.018901
 155	7.7000e-02	6.1811	12.251464	0.000107	1.073477	0.363704	0.008724
 156	7.7500e-02	6.2389	12.347680	0.000237	2.367964	0.802288	0.019243
 157	7.8000e-02	6.2661	12.433205	0.000210	2.104857	0.713145	0.017105
 158	7.8500e-02	6.3223	12.548236	0.000283	2.831032	0.959180	0.023006
 159	7.9000e-02	6.3415	12.571328	0.000057	0.568311	0.192549	0.004618
 160	7.9500e-02	6.3592	12.695767	0.000306	3.062566	1.037626	0.024888
 161	8.0000e-02	6.4346	12.685504	-0.000025	-0.252583	-0.085577	-0.002053
 162	8.0500e-02	6.4506	12.810798	0.000308	3.083615	1.044757	0.025059
 163	8.1000e-02	6.4859	12.976289	0.000407	4.072898	1.379935	0.033098
 164	8.1500e-02	6.5581	12.883067	-0.000229	-2.294294	-0.777328	-0.018644
 165	8.2000e-02	6.5597	13.034018	0.000372	3.715072	1.258700	0.030190
 166	8.2500e-02	6.6319	13.118688	0.000208	2.083808	0.706013	0.016934
 167	8.3000e-02	6.6720	13.154609	0.000088	0.884040	0.299521	0.007184
 168	8.3500e-02	6.7378	13.243982	0.000220	2.199575	0.745236	0.017875
 169	8.4000e-02	6.7699	13.284607	0.000100	0.999807	0.338744	0.008125
 170	8.4500e-02	6.7891	13.360724	0.000187	1.873322	0.634699	0.015223
 171	8.5000e-02	6.8324	13.534340	0.000427	4.272859	1.447684	0.034723
 172	8.5500e-02	6.8982	13.508255	-0.000064	-0.641981	-0.217509	-0.005217
 173	8.6000e-02	6.8870	13.585655	-0.000190	-1.904895	-0.645396	0.015480
 174	8.6500e-02	6.9543	13.748580	0.000401	4.009752	1.358541	0.032585
 175	8.7000e-02	6.9961	13.714370	-0.000084	-0.841943	-0.285258	-0.006842
 176	8.7500e-02	7.0057	13.838382	0.000305	3.052042	1.034060	0.024802
 177	8.8000e-02	7.0907	13.932031	0.000230	2.304818	0.780893	0.018730
 178	8.8500e-02	7.0971	13.985912	0.000133	1.326060	0.449281	0.010776
 179	8.9000e-02	7.1453	14.085549	0.000245	2.452158	0.830814	0.019927
 180	8.9500e-02	7.1870	14.130450	0.000111	1.105050	0.374401	0.008980
 181	9.0000e-02	7.2527	14.162949	0.000080	0.799846	0.270995	0.006500
 182	9.0500e-02	7.2592	14.280118	0.000288	2.883654	0.977008	0.023434
 183	9.1000e-02	7.2977	14.384031	0.000256	2.557401	0.866471	0.020783
 184	9.1500e-02	7.3490	14.426794	0.000105	1.052428	0.356572	0.008553
 185	9.2000e-02	7.3971	14.578601	0.000374	3.736121	1.265832	0.030361
 186	9.2500e-02	7.4420	14.546957	-0.000078	-0.778797	-0.263864	-0.006329
 187	9.3000e-02	7.4597	14.681659	0.000332	3.315149	1.123203	0.026940
 188	9.3500e-02	7.5255	14.733829	0.000128	1.283963	0.435018	0.010434
 189	9.4000e-02	7.5591	14.812084	0.000193	1.925944	0.652527	0.015651
 190	9.4500e-02	7.5993	14.868958	0.000140	1.399730	0.474241	0.011375
 191	9.5000e-02	7.6265	15.000239	0.000323	3.230955	1.094677	0.026256
 192	9.5500e-02	7.6763	15.037443	0.000092	0.915613	0.310218	0.007441
 193	9.6000e-02	7.7180	15.144349	0.000263	2.631071	0.891431	0.021381
 194	9.6500e-02	7.7613	15.155467	0.000027	0.273631	0.092709	0.002224
 195	9.7000e-02	7.7934	15.287176	0.000324	3.241479	1.098243	0.026342
 196	9.7500e-02	7.8254	15.319248	0.000079	0.789321	0.267429	0.006414
 197	9.8000e-02	7.8864	15.396220	0.000189	1.894371	0.641830	0.015395
 198	9.8500e-02	7.9249	15.412470	0.000040	0.399923	0.135498	0.003250
 199	9.9000e-02	7.9538	15.502271	0.000221	2.210100	0.748802	0.017960
 200	9.9500e-02	7.9923	15.624145	0.000300	2.999421	1.016231	0.024375
 201	1.0000e-01	8.0164	15.680591	0.000139	1.389205	0.470676	0.011289
 202	1.0050e-01	8.0645	15.779373	0.000243	2.431109	0.823682	0.019756
 203	1.0100e-01	8.0901	15.848220	0.000169	1.694410	0.574082	0.013770
 204	1.0150e-01	8.1575	15.873878	0.000063	0.631457	0.213943	0.005132
 205	1.0200e-01	8.1736	15.990620	0.000287	2.873129	0.973443	0.023348
 206	1.0250e-01	8.2313	16.056901	0.000163	1.631264	0.552687	0.013256
 207	1.0300e-01	8.2810	16.084697	0.000068	0.684078	0.231772	0.005559
 208	1.0350e-01	8.3003	16.231373	0.000361	3.609829	1.223043	0.029335
 209	1.0400e-01	8.3677	16.216833	-0.000036	-0.357826	-0.121235	-0.002908
 210	1.0450e-01	8.3805	16.322884	0.000261	2.610022	0.884299	0.021210
 211	1.0500e-01	8.4190	16.384890	0.000153	1.526021	0.517030	0.012401
 212	1.0550e-01	8.4639	16.527717	0.000352	3.515111	1.190952	0.028565
 213	1.0600e-01	8.5217	16.558506	0.000076	0.757748	0.256732	0.006158
 214	1.0650e-01	8.5329	16.676530	0.000290	2.904702	0.984140	0.023605
 215	1.0700e-01	8.5939	16.696629	0.000049	0.494641	0.167589	0.004020
 216	1.0750e-01	8.6260	16.736826	0.000099	0.989283	0.335178	0.008039
 217	1.0800e-01	8.6629	16.826199	0.000220	2.199575	0.745236	0.017875
 218	1.0850e-01	8.7078	16.908303	0.000202	2.020662	0.684619	0.016421
 219	1.0900e-01	8.7559	16.970309	0.000153	1.526021	0.517030	0.012401
 220	1.0950e-01	8.7960	17.059683	0.000220	2.199575	0.745236	0.017875
 221	1.1000e-01	8.8457	17.138366	0.000194	1.936468	0.656093	0.015737
 222	1.1050e-01	8.8634	17.171293	0.000081	0.810370	0.274561	0.006585
 223	1.1100e-01	8.9243	17.232871	0.000152	1.515497	0.513464	0.012316
 224	1.1150e-01	8.9404	17.301291	0.000168	1.683885	0.570516	0.013684
 225	1.1200e-01	8.9757	17.421454	0.000296	2.957324	1.001968	0.024033
 226	1.1250e-01	9.0431	17.461223	0.000098	0.978758	0.331612	0.007954
 227	1.1300e-01	9.0655	17.512110	0.000125	1.252390	0.424321	0.010177
 228	1.1350e-01	9.0960	17.601056	0.000219	2.189051	0.741671	0.017789
 229	1.1400e-01	9.1441	17.708818	0.000265	2.652119	0.898562	0.021552
 230	1.1450e-01	9.1810	17.775955	0.000165	1.652312	0.559819	0.013427
 231	1.1500e-01	9.2500	17.798192	0.000055	0.547263	0.185418	0.004447
 232	1.1550e-01	9.2644	17.898683	0.000247	2.473207	0.837945	0.020098
 233	1.1600e-01	9.3046	17.967531	0.000169	1.694410	0.574082	0.013770
 234	1.1650e-01	9.3302	18.048780	0.000200	1.999614	0.677488	0.016250
 235	1.1700e-01	9.3832	18.105227	0.000139	1.389205	0.470676	0.011289
 236	1.1750e-01	9.4201	18.185620	0.000198	1.978565	0.670356	0.016079
 237	1.1800e-01	9.4682	18.248053	0.000154	1.536545	0.520596	0.012487
 238	1.1850e-01	9.5051	18.332296	0.000207	2.073284	0.702448	0.016848
 239	1.1900e-01	9.5596	18.359236	0.000066	0.663030	0.224641	0.005388
 240	1.1950e-01	9.5933	18.430222	0.000175	1.747031	0.591910	0.014197
 241	1.2000e-01	9.6430	18.534562	0.000257	2.567925	0.870037	0.020868
 242	1.2050e-01	9.6767	18.587160	0.000129	1.294487	0.438584	0.010520
 243	1.2100e-01	9.7040	18.657718	0.000174	1.736507	0.588344	0.014112
 244	1.2150e-01	9.7184	18.760348	0.000253	2.525828	0.855774	0.020526
 245	1.2200e-01	9.7778	18.848867	0.000218	2.178527	0.738105	0.017704
 246	1.2250e-01	9.8243	18.851005	0.000005	0.052621	0.017829	0.000428
 247	1.2300e-01	9.8580	18.934820	0.000206	2.062760	0.698882	0.016763
 248	1.2350e-01	9.9270	18.987845	0.000131	1.305011	0.442150	0.010605
 249	1.2400e-01	9.9575	19.079785	0.000226	2.262721	0.766631	0.018388
 250	1.2450e-01	9.9703	19.122119	0.000104	1.041904	0.353007	0.008467
 251	1.2500e-01	10.0088	19.196954	0.000184	1.841750	0.624002	0.014967
 252	1.2550e-01	10.0698	19.277347	0.000198	1.978565	0.670356	0.016079
 253	1.2600e-01	10.1131	19.288038	0.000026	0.263107	0.089143	0.002138
 254	1.2650e-01	10.1404	19.416753	0.000317	3.167809	1.073283	0.025743
 255	1.2700e-01	10.1981	19.445404	0.000071	0.705127	0.238903	0.005730
 256	1.2750e-01	10.2334	19.533067	0.000216	2.157478	0.730973	0.017533
 257	1.2800e-01	10.2815	19.618165	0.000209	2.094332	0.709579	0.017019
 258	1.2850e-01	10.3184	19.630993	0.000032	0.315729	0.106972	0.002566
 259	1.2900e-01	10.3521	19.743031	0.000276	2.757362	0.934220	0.022408
 260	1.2950e-01	10.3922	19.804182	0.000150	1.504973	0.509898	0.012230
 261	1.3000e-01	10.4387	19.897404	0.000229	2.294294	0.777328	0.018644
 262	1.3050e-01	10.4901	19.885431	-0.000029	-0.294680	-0.099840	-0.002395
 263	1.3100e-01	10.4917	20.005593	0.000296	2.957324	1.001968	0.024033
 264	1.3150e-01	10.5510	20.089835	0.000207	2.073284	0.702448	0.016848
 265	1.3200e-01	10.5927	20.131743	0.000103	1.031380	0.349441	0.008381
 266	1.3250e-01	10.6216	20.215130	0.000205	2.052235	0.695316	0.016677
