»»»»»»»»»»»»»»»»»»»»»»»»»»»»»»»»»»»» Hysteresis ««««««««««««««««««««««««««««««««««««
»»»  Executed Version:	5.48.1
»»»  Vision Version:	5.48.4 (R)
»»»  Vision Compiled:	9/18/24
»»»  Driver Version:	5.47.0
»»»  Windows Version:	Windows 8 or 8.1
»»»  Processor Information:	x86 (AMD or Intel) - 32 Processors
»»»  Tester Name:	PMF21124-494 (100V)
»»»  Tester S/N:	PMF21124-494
»»»  Internal Amp Type:	100V RevK 270k
»»»  Internal Amp S/N:	iAB2-596/K     
»»»  Execution Count:	1
»»»»»»»»»»»»»»»»»»»»»»»»»»»»»»»»»»»»»»»»»»««««««««««««««««««««««««««««««««««««««««««

Stored:	6/12/2025 - 11:6:18
Configured:	06/12/25 10:06:17 AM
Executed:	06/12/25 11:05:49 AM

»»»»»»»»»»»»»»»»»»»»»»»»»»»»»»»»»»» Sample Info ««««««««««««««««««««««««««««««««««««
Sample Name:	
Lot Name:	
Wafer Name:	
Die Row/Column:	0/0
Capacitor Number:	0
Sample Area (cm2):	1.00e-04
Sample Thickness (microns):	3.00e-01

Amplifier:	Internal

»»»»»»»»»»»»»»»»»»»»»»»»»»»»»»»»»»» Tester Info «««««««««««««««««««««««««««««««««««
Tester Name:	PMF21124-494 (100V)
Tester Serial Number:	PMF21124-494
Return Signal Amp. Level:	0.19 [Index: 3]

»»»»»»»»»»»»»»»»»»»»»»»»»»»»»»»» Hysteresis Info ««««««««««««««««««««««««««««««««««
Task Name:	Hyst-1390
Volts:	20.00
Field:	666.67 (kV/cm)
DCBias:	0.00
DCField:	0.00 (kV/cm)
Hysteresis Period (ms):	2.00e+02
Preset:	Enabled
Preset Delay (ms):	1.00e+03
Profile:	Standard Bipolar

»»»»»»»»»»»»»»»»»»»»»»»»»»»»»»»»»»»»»» Data «««««««««««««««««««««««««««««««««««««««
Points:	2009

Valid Data

Point	Time (ms)	Drive Voltage	Measured Polarization (uC/cm2)	Capacitance (uF)	Normalized Capacitance (uF/cm2)	Dielectric Constant	Instantaneous Current (mA)
   1	0.0000e+00	0.0080	-1.352440	0.000375	3.750572	1.270728	0.000150
   2	9.9500e-02	0.0321	-1.203066	0.000375	3.750572	1.270728	0.000150
   3	1.9900e-01	0.0738	-1.017358	0.000466	4.662873	1.579824	0.000187
   4	2.9850e-01	0.1059	-0.855873	0.000405	4.054673	1.373760	0.000162
   5	3.9800e-01	0.1636	-0.645942	0.000527	5.271074	1.785888	0.000211
   6	4.9750e-01	0.1925	-0.452159	0.000487	4.865607	1.648512	0.000195
   7	5.9700e-01	0.2294	-0.298748	0.000385	3.851939	1.305072	0.000154
   8	6.9650e-01	0.2727	-0.133225	0.000416	4.156039	1.408104	0.000166
   9	7.9600e-01	0.3096	0.064594	0.000497	4.966974	1.682856	0.000199
  10	8.9550e-01	0.3561	0.234154	0.000426	4.257406	1.442448	0.000170
  11	9.9500e-01	0.3914	0.383528	0.000375	3.750572	1.270728	0.000150
  12	1.0945e+00	0.4331	0.540976	0.000395	3.953306	1.339416	0.000158
  13	1.1940e+00	0.4668	0.730722	0.000476	4.764240	1.614168	0.000191
  14	1.2935e+00	0.5182	0.855873	0.000314	3.142371	1.064664	0.000126
  15	1.3930e+00	0.5454	1.077915	0.000558	5.575175	1.888920	0.000223
  16	1.4925e+00	0.5871	1.231326	0.000385	3.851939	1.305072	0.000154
  17	1.5920e+00	0.6353	1.376663	0.000365	3.649205	1.236384	0.000146
  18	1.6915e+00	0.6658	1.590631	0.000537	5.372441	1.820232	0.000215
  19	1.7910e+00	0.7155	1.752117	0.000405	4.054673	1.373760	0.000162
  20	1.8905e+00	0.7412	1.970122	0.000547	5.473808	1.854576	0.000219
  21	1.9900e+00	0.7877	2.123533	0.000385	3.851939	1.305072	0.000154
  22	2.0895e+00	0.8198	2.333464	0.000527	5.271074	1.785888	0.000211
  23	2.1890e+00	0.8663	2.490913	0.000395	3.953306	1.339416	0.000158
  24	2.2885e+00	0.9096	2.692770	0.000507	5.068341	1.717200	0.000203
  25	2.3880e+00	0.9497	2.874441	0.000456	4.561507	1.545480	0.000183
  26	2.4875e+00	0.9738	3.027852	0.000385	3.851939	1.305072	0.000154
  27	2.5870e+00	1.0283	3.225671	0.000497	4.966974	1.682856	0.000199
  28	2.6865e+00	1.0780	3.354860	0.000324	3.243738	1.099008	0.000130
  29	2.7860e+00	1.1069	3.516345	0.000405	4.054673	1.373760	0.000162
  30	2.8855e+00	1.1390	3.726276	0.000527	5.271074	1.785888	0.000211
  31	2.9850e+00	1.1968	3.891799	0.000416	4.156039	1.408104	0.000166
  32	3.0845e+00	1.2208	4.077507	0.000466	4.662873	1.579824	0.000187
  33	3.1840e+00	1.2657	4.243030	0.000416	4.156039	1.408104	0.000166
  34	3.2835e+00	1.3010	4.392404	0.000375	3.750572	1.270728	0.000150
  35	3.3830e+00	1.3460	4.610409	0.000547	5.473808	1.854576	0.000219
  36	3.4825e+00	1.3925	4.767857	0.000395	3.953306	1.339416	0.000158
  37	3.5820e+00	1.4214	4.977788	0.000527	5.271074	1.785888	0.000211
  38	3.6815e+00	1.4647	5.175608	0.000497	4.966974	1.682856	0.000199
  39	3.7810e+00	1.4951	5.329019	0.000385	3.851939	1.305072	0.000154
  40	3.8805e+00	1.5353	5.514727	0.000466	4.662873	1.579824	0.000187
  41	3.9800e+00	1.5786	5.664101	0.000375	3.750572	1.270728	0.000150
  42	4.0795e+00	1.6251	5.902292	0.000598	5.980642	2.026296	0.000239
  43	4.1790e+00	1.6732	6.100112	0.000497	4.966974	1.682856	0.000199
  44	4.2785e+00	1.7069	6.253523	0.000385	3.851939	1.305072	0.000154
  45	4.3780e+00	1.7438	6.406934	0.000385	3.851939	1.305072	0.000154
  46	4.4775e+00	1.7935	6.548234	0.000355	3.547838	1.202040	0.000142
  47	4.5770e+00	1.8256	6.701645	0.000385	3.851939	1.305072	0.000154
  48	4.6765e+00	1.8689	6.903502	0.000507	5.068341	1.717200	0.000203
  49	4.7760e+00	1.9058	7.089210	0.000466	4.662873	1.579824	0.000187
  50	4.8755e+00	1.9491	7.238584	0.000375	3.750572	1.270728	0.000150
  51	4.9750e+00	1.9860	7.420255	0.000456	4.561507	1.545480	0.000183
  52	5.0745e+00	2.0245	7.610001	0.000476	4.764240	1.614168	0.000191
  53	5.1740e+00	2.0695	7.823969	0.000537	5.372441	1.820232	0.000215
  54	5.2735e+00	2.1015	7.993529	0.000426	4.257406	1.442448	0.000170
  55	5.3730e+00	2.1433	8.211534	0.000547	5.473808	1.854576	0.000219
  56	5.4725e+00	2.1834	8.352834	0.000355	3.547838	1.202040	0.000142
  57	5.5720e+00	2.2219	8.562765	0.000527	5.271074	1.785888	0.000211
  58	5.6715e+00	2.2684	8.716176	0.000385	3.851939	1.305072	0.000154
  59	5.7710e+00	2.3005	8.909959	0.000487	4.865607	1.648512	0.000195
  60	5.8705e+00	2.3390	9.071444	0.000405	4.054673	1.373760	0.000162
  61	5.9700e+00	2.3839	9.232929	0.000405	4.054673	1.373760	0.000162
  62	6.0695e+00	2.4304	9.426712	0.000487	4.865607	1.648512	0.000195
  63	6.1690e+00	2.4529	9.563975	0.000345	3.446472	1.167696	0.000138
  64	6.2685e+00	2.5042	9.749683	0.000466	4.662873	1.579824	0.000187
  65	6.3680e+00	2.5379	9.899057	0.000375	3.750572	1.270728	0.000150
  66	6.4675e+00	2.5892	10.048431	0.000375	3.750572	1.270728	0.000150
  67	6.5670e+00	2.6229	10.226065	0.000446	4.460140	1.511136	0.000179
  68	6.6665e+00	2.6646	10.431959	0.000517	5.169708	1.751544	0.000207
  69	6.7660e+00	2.6983	10.605556	0.000436	4.358773	1.476792	0.000174
  70	6.8655e+00	2.7416	10.779152	0.000436	4.358773	1.476792	0.000174
  71	6.9650e+00	2.7737	10.964861	0.000466	4.662873	1.579824	0.000187
  72	7.0645e+00	2.8202	11.142495	0.000446	4.460140	1.511136	0.000179
  73	7.1640e+00	2.8603	11.295906	0.000385	3.851939	1.305072	0.000154
  74	7.2635e+00	2.9069	11.505837	0.000527	5.271074	1.785888	0.000211
  75	7.3630e+00	2.9406	11.707694	0.000507	5.068341	1.717200	0.000203
  76	7.4625e+00	2.9807	11.869179	0.000405	4.054673	1.373760	0.000162
  77	7.5620e+00	3.0144	12.062962	0.000487	4.865607	1.648512	0.000195
  78	7.6615e+00	3.0609	12.176001	0.000284	2.838271	0.961632	0.000114
  79	7.7610e+00	3.1026	12.329413	0.000385	3.851939	1.305072	0.000154
  80	7.8605e+00	3.1411	12.450527	0.000304	3.041004	1.030320	0.000122
  81	7.9600e+00	3.1764	12.644309	0.000487	4.865607	1.648512	0.000195
  82	8.0595e+00	3.2133	12.777535	0.000335	3.345105	1.133352	0.000134
  83	8.1590e+00	3.2550	12.983429	0.000517	5.169708	1.751544	0.000207
  84	8.2585e+00	3.3015	13.144914	0.000405	4.054673	1.373760	0.000162
  85	8.3580e+00	3.3384	13.266028	0.000304	3.041004	1.030320	0.000122
  86	8.4575e+00	3.3753	13.463848	0.000497	4.966974	1.682856	0.000199
  87	8.5570e+00	3.4170	13.649556	0.000466	4.662873	1.579824	0.000187
  88	8.6565e+00	3.4571	13.827190	0.000446	4.460140	1.511136	0.000179
  89	8.7560e+00	3.4956	14.053270	0.000568	5.676542	1.923264	0.000227
  90	8.8555e+00	3.5277	14.142086	0.000223	2.230070	0.755568	0.000089
  91	8.9550e+00	3.5806	14.339906	0.000497	4.966974	1.682856	0.000199
  92	9.0545e+00	3.6063	14.529652	0.000476	4.764240	1.614168	0.000191
  93	9.1540e+00	3.6641	14.723434	0.000487	4.865607	1.648512	0.000195
  94	9.2535e+00	3.6994	14.868771	0.000365	3.649205	1.236384	0.000146
  95	9.3530e+00	3.7395	15.014108	0.000365	3.649205	1.236384	0.000146
  96	9.4525e+00	3.7748	15.143296	0.000324	3.243738	1.099008	0.000130
  97	9.5520e+00	3.8197	15.304782	0.000405	4.054673	1.373760	0.000162
  98	9.6515e+00	3.8502	15.417821	0.000284	2.838271	0.961632	0.000114
  99	9.7510e+00	3.9063	15.647938	0.000578	5.777908	1.957608	0.000231
 100	9.8505e+00	3.9384	15.777126	0.000324	3.243738	1.099008	0.000130
 101	9.9500e+00	3.9785	15.946686	0.000426	4.257406	1.442448	0.000170
 102	1.0050e+01	4.0234	16.128357	0.000456	4.561507	1.545480	0.000183
 103	1.0149e+01	4.0603	16.233323	0.000264	2.635537	0.892944	0.000105
 104	1.0248e+01	4.0892	16.443254	0.000527	5.271074	1.785888	0.000211
 105	1.0348e+01	4.1277	16.612814	0.000426	4.257406	1.442448	0.000170
 106	1.0447e+01	4.1758	16.790448	0.000446	4.460140	1.511136	0.000179
 107	1.0547e+01	4.2047	16.955970	0.000416	4.156039	1.408104	0.000166
 108	1.0646e+01	4.2576	17.117456	0.000405	4.054673	1.373760	0.000162
 109	1.0746e+01	4.2929	17.331424	0.000537	5.372441	1.820232	0.000215
 110	1.0845e+01	4.3362	17.472723	0.000355	3.547838	1.202040	0.000142
 111	1.0945e+01	4.3812	17.597875	0.000314	3.142371	1.064664	0.000126
 112	1.1044e+01	4.4165	17.787620	0.000476	4.764240	1.614168	0.000191
 113	1.1144e+01	4.4550	17.892586	0.000264	2.635537	0.892944	0.000105
 114	1.1243e+01	4.4951	18.041960	0.000375	3.750572	1.270728	0.000150
 115	1.1343e+01	4.5352	18.203445	0.000405	4.054673	1.373760	0.000162
 116	1.1443e+01	4.5737	18.352819	0.000375	3.750572	1.270728	0.000150
 117	1.1542e+01	4.6234	18.502193	0.000375	3.750572	1.270728	0.000150
 118	1.1642e+01	4.6523	18.643493	0.000355	3.547838	1.202040	0.000142
 119	1.1741e+01	4.6892	18.829201	0.000466	4.662873	1.579824	0.000187
 120	1.1841e+01	4.7277	18.970501	0.000355	3.547838	1.202040	0.000142
 121	1.1940e+01	4.7694	19.123912	0.000385	3.851939	1.305072	0.000154
 122	1.2040e+01	4.8079	19.301546	0.000446	4.460140	1.511136	0.000179
 123	1.2139e+01	4.8480	19.438809	0.000345	3.446472	1.167696	0.000138
 124	1.2239e+01	4.8881	19.660851	0.000558	5.575175	1.888920	0.000223
 125	1.2338e+01	4.9266	19.810225	0.000375	3.750572	1.270728	0.000150
 126	1.2438e+01	4.9731	19.935376	0.000314	3.142371	1.064664	0.000126
 127	1.2537e+01	5.0100	20.149344	0.000537	5.372441	1.820232	0.000215
 128	1.2636e+01	5.0646	20.286607	0.000345	3.446472	1.167696	0.000138
 129	1.2736e+01	5.0950	20.427907	0.000355	3.547838	1.202040	0.000142
 130	1.2835e+01	5.1368	20.553058	0.000314	3.142371	1.064664	0.000126
 131	1.2935e+01	5.1656	20.641875	0.000223	2.230070	0.755568	0.000089
 132	1.3034e+01	5.2138	20.827583	0.000466	4.662873	1.579824	0.000187
 133	1.3134e+01	5.2555	20.993106	0.000416	4.156039	1.408104	0.000166
 134	1.3233e+01	5.2924	21.146517	0.000385	3.851939	1.305072	0.000154
 135	1.3333e+01	5.3261	21.328188	0.000456	4.561507	1.545480	0.000183
 136	1.3432e+01	5.3758	21.425079	0.000243	2.432804	0.824256	0.000097
 137	1.3532e+01	5.4063	21.590602	0.000416	4.156039	1.408104	0.000166
 138	1.3632e+01	5.4496	21.715753	0.000314	3.142371	1.064664	0.000126
 139	1.3731e+01	5.4945	21.889350	0.000436	4.358773	1.476792	0.000174
 140	1.3831e+01	5.5314	22.022575	0.000335	3.345105	1.133352	0.000134
 141	1.3930e+01	5.5699	22.228469	0.000517	5.169708	1.751544	0.000207
 142	1.4030e+01	5.6068	22.377843	0.000375	3.750572	1.270728	0.000150
 143	1.4129e+01	5.6549	22.531255	0.000385	3.851939	1.305072	0.000154
 144	1.4229e+01	5.6886	22.680629	0.000375	3.750572	1.270728	0.000150
 145	1.4328e+01	5.7367	22.878448	0.000497	4.966974	1.682856	0.000199
 146	1.4428e+01	5.7688	22.983414	0.000264	2.635537	0.892944	0.000105
 147	1.4527e+01	5.8137	23.084342	0.000253	2.534170	0.858600	0.000101
 148	1.4627e+01	5.8538	23.197382	0.000284	2.838271	0.961632	0.000114
 149	1.4726e+01	5.8940	23.383090	0.000466	4.662873	1.579824	0.000187
 150	1.4825e+01	5.9196	23.532464	0.000375	3.750572	1.270728	0.000150
 151	1.4925e+01	5.9645	23.685875	0.000385	3.851939	1.305072	0.000154
 152	1.5024e+01	5.9966	23.815064	0.000324	3.243738	1.099008	0.000130
 153	1.5124e+01	6.0592	23.992698	0.000446	4.460140	1.511136	0.000179
 154	1.5223e+01	6.0929	24.117849	0.000314	3.142371	1.064664	0.000126
 155	1.5323e+01	6.1346	24.291446	0.000436	4.358773	1.476792	0.000174
 156	1.5422e+01	6.1570	24.408523	0.000294	2.939638	0.995976	0.000118
 157	1.5522e+01	6.1988	24.565971	0.000395	3.953306	1.339416	0.000158
 158	1.5621e+01	6.2485	24.727456	0.000405	4.054673	1.373760	0.000162
 159	1.5721e+01	6.2934	24.921239	0.000487	4.865607	1.648512	0.000195
 160	1.5820e+01	6.3335	25.038316	0.000294	2.939638	0.995976	0.000118
 161	1.5920e+01	6.3720	25.147319	0.000274	2.736904	0.927288	0.000110
 162	1.6020e+01	6.4185	25.296693	0.000375	3.750572	1.270728	0.000150
 163	1.6119e+01	6.4458	25.437992	0.000355	3.547838	1.202040	0.000142
 164	1.6218e+01	6.4811	25.571218	0.000335	3.345105	1.133352	0.000134
 165	1.6318e+01	6.5212	25.664072	0.000233	2.331437	0.789912	0.000093
 166	1.6418e+01	6.5709	25.857854	0.000487	4.865607	1.648512	0.000195
 167	1.6517e+01	6.6078	26.023377	0.000416	4.156039	1.408104	0.000166
 168	1.6616e+01	6.6399	26.140454	0.000294	2.939638	0.995976	0.000118
 169	1.6716e+01	6.6864	26.261568	0.000304	3.041004	1.030320	0.000122
 170	1.6816e+01	6.7249	26.439202	0.000446	4.460140	1.511136	0.000179
 171	1.6915e+01	6.7747	26.568390	0.000324	3.243738	1.099008	0.000130
 172	1.7015e+01	6.8100	26.701616	0.000335	3.345105	1.133352	0.000134
 173	1.7114e+01	6.8469	26.818693	0.000294	2.939638	0.995976	0.000118
 174	1.7213e+01	6.8806	27.012475	0.000487	4.865607	1.648512	0.000195
 175	1.7313e+01	6.9271	27.173961	0.000405	4.054673	1.373760	0.000162
 176	1.7413e+01	6.9624	27.291038	0.000294	2.939638	0.995976	0.000118
 177	1.7512e+01	7.0041	27.456560	0.000416	4.156039	1.408104	0.000166
 178	1.7611e+01	7.0442	27.565563	0.000274	2.736904	0.927288	0.000110
 179	1.7711e+01	7.0843	27.706863	0.000355	3.547838	1.202040	0.000142
 180	1.7811e+01	7.1244	27.848162	0.000355	3.547838	1.202040	0.000142
 181	1.7910e+01	7.1613	27.981388	0.000335	3.345105	1.133352	0.000134
 182	1.8009e+01	7.1982	28.110576	0.000324	3.243738	1.099008	0.000130
 183	1.8109e+01	7.2399	28.207467	0.000243	2.432804	0.824256	0.000097
 184	1.8209e+01	7.2848	28.421436	0.000537	5.372441	1.820232	0.000215
 185	1.8308e+01	7.3217	28.526401	0.000264	2.635537	0.892944	0.000105
 186	1.8407e+01	7.3682	28.667701	0.000355	3.547838	1.202040	0.000142
 187	1.8507e+01	7.3907	28.752481	0.000213	2.128703	0.721224	0.000085
 188	1.8607e+01	7.4436	28.922040	0.000426	4.257406	1.442448	0.000170
 189	1.8706e+01	7.4870	29.079489	0.000395	3.953306	1.339416	0.000158
 190	1.8805e+01	7.5239	29.184454	0.000264	2.635537	0.892944	0.000105
 191	1.8905e+01	7.5607	29.345940	0.000405	4.054673	1.373760	0.000162
 192	1.9005e+01	7.6025	29.527611	0.000456	4.561507	1.545480	0.000183
 193	1.9104e+01	7.6313	29.660836	0.000335	3.345105	1.133352	0.000134
 194	1.9203e+01	7.6843	29.822322	0.000405	4.054673	1.373760	0.000162
 195	1.9303e+01	7.7148	29.943436	0.000304	3.041004	1.030320	0.000122
 196	1.9402e+01	7.7677	30.064550	0.000304	3.041004	1.030320	0.000122
 197	1.9502e+01	7.8062	30.193738	0.000324	3.243738	1.099008	0.000130
 198	1.9602e+01	7.8511	30.318889	0.000314	3.142371	1.064664	0.000126
 199	1.9701e+01	7.8864	30.375409	0.000142	1.419135	0.480816	0.000057
 200	1.9800e+01	7.9153	30.532858	0.000395	3.953306	1.339416	0.000158
 201	1.9900e+01	7.9538	30.698380	0.000416	4.156039	1.408104	0.000166
 202	2.0000e+01	7.9923	30.839680	0.000355	3.547838	1.202040	0.000142
 203	2.0099e+01	8.0388	30.960794	0.000304	3.041004	1.030320	0.000122
 204	2.0198e+01	8.0773	31.102094	0.000355	3.547838	1.202040	0.000142
 205	2.0298e+01	8.1142	31.207059	0.000264	2.635537	0.892944	0.000105
 206	2.0398e+01	8.1607	31.388730	0.000456	4.561507	1.545480	0.000183
 207	2.0497e+01	8.1896	31.469473	0.000203	2.027336	0.686880	0.000081
 208	2.0596e+01	8.2281	31.651144	0.000456	4.561507	1.545480	0.000183
 209	2.0696e+01	8.2827	31.808592	0.000395	3.953306	1.339416	0.000158
 210	2.0796e+01	8.3163	31.917595	0.000274	2.736904	0.927288	0.000110
 211	2.0895e+01	8.3564	32.034672	0.000294	2.939638	0.995976	0.000118
 212	2.0994e+01	8.3933	32.188083	0.000385	3.851939	1.305072	0.000154
 213	2.1094e+01	8.4335	32.305160	0.000294	2.939638	0.995976	0.000118
 214	2.1194e+01	8.4784	32.414163	0.000274	2.736904	0.927288	0.000110
 215	2.1293e+01	8.5153	32.539314	0.000314	3.142371	1.064664	0.000126
 216	2.1392e+01	8.5618	32.708874	0.000426	4.257406	1.442448	0.000170
 217	2.1492e+01	8.6035	32.801728	0.000233	2.331437	0.789912	0.000093
 218	2.1591e+01	8.6436	32.922842	0.000304	3.041004	1.030320	0.000122
 219	2.1691e+01	8.6837	33.060105	0.000345	3.446472	1.167696	0.000138
 220	2.1791e+01	8.7126	33.189293	0.000324	3.243738	1.099008	0.000130
 221	2.1890e+01	8.7527	33.310407	0.000304	3.041004	1.030320	0.000122
 222	2.1989e+01	8.7960	33.459781	0.000375	3.750572	1.270728	0.000150
 223	2.2089e+01	8.8345	33.568784	0.000274	2.736904	0.927288	0.000110
 224	2.2189e+01	8.8762	33.722195	0.000385	3.851939	1.305072	0.000154
 225	2.2288e+01	8.9163	33.883680	0.000405	4.054673	1.373760	0.000162
 226	2.2387e+01	8.9645	34.020943	0.000345	3.446472	1.167696	0.000138
 227	2.2487e+01	9.0014	34.150131	0.000324	3.243738	1.099008	0.000130
 228	2.2587e+01	9.0334	34.303542	0.000385	3.851939	1.305072	0.000154
 229	2.2686e+01	9.0735	34.416582	0.000284	2.838271	0.961632	0.000114
 230	2.2785e+01	9.1233	34.529622	0.000284	2.838271	0.961632	0.000114
 231	2.2885e+01	9.1489	34.614402	0.000213	2.128703	0.721224	0.000085
 232	2.2985e+01	9.1955	34.743590	0.000324	3.243738	1.099008	0.000130
 233	2.3084e+01	9.2356	34.868741	0.000314	3.142371	1.064664	0.000126
 234	2.3183e+01	9.2805	34.985818	0.000294	2.939638	0.995976	0.000118
 235	2.3283e+01	9.3190	35.127118	0.000355	3.547838	1.202040	0.000142
 236	2.3383e+01	9.3495	35.268418	0.000355	3.547838	1.202040	0.000142
 237	2.3482e+01	9.3960	35.409718	0.000355	3.547838	1.202040	0.000142
 238	2.3581e+01	9.4361	35.510646	0.000253	2.534170	0.858600	0.000101
 239	2.3681e+01	9.4842	35.635797	0.000314	3.142371	1.064664	0.000126
 240	2.3780e+01	9.5115	35.781134	0.000365	3.649205	1.236384	0.000146
 241	2.3880e+01	9.5548	35.906285	0.000314	3.142371	1.064664	0.000126
 242	2.3980e+01	9.5997	36.047585	0.000355	3.547838	1.202040	0.000142
 243	2.4079e+01	9.6446	36.172736	0.000314	3.142371	1.064664	0.000126
 244	2.4178e+01	9.6815	36.301925	0.000324	3.243738	1.099008	0.000130
 245	2.4278e+01	9.7120	36.402853	0.000253	2.534170	0.858600	0.000101
 246	2.4378e+01	9.7505	36.540116	0.000345	3.446472	1.167696	0.000138
 247	2.4477e+01	9.7954	36.657193	0.000294	2.939638	0.995976	0.000118
 248	2.4576e+01	9.8291	36.729861	0.000182	1.824603	0.618192	0.000073
 249	2.4676e+01	9.8773	36.867124	0.000345	3.446472	1.167696	0.000138
 250	2.4776e+01	9.9126	36.947866	0.000203	2.027336	0.686880	0.000081
 251	2.4875e+01	9.9478	37.093203	0.000365	3.649205	1.236384	0.000146
 252	2.4974e+01	9.9992	37.210280	0.000294	2.939638	0.995976	0.000118
 253	2.5074e+01	10.0297	37.343506	0.000335	3.345105	1.133352	0.000134
 254	2.5174e+01	10.0730	37.448471	0.000264	2.635537	0.892944	0.000105
 255	2.5273e+01	10.1195	37.597845	0.000375	3.750572	1.270728	0.000150
 256	2.5372e+01	10.1532	37.722996	0.000314	3.142371	1.064664	0.000126
 257	2.5472e+01	10.1901	37.840073	0.000294	2.939638	0.995976	0.000118
 258	2.5572e+01	10.2318	38.013670	0.000436	4.358773	1.476792	0.000174
 259	2.5671e+01	10.2687	38.126710	0.000284	2.838271	0.961632	0.000114
 260	2.5770e+01	10.3104	38.268010	0.000355	3.547838	1.202040	0.000142
 261	2.5870e+01	10.3489	38.401235	0.000335	3.345105	1.133352	0.000134
 262	2.5970e+01	10.3922	38.494089	0.000233	2.331437	0.789912	0.000093
 263	2.6069e+01	10.4243	38.607129	0.000284	2.838271	0.961632	0.000114
 264	2.6169e+01	10.4821	38.732280	0.000314	3.142371	1.064664	0.000126
 265	2.6268e+01	10.5093	38.784763	0.000132	1.317769	0.446472	0.000053
 266	2.6367e+01	10.5414	38.934137	0.000375	3.750572	1.270728	0.000150
