»»»»»»»»»»»»»»»»»»»»»»»»»»»»»»»»»»»» Hysteresis ««««««««««««««««««««««««««««««««««««
»»»  Executed Version:	5.48.1
»»»  Vision Version:	5.48.4 (R)
»»»  Vision Compiled:	9/18/24
»»»  Driver Version:	5.47.0
»»»  Windows Version:	Windows 8 or 8.1
»»»  Processor Information:	x86 (AMD or Intel) - 32 Processors
»»»  Tester Name:	PMF21124-494 (100V)
»»»  Tester S/N:	PMF21124-494
»»»  Internal Amp Type:	100V RevK 270k
»»»  Internal Amp S/N:	iAB2-596/K     
»»»  Execution Count:	1
»»»»»»»»»»»»»»»»»»»»»»»»»»»»»»»»»»»»»»»»»»««««««««««««««««««««««««««««««««««««««««««

Stored:	6/27/2025 - 11:40:32
Configured:	06/27/25 11:23:28 AM
Executed:	06/27/25 11:40:02 AM

»»»»»»»»»»»»»»»»»»»»»»»»»»»»»»»»»»» Sample Info ««««««««««««««««««««««««««««««««««««
Sample Name:	
Lot Name:	
Wafer Name:	
Die Row/Column:	0/0
Capacitor Number:	0
Sample Area (cm2):	1.00e-04
Sample Thickness (microns):	1.50e-01

Amplifier:	Internal

»»»»»»»»»»»»»»»»»»»»»»»»»»»»»»»»»»» Tester Info «««««««««««««««««««««««««««««««««««
Tester Name:	PMF21124-494 (100V)
Tester Serial Number:	PMF21124-494
Return Signal Amp. Level:	1.79 [Index: 2]

»»»»»»»»»»»»»»»»»»»»»»»»»»»»»»»» Hysteresis Info ««««««««««««««««««««««««««««««««««
Task Name:	Hyst-1276
Volts:	10.00
Field:	666.67 (kV/cm)
DCBias:	0.00
DCField:	0.00 (kV/cm)
Hysteresis Period (ms):	1.00e+00
Preset:	Enabled
Preset Delay (ms):	1.00e+03
Profile:	Standard Monopolar

»»»»»»»»»»»»»»»»»»»»»»»»»»»»»»»»»»»»»» Data «««««««««««««««««««««««««««««««««««««««
Points:	2001

Valid Data

Point	Time (ms)	Drive Voltage	Measured Polarization (uC/cm2)	Capacitance (uF)	Normalized Capacitance (uF/cm2)	Dielectric Constant	Instantaneous Current (mA)
   1	0.0000e+00	-0.0032	-18.382114	0.000684	6.841561	1.158992	0.013684
   2	5.0000e-04	0.0074	-18.313694	0.000684	6.841561	1.158992	0.013684
   3	1.0000e-03	0.0143	-18.276490	0.000372	3.720099	0.630202	0.007441
   4	1.5000e-03	0.0235	-18.233300	0.000432	4.318735	0.731614	0.008638
   5	2.0000e-03	0.0345	-18.182413	0.000509	5.088411	0.862000	0.010177
   6	2.5000e-03	0.0455	-18.144354	0.000381	3.805618	0.644689	0.007612
   7	3.0000e-03	0.0570	-18.096888	0.000475	4.746333	0.804051	0.009493
   8	3.5000e-03	0.0628	-18.038303	0.000586	5.858086	0.992387	0.011717
   9	4.0000e-03	0.0756	-17.993402	0.000449	4.489774	0.760588	0.008980
  10	4.5000e-03	0.0858	-17.950640	0.000428	4.275975	0.724370	0.008553
  11	5.0000e-03	0.0964	-17.896332	0.000543	5.430489	0.919950	0.010862
  12	5.5000e-03	0.1071	-17.865970	0.000304	3.035943	0.514303	0.006072
  13	6.0000e-03	0.1165	-17.814655	0.000513	5.131171	0.869244	0.010263
  14	6.5000e-03	0.1254	-17.769754	0.000449	4.489774	0.760588	0.008980
  15	7.0000e-03	0.1311	-17.705183	0.000646	6.456723	1.093798	0.012914
  16	7.5000e-03	0.1464	-17.676960	0.000282	2.822144	0.478084	0.005645
  17	8.0000e-03	0.1556	-17.606402	0.000706	7.055359	1.195210	0.014112
  18	8.5000e-03	0.1664	-17.560646	0.000458	4.575294	0.775076	0.009151
  19	9.0000e-03	0.1759	-17.517456	0.000432	4.318735	0.731614	0.008638
  20	9.5000e-03	0.1871	-17.460154	0.000573	5.729807	0.970656	0.011460
  21	1.0000e-02	0.1977	-17.428082	0.000321	3.206982	0.543277	0.006414
  22	1.0500e-02	0.2069	-17.388740	0.000393	3.933897	0.666420	0.007868
  23	1.1000e-02	0.2156	-17.325024	0.000637	6.371203	1.079311	0.012743
  24	1.1500e-02	0.2270	-17.293380	0.000316	3.164222	0.536034	0.006329
  25	1.2000e-02	0.2373	-17.232230	0.000611	6.114645	1.035849	0.012230
  26	1.2500e-02	0.2461	-17.184763	0.000475	4.746333	0.804051	0.009493
  27	1.3000e-02	0.2534	-17.163382	0.000214	2.137988	0.362185	0.004276
  28	1.3500e-02	0.2660	-17.107363	0.000560	5.601528	0.948925	0.011204
  29	1.4000e-02	0.2783	-17.057758	0.000496	4.960132	0.840269	0.009921
  30	1.4500e-02	0.2873	-16.992332	0.000654	6.542242	1.108286	0.013085
  31	1.5000e-02	0.2975	-16.941444	0.000509	5.088411	0.862000	0.010177
  32	1.5500e-02	0.3069	-16.899537	0.000419	4.190456	0.709882	0.008381
  33	1.6000e-02	0.3173	-16.859340	0.000402	4.019417	0.680908	0.008039
  34	1.6500e-02	0.3261	-16.795624	0.000637	6.371203	1.079311	0.012743
  35	1.7000e-02	0.3365	-16.765263	0.000304	3.035943	0.514303	0.006072
  36	1.7500e-02	0.3457	-16.725494	0.000398	3.976657	0.673664	0.007954
  37	1.8000e-02	0.3576	-16.660922	0.000646	6.456723	1.093798	0.012914
  38	1.8500e-02	0.3664	-16.639113	0.000218	2.180747	0.369429	0.004362
  39	1.9000e-02	0.3743	-16.571976	0.000671	6.713281	1.137261	0.013427
  40	1.9500e-02	0.3858	-16.533917	0.000381	3.805618	0.644689	0.007612
  41	2.0000e-02	0.3963	-16.472767	0.000611	6.114645	1.035849	0.012230
  42	2.0500e-02	0.4065	-16.430004	0.000428	4.275975	0.724370	0.008553
  43	2.1000e-02	0.4193	-16.376551	0.000534	5.344969	0.905462	0.010691
  44	2.1500e-02	0.4240	-16.342769	0.000338	3.378021	0.572252	0.006756
  45	2.2000e-02	0.4364	-16.277770	0.000650	6.499483	1.101042	0.013000
  46	2.2500e-02	0.4451	-16.241422	0.000363	3.634579	0.615714	0.007270
  47	2.3000e-02	0.4568	-16.202508	0.000389	3.891138	0.659177	0.007783
  48	2.3500e-02	0.4648	-16.135798	0.000667	6.670522	1.130017	0.013342
  49	2.4000e-02	0.4751	-16.093463	0.000423	4.233216	0.717126	0.008467
  50	2.4500e-02	0.4840	-16.039155	0.000543	5.430489	0.919950	0.010862
  51	2.5000e-02	0.4953	-16.004517	0.000346	3.463540	0.586740	0.006928
  52	2.5500e-02	0.5064	-15.930966	0.000735	7.354678	1.245916	0.014710
  53	2.6000e-02	0.5157	-15.904881	0.000261	2.608345	0.441866	0.005217
  54	2.6500e-02	0.5225	-15.842447	0.000624	6.242924	1.057580	0.012487
  55	2.7000e-02	0.5376	-15.793698	0.000487	4.874612	0.825782	0.009750
  56	2.7500e-02	0.5460	-15.770606	0.000231	2.309027	0.391160	0.004618
  57	2.8000e-02	0.5589	-15.714587	0.000560	5.601528	0.948925	0.011204
  58	2.8500e-02	0.5663	-15.675674	0.000389	3.891138	0.659177	0.007783
  59	2.9000e-02	0.5759	-15.610674	0.000650	6.499483	1.101042	0.013000
  60	2.9500e-02	0.5887	-15.564919	0.000458	4.575294	0.775076	0.009151
  61	3.0000e-02	0.5995	-15.526432	0.000385	3.848378	0.651933	0.007697
  62	3.0500e-02	0.6089	-15.474690	0.000517	5.173930	0.876488	0.010349
  63	3.1000e-02	0.6184	-15.440907	0.000338	3.378021	0.572252	0.006756
  64	3.1500e-02	0.6266	-15.385744	0.000552	5.516008	0.934437	0.011033
  65	3.2000e-02	0.6366	-15.349823	0.000359	3.591819	0.608471	0.007184
  66	3.2500e-02	0.6441	-15.296798	0.000530	5.302210	0.898219	0.010605
  67	3.3000e-02	0.6573	-15.240351	0.000564	5.644288	0.956168	0.011289
  68	3.3500e-02	0.6650	-15.187753	0.000526	5.259450	0.890975	0.010520
  69	3.4000e-02	0.6771	-15.166372	0.000214	2.137988	0.362185	0.004276
  70	3.4500e-02	0.6875	-15.085978	0.000804	8.038834	1.361815	0.016079
  71	3.5000e-02	0.6959	-15.057755	0.000282	2.822144	0.478084	0.005645
  72	3.5500e-02	0.7060	-14.985059	0.000727	7.269158	1.231429	0.014539
  73	3.6000e-02	0.7166	-14.950849	0.000342	3.420780	0.579496	0.006842
  74	3.6500e-02	0.7276	-14.923481	0.000274	2.736624	0.463597	0.005474
  75	3.7000e-02	0.7339	-14.883711	0.000398	3.976657	0.673664	0.007954
  76	3.7500e-02	0.7468	-14.833679	0.000500	5.002891	0.847513	0.010006
  77	3.8000e-02	0.7575	-14.779799	0.000539	5.387729	0.912706	0.010776
  78	3.8500e-02	0.7670	-14.737036	0.000428	4.275975	0.724370	0.008553
  79	3.9000e-02	0.7760	-14.695129	0.000419	4.190456	0.709882	0.008381
  80	3.9500e-02	0.7871	-14.623288	0.000718	7.183639	1.216941	0.014368
  81	4.0000e-02	0.7966	-14.565558	0.000577	5.772567	0.977899	0.011546
  82	4.0500e-02	0.8052	-14.536052	0.000295	2.950423	0.499815	0.005901
  83	4.1000e-02	0.8186	-14.494145	0.000419	4.190456	0.709882	0.008381
  84	4.1500e-02	0.8231	-14.424442	0.000697	6.969840	1.180723	0.013941
  85	4.2000e-02	0.8327	-14.398784	0.000257	2.565585	0.434622	0.005132
  86	4.2500e-02	0.8464	-14.351318	0.000475	4.746333	0.804051	0.009493
  87	4.3000e-02	0.8537	-14.306417	0.000449	4.489774	0.760588	0.008980
  88	4.3500e-02	0.8652	-14.258523	0.000479	4.789093	0.811294	0.009579
  89	4.4000e-02	0.8776	-14.196945	0.000616	6.157405	1.043093	0.012316
  90	4.4500e-02	0.8852	-14.164018	0.000329	3.292501	0.557765	0.006585
  91	4.5000e-02	0.8957	-14.113558	0.000505	5.045651	0.854756	0.010092
  92	4.5500e-02	0.9066	-14.061388	0.000522	5.216690	0.883731	0.010434
  93	4.6000e-02	0.9166	-14.010501	0.000509	5.088411	0.862000	0.010177
  94	4.6500e-02	0.9287	-13.959186	0.000513	5.131171	0.869244	0.010263
  95	4.7000e-02	0.9343	-13.915140	0.000440	4.404255	0.746101	0.008809
  96	4.7500e-02	0.9483	-13.866819	0.000483	4.831852	0.818538	0.009664
  97	4.8000e-02	0.9598	-13.839878	0.000269	2.693865	0.456353	0.005388
  98	4.8500e-02	0.9660	-13.783859	0.000560	5.601528	0.948925	0.011204
  99	4.9000e-02	0.9760	-13.739386	0.000445	4.447014	0.753345	0.008895
 100	4.9500e-02	0.9874	-13.688926	0.000505	5.045651	0.854756	0.010092
 101	5.0000e-02	0.9964	-13.626921	0.000620	6.200164	1.050336	0.012401
 102	5.0500e-02	1.0064	-13.598270	0.000286	2.864904	0.485328	0.005730
 103	5.1000e-02	1.0172	-13.553797	0.000445	4.447014	0.753345	0.008895
 104	5.1500e-02	1.0260	-13.507613	0.000462	4.618053	0.782319	0.009237
 105	5.2000e-02	1.0352	-13.460575	0.000470	4.703573	0.796807	0.009408
 106	5.2500e-02	1.0451	-13.411398	0.000492	4.917372	0.833025	0.009835
 107	5.3000e-02	1.0562	-13.372911	0.000385	3.848378	0.651933	0.007697
 108	5.3500e-02	1.0651	-13.311761	0.000611	6.114645	1.035849	0.012230
 109	5.4000e-02	1.0781	-13.256170	0.000556	5.558768	0.941681	0.011118
 110	5.4500e-02	1.0860	-13.228802	0.000274	2.736624	0.463597	0.005474
 111	5.5000e-02	1.0947	-13.174493	0.000543	5.430489	0.919950	0.010862
 112	5.5500e-02	1.1086	-13.109922	0.000646	6.456723	1.093798	0.012914
 113	5.6000e-02	1.1184	-13.089396	0.000205	2.052468	0.347698	0.004105
 114	5.6500e-02	1.1275	-13.033377	0.000560	5.601528	0.948925	0.011204
 115	5.7000e-02	1.1382	-12.973082	0.000603	6.029125	1.021361	0.012059
 116	5.7500e-02	1.1481	-12.942720	0.000304	3.035943	0.514303	0.006072
 117	5.8000e-02	1.1562	-12.892688	0.000500	5.002891	0.847513	0.010006
 118	5.8500e-02	1.1668	-12.855057	0.000376	3.762858	0.637445	0.007526
 119	5.9000e-02	1.1758	-12.808446	0.000466	4.660813	0.789563	0.009322
 120	5.9500e-02	1.1885	-12.760552	0.000479	4.789093	0.811294	0.009579
 121	6.0000e-02	1.1993	-12.711375	0.000492	4.917372	0.833025	0.009835
 122	6.0500e-02	1.2086	-12.681441	0.000299	2.993183	0.507059	0.005987
 123	6.1000e-02	1.2178	-12.624567	0.000569	5.687047	0.963412	0.011375
 124	6.1500e-02	1.2260	-12.582232	0.000423	4.233216	0.717126	0.008467
 125	6.2000e-02	1.2374	-12.524930	0.000573	5.729807	0.970656	0.011460
 126	6.2500e-02	1.2469	-12.470622	0.000543	5.430489	0.919950	0.010862
 127	6.3000e-02	1.2562	-12.450524	0.000201	2.009708	0.340454	0.004020
 128	6.3500e-02	1.2685	-12.392367	0.000582	5.815327	0.985143	0.011631
 129	6.4000e-02	1.2759	-12.350887	0.000415	4.147696	0.702639	0.008296
 130	6.4500e-02	1.2862	-12.294868	0.000560	5.601528	0.948925	0.011204
 131	6.5000e-02	1.2961	-12.249540	0.000453	4.532534	0.767832	0.009066
 132	6.5500e-02	1.3081	-12.218751	0.000308	3.078702	0.521546	0.006158
 133	6.6000e-02	1.3187	-12.167863	0.000509	5.088411	0.862000	0.010177
 134	6.6500e-02	1.3269	-12.119114	0.000487	4.874612	0.825782	0.009750
 135	6.7000e-02	1.3353	-12.073358	0.000458	4.575294	0.775076	0.009151
 136	6.7500e-02	1.3454	-12.032306	0.000410	4.104936	0.695395	0.008210
 137	6.8000e-02	1.3570	-12.007076	0.000252	2.522826	0.427378	0.005046
 138	6.8500e-02	1.3667	-11.957899	0.000492	4.917372	0.833025	0.009835
 139	6.9000e-02	1.3763	-11.873230	0.000847	8.466431	1.434252	0.016934
 140	6.9500e-02	1.3863	-11.858690	0.000145	1.453832	0.246286	0.002908
 141	7.0000e-02	1.3962	-11.810796	0.000479	4.789093	0.811294	0.009579
 142	7.0500e-02	1.4055	-11.764185	0.000466	4.660813	0.789563	0.009322
 143	7.1000e-02	1.4182	-11.715436	0.000487	4.874612	0.825782	0.009750
 144	7.1500e-02	1.4258	-11.664121	0.000513	5.131171	0.869244	0.010263
 145	7.2000e-02	1.4375	-11.638036	0.000261	2.608345	0.441866	0.005217
 146	7.2500e-02	1.4478	-11.567050	0.000710	7.098119	1.202454	0.014197
 147	7.3000e-02	1.4561	-11.555932	0.000111	1.111754	0.188336	0.002224
 148	7.3500e-02	1.4655	-11.495209	0.000607	6.071885	1.028605	0.012145
 149	7.4000e-02	1.4764	-11.444321	0.000509	5.088411	0.862000	0.010177
 150	7.4500e-02	1.4853	-11.379322	0.000650	6.499483	1.101042	0.013000
 151	7.5000e-02	1.4945	-11.342119	0.000372	3.720099	0.630202	0.007441
 152	7.5500e-02	1.5071	-11.296791	0.000453	4.532534	0.767832	0.009066
 153	7.6000e-02	1.5160	-11.242055	0.000547	5.473249	0.927193	0.010947
 154	7.6500e-02	1.5233	-11.225805	0.000162	1.624871	0.275261	0.003250
 155	7.7000e-02	1.5350	-11.162089	0.000637	6.371203	1.079311	0.012743
 156	7.7500e-02	1.5456	-11.117616	0.000445	4.447014	0.753345	0.008895
 157	7.8000e-02	1.5536	-11.074426	0.000432	4.318735	0.731614	0.008638
 158	7.8500e-02	1.5678	-11.038933	0.000355	3.549060	0.601227	0.007099
 159	7.9000e-02	1.5752	-10.992321	0.000466	4.660813	0.789563	0.009322
 160	7.9500e-02	1.5857	-10.955118	0.000372	3.720099	0.630202	0.007441
 161	8.0000e-02	1.5954	-10.901237	0.000539	5.387729	0.912706	0.010776
 162	8.0500e-02	1.6055	-10.880284	0.000210	2.095228	0.354941	0.004191
 163	8.1000e-02	1.6168	-10.820416	0.000599	5.986366	1.014118	0.011974
 164	8.1500e-02	1.6266	-10.772950	0.000475	4.746333	0.804051	0.009493
 165	8.2000e-02	1.6340	-10.716931	0.000560	5.601528	0.948925	0.011204
 166	8.2500e-02	1.6469	-10.674596	0.000423	4.233216	0.717126	0.008467
 167	8.3000e-02	1.6600	-10.632689	0.000419	4.190456	0.709882	0.008381
 168	8.3500e-02	1.6692	-10.571966	0.000607	6.071885	1.028605	0.012145
 169	8.4000e-02	1.6774	-10.544598	0.000274	2.736624	0.463597	0.005474
 170	8.4500e-02	1.6864	-10.498842	0.000458	4.575294	0.775076	0.009151
 171	8.5000e-02	1.6946	-10.446244	0.000526	5.259450	0.890975	0.010520
 172	8.5500e-02	1.7078	-10.409468	0.000368	3.677339	0.622958	0.007355
 173	8.6000e-02	1.7155	-10.370982	0.000385	3.848378	0.651933	0.007697
 174	8.6500e-02	1.7274	-10.320095	0.000509	5.088411	0.862000	0.010177
 175	8.7000e-02	1.7346	-10.285029	0.000351	3.506300	0.593983	0.007013
 176	8.7500e-02	1.7451	-10.238418	0.000466	4.660813	0.789563	0.009322
 177	8.8000e-02	1.7584	-10.186248	0.000522	5.216690	0.883731	0.010434
 178	8.8500e-02	1.7664	-10.140064	0.000462	4.618053	0.782319	0.009237
 179	8.9000e-02	1.7761	-10.099868	0.000402	4.019417	0.680908	0.008039
 180	8.9500e-02	1.7876	-10.050263	0.000496	4.960132	0.840269	0.009921
 181	9.0000e-02	1.7976	-10.009211	0.000410	4.104936	0.695395	0.008210
 182	9.0500e-02	1.8092	-9.958751	0.000505	5.045651	0.854756	0.010092
 183	9.1000e-02	1.8150	-9.916416	0.000423	4.233216	0.717126	0.008467
 184	9.1500e-02	1.8231	-9.899311	0.000171	1.710390	0.289748	0.003421
 185	9.2000e-02	1.8396	-9.850562	0.000487	4.874612	0.825782	0.009750
 186	9.2500e-02	1.8463	-9.792405	0.000582	5.815327	0.985143	0.011631
 187	9.3000e-02	1.8556	-9.756484	0.000359	3.591819	0.608471	0.007184
 188	9.3500e-02	1.8666	-9.723985	0.000325	3.249741	0.550521	0.006500
 189	9.4000e-02	1.8762	-9.688920	0.000351	3.506300	0.593983	0.007013
 190	9.4500e-02	1.8854	-9.626059	0.000629	6.285684	1.064824	0.012572
 191	9.5000e-02	1.8951	-9.577737	0.000483	4.831852	0.818538	0.009664
 192	9.5500e-02	1.9048	-9.550369	0.000274	2.736624	0.463597	0.005474
 193	9.6000e-02	1.9165	-9.494778	0.000556	5.558768	0.941681	0.011118
 194	9.6500e-02	1.9275	-9.454153	0.000406	4.062177	0.688151	0.008125
 195	9.7000e-02	1.9339	-9.394286	0.000599	5.986366	1.014118	0.011974
 196	9.7500e-02	1.9409	-9.358793	0.000355	3.549060	0.601227	0.007099
 197	9.8000e-02	1.9569	-9.311754	0.000470	4.703573	0.796807	0.009408
 198	9.8500e-02	1.9646	-9.284814	0.000269	2.693865	0.456353	0.005388
 199	9.9000e-02	1.9753	-9.248893	0.000359	3.591819	0.608471	0.007184
 200	9.9500e-02	1.9875	-9.189453	0.000594	5.943606	1.006874	0.011888
 201	1.0000e-01	1.9995	-9.140704	0.000487	4.874612	0.825782	0.009750
 202	1.0050e-01	2.0044	-9.114619	0.000261	2.608345	0.441866	0.005217
 203	1.0100e-01	2.0166	-9.065014	0.000496	4.960132	0.840269	0.009921
 204	1.0150e-01	2.0255	-8.999588	0.000654	6.542242	1.108286	0.013085
 205	1.0200e-01	2.0374	-8.973075	0.000265	2.651105	0.449109	0.005303
 206	1.0250e-01	2.0483	-8.905510	0.000676	6.756041	1.144504	0.013513
 207	1.0300e-01	2.0570	-8.900806	0.000047	0.470357	0.079681	0.000941
 208	1.0350e-01	2.0662	-8.855906	0.000449	4.489774	0.760588	0.008980
 209	1.0400e-01	2.0760	-8.792189	0.000637	6.371203	1.079311	0.012743
 210	1.0450e-01	2.0876	-8.755414	0.000368	3.677339	0.622958	0.007355
 211	1.0500e-01	2.0949	-8.723769	0.000316	3.164222	0.536034	0.006329
 212	1.0550e-01	2.1048	-8.675448	0.000483	4.831852	0.818538	0.009664
 213	1.0600e-01	2.1136	-8.636534	0.000389	3.891138	0.659177	0.007783
 214	1.0650e-01	2.1255	-8.595909	0.000406	4.062177	0.688151	0.008125
 215	1.0700e-01	2.1381	-8.529200	0.000667	6.670522	1.130017	0.013342
 216	1.0750e-01	2.1455	-8.498411	0.000308	3.078702	0.521546	0.006158
 217	1.0800e-01	2.1543	-8.468905	0.000295	2.950423	0.499815	0.005901
 218	1.0850e-01	2.1680	-8.411603	0.000573	5.729807	0.970656	0.011460
 219	1.0900e-01	2.1764	-8.400057	0.000115	1.154513	0.195580	0.002309
 220	1.0950e-01	2.1883	-8.335058	0.000650	6.499483	1.101042	0.013000
 221	1.1000e-01	2.1980	-8.262362	0.000727	7.269158	1.231429	0.014539
 222	1.1050e-01	2.2089	-8.243974	0.000184	1.838669	0.311479	0.003678
 223	1.1100e-01	2.2176	-8.185389	0.000586	5.858086	0.992387	0.011717
 224	1.1150e-01	2.2295	-8.152890	0.000325	3.249741	0.550521	0.006500
 225	1.1200e-01	2.2366	-8.109700	0.000432	4.318735	0.731614	0.008638
 226	1.1250e-01	2.2453	-8.064371	0.000453	4.532534	0.767832	0.009066
 227	1.1300e-01	2.2584	-8.038714	0.000257	2.565585	0.434622	0.005132
 228	1.1350e-01	2.2656	-7.980129	0.000586	5.858086	0.992387	0.011717
 229	1.1400e-01	2.2775	-7.935656	0.000445	4.447014	0.753345	0.008895
 230	1.1450e-01	2.2858	-7.890755	0.000449	4.489774	0.760588	0.008980
 231	1.1500e-01	2.2958	-7.863815	0.000269	2.693865	0.456353	0.005388
 232	1.1550e-01	2.3073	-7.830033	0.000338	3.378021	0.572252	0.006756
 233	1.1600e-01	2.3157	-7.769310	0.000607	6.071885	1.028605	0.012145
 234	1.1650e-01	2.3258	-7.723126	0.000462	4.618053	0.782319	0.009237
 235	1.1700e-01	2.3364	-7.691054	0.000321	3.206982	0.543277	0.006414
 236	1.1750e-01	2.3491	-7.648719	0.000423	4.233216	0.717126	0.008467
 237	1.1800e-01	2.3566	-7.605529	0.000432	4.318735	0.731614	0.008638
 238	1.1850e-01	2.3683	-7.574313	0.000312	3.121462	0.528790	0.006243
 239	1.1900e-01	2.3782	-7.506748	0.000676	6.756041	1.144504	0.013513
 240	1.1950e-01	2.3856	-7.482801	0.000239	2.394546	0.405647	0.004789
 241	1.2000e-01	2.3973	-7.448591	0.000342	3.420780	0.579496	0.006842
 242	1.2050e-01	2.4078	-7.410105	0.000385	3.848378	0.651933	0.007697
 243	1.2100e-01	2.4176	-7.360500	0.000496	4.960132	0.840269	0.009921
 244	1.2150e-01	2.4274	-7.329283	0.000312	3.121462	0.528790	0.006243
 245	1.2200e-01	2.4377	-7.279251	0.000500	5.002891	0.847513	0.010006
 246	1.2250e-01	2.4464	-7.226653	0.000526	5.259450	0.890975	0.010520
 247	1.2300e-01	2.4564	-7.199713	0.000269	2.693865	0.456353	0.005388
 248	1.2350e-01	2.4670	-7.141984	0.000577	5.772567	0.977899	0.011546
 249	1.2400e-01	2.4772	-7.101359	0.000406	4.062177	0.688151	0.008125
 250	1.2450e-01	2.4869	-7.085109	0.000162	1.624871	0.275261	0.003250
 251	1.2500e-01	2.4969	-7.043630	0.000415	4.147696	0.702639	0.008296
 252	1.2550e-01	2.5073	-6.988038	0.000556	5.558768	0.941681	0.011118
 253	1.2600e-01	2.5172	-6.937579	0.000505	5.045651	0.854756	0.010092
 254	1.2650e-01	2.5311	-6.909355	0.000282	2.822144	0.478084	0.005645
 255	1.2700e-01	2.5360	-6.884553	0.000248	2.480066	0.420135	0.004960
 256	1.2750e-01	2.5476	-6.816133	0.000684	6.841561	1.158992	0.013684
 257	1.2800e-01	2.5575	-6.768239	0.000479	4.789093	0.811294	0.009579
 258	1.2850e-01	2.5678	-6.724621	0.000436	4.361495	0.738857	0.008724
