»»»»»»»»»»»»»»»»»»»»»»»»»»»»»»»»»»»» Hysteresis ««««««««««««««««««««««««««««««««««««
»»»  Executed Version:	5.48.1
»»»  Vision Version:	5.48.4 (R)
»»»  Vision Compiled:	9/18/24
»»»  Driver Version:	5.47.0
»»»  Windows Version:	Windows 8 or 8.1
»»»  Processor Information:	x86 (AMD or Intel) - 32 Processors
»»»  Tester Name:	PMF21124-494 (100V)
»»»  Tester S/N:	PMF21124-494
»»»  Internal Amp Type:	100V RevK 270k
»»»  Internal Amp S/N:	iAB2-596/K     
»»»  Execution Count:	1
»»»»»»»»»»»»»»»»»»»»»»»»»»»»»»»»»»»»»»»»»»««««««««««««««««««««««««««««««««««««««««««

Stored:	6/27/2025 - 12:25:10
Configured:	06/27/25 11:23:28 AM
Executed:	06/27/25 12:24:50 PM

»»»»»»»»»»»»»»»»»»»»»»»»»»»»»»»»»»» Sample Info ««««««««««««««««««««««««««««««««««««
Sample Name:	
Lot Name:	
Wafer Name:	
Die Row/Column:	0/0
Capacitor Number:	0
Sample Area (cm2):	1.00e-04
Sample Thickness (microns):	1.50e-01

Amplifier:	Internal

»»»»»»»»»»»»»»»»»»»»»»»»»»»»»»»»»»» Tester Info «««««««««««««««««««««««««««««««««««
Tester Name:	PMF21124-494 (100V)
Tester Serial Number:	PMF21124-494
Return Signal Amp. Level:	1.79 [Index: 2]

»»»»»»»»»»»»»»»»»»»»»»»»»»»»»»»» Hysteresis Info ««««««««««««««««««««««««««««««««««
Task Name:	Hyst-1276
Volts:	10.00
Field:	666.67 (kV/cm)
DCBias:	0.00
DCField:	0.00 (kV/cm)
Hysteresis Period (ms):	1.00e+00
Preset:	Enabled
Preset Delay (ms):	1.00e+03
Profile:	Standard Monopolar

»»»»»»»»»»»»»»»»»»»»»»»»»»»»»»»»»»»»»» Data «««««««««««««««««««««««««««««««««««««««
Points:	2001

Valid Data

Point	Time (ms)	Drive Voltage	Measured Polarization (uC/cm2)	Capacitance (uF)	Normalized Capacitance (uF/cm2)	Dielectric Constant	Instantaneous Current (mA)
   1	0.0000e+00	-0.0039	-15.441335	0.000898	8.978316	1.520968	0.017960
   2	5.0000e-04	0.0108	-15.351534	0.000898	8.978316	1.520968	0.017960
   3	1.0000e-03	0.0163	-15.331863	0.000197	1.966679	0.333164	0.003934
   4	1.5000e-03	0.0263	-15.278837	0.000530	5.301482	0.898095	0.010605
   5	2.0000e-03	0.0381	-15.257884	0.000209	2.094940	0.354892	0.004191
   6	2.5000e-03	0.0438	-15.200154	0.000577	5.771774	0.977765	0.011546
   7	3.0000e-03	0.0559	-15.157819	0.000423	4.232634	0.717028	0.008467
   8	3.5000e-03	0.0711	-15.123182	0.000346	3.463065	0.586659	0.006928
   9	4.0000e-03	0.0765	-15.086834	0.000363	3.634080	0.615630	0.007270
  10	4.5000e-03	0.0850	-15.029959	0.000569	5.686267	0.963280	0.011375
  11	5.0000e-03	0.0961	-15.006440	0.000235	2.351464	0.398349	0.004704
  12	5.5000e-03	0.1058	-14.958546	0.000479	4.788435	0.811183	0.009579
  13	6.0000e-03	0.1159	-14.909797	0.000487	4.873943	0.825668	0.009750
  14	6.5000e-03	0.1257	-14.886705	0.000231	2.308710	0.391106	0.004618
  15	7.0000e-03	0.1373	-14.813581	0.000731	7.310914	1.238502	0.014625
  16	7.5000e-03	0.1491	-14.789206	0.000244	2.436971	0.412834	0.004875
  17	8.0000e-03	0.1572	-14.734043	0.000552	5.515251	0.934309	0.011033
  18	8.5000e-03	0.1649	-14.698977	0.000351	3.505818	0.593902	0.007013
  19	9.0000e-03	0.1769	-14.672465	0.000265	2.650741	0.449048	0.005303
  20	9.5000e-03	0.1860	-14.607893	0.000646	6.455836	1.093648	0.012914
  21	1.0000e-02	0.1958	-14.580525	0.000274	2.736249	0.463533	0.005474
  22	1.0500e-02	0.2049	-14.527072	0.000534	5.344235	0.905338	0.010691
  23	1.1000e-02	0.2158	-14.493290	0.000338	3.377557	0.572174	0.006756
  24	1.1500e-02	0.2234	-14.459507	0.000338	3.377557	0.572174	0.006756
  25	1.2000e-02	0.2357	-14.412041	0.000475	4.745681	0.803940	0.009493
  26	1.2500e-02	0.2465	-14.379541	0.000325	3.249295	0.550445	0.006500
  27	1.3000e-02	0.2559	-14.330792	0.000487	4.873943	0.825668	0.009750
  28	1.3500e-02	0.2653	-14.273918	0.000569	5.686267	0.963280	0.011375
  29	1.4000e-02	0.2782	-14.229445	0.000445	4.446404	0.753241	0.008895
  30	1.4500e-02	0.2863	-14.199939	0.000295	2.950018	0.499747	0.005901
  31	1.5000e-02	0.2945	-14.149479	0.000504	5.044958	0.854639	0.010092
  32	1.5500e-02	0.3053	-14.120400	0.000291	2.907264	0.492504	0.005816
  33	1.6000e-02	0.3172	-14.089184	0.000312	3.121033	0.528717	0.006243
  34	1.6500e-02	0.3269	-14.041717	0.000475	4.745681	0.803940	0.009493
  35	1.7000e-02	0.3353	-13.985698	0.000560	5.600759	0.948794	0.011204
  36	1.7500e-02	0.3461	-13.950206	0.000355	3.548572	0.601144	0.007099
  37	1.8000e-02	0.3558	-13.918989	0.000312	3.121033	0.528717	0.006243
  38	1.8500e-02	0.3678	-13.862115	0.000569	5.686267	0.963280	0.011375
  39	1.9000e-02	0.3756	-13.821490	0.000406	4.061619	0.688057	0.008125
  40	1.9500e-02	0.3859	-13.785997	0.000355	3.548572	0.601144	0.007099
  41	2.0000e-02	0.3981	-13.728696	0.000573	5.729020	0.970522	0.011460
  42	2.0500e-02	0.4070	-13.699189	0.000295	2.950018	0.499747	0.005901
  43	2.1000e-02	0.4189	-13.664124	0.000351	3.505818	0.593902	0.007013
  44	2.1500e-02	0.4262	-13.617085	0.000470	4.702927	0.796697	0.009408
  45	2.2000e-02	0.4369	-13.584586	0.000325	3.249295	0.550445	0.006500
  46	2.2500e-02	0.4447	-13.534554	0.000500	5.002204	0.847396	0.010006
  47	2.3000e-02	0.4568	-13.485377	0.000492	4.916697	0.832911	0.009835
  48	2.3500e-02	0.4688	-13.452877	0.000325	3.249295	0.550445	0.006500
  49	2.4000e-02	0.4816	-13.401990	0.000509	5.087712	0.861882	0.010177
  50	2.4500e-02	0.4873	-13.356234	0.000457	4.574666	0.774969	0.009151
  51	2.5000e-02	0.4957	-13.327155	0.000291	2.907264	0.492504	0.005816
  52	2.5500e-02	0.5049	-13.299787	0.000274	2.736249	0.463533	0.005474
  53	2.6000e-02	0.5165	-13.244624	0.000552	5.515251	0.934309	0.011033
  54	2.6500e-02	0.5251	-13.180480	0.000641	6.413083	1.086406	0.012829
  55	2.7000e-02	0.5354	-13.172355	0.000081	0.812324	0.137611	0.001625
  56	2.7500e-02	0.5446	-13.128737	0.000436	4.360896	0.738756	0.008724
  57	2.8000e-02	0.5581	-13.079133	0.000496	4.959450	0.840154	0.009921
  58	2.8500e-02	0.5685	-13.039791	0.000393	3.933357	0.666329	0.007868
  59	2.9000e-02	0.5772	-12.988476	0.000513	5.130466	0.869124	0.010263
  60	2.9500e-02	0.5878	-12.953839	0.000346	3.463065	0.586659	0.006928
  61	3.0000e-02	0.5943	-12.922194	0.000316	3.163787	0.535960	0.006329
  62	3.0500e-02	0.6042	-12.881998	0.000402	4.018865	0.680814	0.008039
  63	3.1000e-02	0.6157	-12.837097	0.000449	4.489158	0.760484	0.008980
  64	3.1500e-02	0.6259	-12.782789	0.000543	5.429743	0.919823	0.010862
  65	3.2000e-02	0.6389	-12.757131	0.000257	2.565233	0.434562	0.005132
  66	3.2500e-02	0.6470	-12.715651	0.000415	4.147127	0.702542	0.008296
  67	3.3000e-02	0.6565	-12.691277	0.000244	2.436971	0.412834	0.004875
  68	3.3500e-02	0.6621	-12.642100	0.000492	4.916697	0.832911	0.009835
  69	3.4000e-02	0.6761	-12.595916	0.000462	4.617419	0.782212	0.009237
  70	3.4500e-02	0.6866	-12.546739	0.000492	4.916697	0.832911	0.009835
  71	3.5000e-02	0.6964	-12.518516	0.000282	2.821756	0.478018	0.005645
  72	3.5500e-02	0.7074	-12.471050	0.000475	4.745681	0.803940	0.009493
  73	3.6000e-02	0.7157	-12.438123	0.000329	3.292049	0.557688	0.006585
  74	3.6500e-02	0.7271	-12.384242	0.000539	5.386989	0.912581	0.010776
  75	3.7000e-02	0.7376	-12.351315	0.000329	3.292049	0.557688	0.006585
  76	3.7500e-02	0.7467	-12.300000	0.000513	5.130466	0.869124	0.010263
  77	3.8000e-02	0.7561	-12.267928	0.000321	3.206541	0.543203	0.006414
  78	3.8500e-02	0.7663	-12.233718	0.000342	3.420311	0.579416	0.006842
  79	3.9000e-02	0.7762	-12.175988	0.000577	5.771774	0.977765	0.011546
  80	3.9500e-02	0.7864	-12.156317	0.000197	1.966679	0.333164	0.003934
  81	4.0000e-02	0.7939	-12.096450	0.000599	5.985544	1.013979	0.011974
  82	4.0500e-02	0.8073	-12.068654	0.000278	2.779002	0.470776	0.005559
  83	4.1000e-02	0.8153	-12.027175	0.000415	4.147127	0.702542	0.008296
  84	4.1500e-02	0.8271	-11.983129	0.000440	4.403650	0.745999	0.008809
  85	4.2000e-02	0.8393	-11.950630	0.000325	3.249295	0.550445	0.006500
  86	4.2500e-02	0.8479	-11.905301	0.000453	4.531912	0.767727	0.009066
  87	4.3000e-02	0.8575	-11.882637	0.000227	2.265956	0.383863	0.004533
  88	4.3500e-02	0.8669	-11.826618	0.000560	5.600759	0.948794	0.011204
  89	4.4000e-02	0.8751	-11.783856	0.000428	4.275388	0.724270	0.008553
  90	4.4500e-02	0.8856	-11.761619	0.000222	2.223202	0.376621	0.004447
  91	4.5000e-02	0.8949	-11.717146	0.000445	4.446404	0.753241	0.008895
  92	4.5500e-02	0.9086	-11.678232	0.000389	3.890603	0.659086	0.007783
  93	4.6000e-02	0.9172	-11.635470	0.000428	4.275388	0.724270	0.008553
  94	4.6500e-02	0.9277	-11.587576	0.000479	4.788435	0.811183	0.009579
  95	4.7000e-02	0.9382	-11.549945	0.000376	3.762342	0.637358	0.007526
  96	4.7500e-02	0.9502	-11.513597	0.000363	3.634080	0.615630	0.007270
  97	4.8000e-02	0.9554	-11.469979	0.000436	4.360896	0.738756	0.008724
  98	4.8500e-02	0.9651	-11.442611	0.000274	2.736249	0.463533	0.005474
  99	4.9000e-02	0.9797	-11.407118	0.000355	3.548572	0.601144	0.007099
 100	4.9500e-02	0.9861	-11.348961	0.000581	5.814528	0.985008	0.011631
 101	5.0000e-02	0.9971	-11.317744	0.000312	3.121033	0.528717	0.006243
 102	5.0500e-02	1.0086	-11.279686	0.000381	3.805096	0.644601	0.007612
 103	5.1000e-02	1.0154	-11.233930	0.000457	4.574666	0.774969	0.009151
 104	5.1500e-02	1.0247	-11.214687	0.000192	1.923925	0.325922	0.003849
 105	5.2000e-02	1.0358	-11.183470	0.000312	3.121033	0.528717	0.006243
 106	5.2500e-02	1.0452	-11.113339	0.000701	7.011637	1.187803	0.014026
 107	5.3000e-02	1.0564	-11.100083	0.000133	1.325370	0.224524	0.002651
 108	5.3500e-02	1.0690	-11.041498	0.000586	5.857282	0.992250	0.011717
 109	5.4000e-02	1.0750	-11.002157	0.000393	3.933357	0.666329	0.007868
 110	5.4500e-02	1.0848	-10.961960	0.000402	4.018865	0.680814	0.008039
 111	5.5000e-02	1.0963	-10.924757	0.000372	3.719588	0.630115	0.007441
 112	5.5500e-02	1.1078	-10.895678	0.000291	2.907264	0.492504	0.005816
 113	5.6000e-02	1.1153	-10.839232	0.000564	5.643513	0.956037	0.011289
 114	5.6500e-02	1.1265	-10.801601	0.000376	3.762342	0.637358	0.007526
 115	5.7000e-02	1.1395	-10.774233	0.000274	2.736249	0.463533	0.005474
 116	5.7500e-02	1.1493	-10.716503	0.000577	5.771774	0.977765	0.011546
 117	5.8000e-02	1.1545	-10.683148	0.000333	3.334803	0.564931	0.006671
 118	5.8500e-02	1.1676	-10.666899	0.000162	1.624648	0.275223	0.003250
 119	5.9000e-02	1.1765	-10.614728	0.000522	5.215974	0.883610	0.010434
 120	5.9500e-02	1.1859	-10.564269	0.000504	5.044958	0.854639	0.010092
 121	6.0000e-02	1.1971	-10.530059	0.000342	3.420311	0.579416	0.006842
 122	6.0500e-02	1.2088	-10.495849	0.000342	3.420311	0.579416	0.006842
 123	6.1000e-02	1.2165	-10.439402	0.000564	5.643513	0.956037	0.011289
 124	6.1500e-02	1.2238	-10.419731	0.000197	1.966679	0.333164	0.003934
 125	6.2000e-02	1.2360	-10.367989	0.000517	5.173220	0.876367	0.010349
 126	6.2500e-02	1.2449	-10.338055	0.000299	2.992772	0.506989	0.005987
 127	6.3000e-02	1.2558	-10.321377	0.000167	1.667401	0.282465	0.003335
 128	6.3500e-02	1.2663	-10.279043	0.000423	4.232634	0.717028	0.008467
 129	6.4000e-02	1.2779	-10.237563	0.000415	4.147127	0.702542	0.008296
 130	6.4500e-02	1.2846	-10.190952	0.000466	4.660173	0.789455	0.009322
 131	6.5000e-02	1.2965	-10.173419	0.000175	1.752909	0.296951	0.003507
 132	6.5500e-02	1.3086	-10.126380	0.000470	4.702927	0.796697	0.009408
 133	6.6000e-02	1.3171	-10.086611	0.000398	3.976111	0.673571	0.007954
 134	6.6500e-02	1.3279	-10.020757	0.000658	6.584098	1.115376	0.013171
 135	6.7000e-02	1.3365	-10.002797	0.000180	1.795663	0.304194	0.003592
 136	6.7500e-02	1.3454	-9.972863	0.000299	2.992772	0.506989	0.005987
 137	6.8000e-02	1.3568	-9.918554	0.000543	5.429743	0.919823	0.010862
 138	6.8500e-02	1.3657	-9.889048	0.000295	2.950018	0.499747	0.005901
 139	6.9000e-02	1.3748	-9.837733	0.000513	5.130466	0.869124	0.010263
 140	6.9500e-02	1.3882	-9.814214	0.000235	2.351464	0.398349	0.004704
 141	7.0000e-02	1.3950	-9.776155	0.000381	3.805096	0.644601	0.007612
 142	7.0500e-02	1.4057	-9.729116	0.000470	4.702927	0.796697	0.009408
 143	7.1000e-02	1.4145	-9.709446	0.000197	1.966679	0.333164	0.003934
 144	7.1500e-02	1.4273	-9.652572	0.000569	5.686267	0.963280	0.011375
 145	7.2000e-02	1.4359	-9.618361	0.000342	3.420311	0.579416	0.006842
 146	7.2500e-02	1.4471	-9.585007	0.000333	3.334803	0.564931	0.006671
 147	7.3000e-02	1.4584	-9.541817	0.000432	4.318142	0.731513	0.008638
 148	7.3500e-02	1.4639	-9.509745	0.000321	3.206541	0.543203	0.006414
 149	7.4000e-02	1.4774	-9.475107	0.000346	3.463065	0.586659	0.006928
 150	7.4500e-02	1.4871	-9.428923	0.000462	4.617419	0.782212	0.009237
 151	7.5000e-02	1.5015	-9.389154	0.000398	3.976111	0.673571	0.007954
 152	7.5500e-02	1.5090	-9.361359	0.000278	2.779002	0.470776	0.005559
 153	7.6000e-02	1.5143	-9.329287	0.000321	3.206541	0.543203	0.006414
 154	7.6500e-02	1.5300	-9.290373	0.000389	3.890603	0.659086	0.007783
 155	7.7000e-02	1.5378	-9.241624	0.000487	4.873943	0.825668	0.009750
 156	7.7500e-02	1.5465	-9.230933	0.000107	1.068847	0.181068	0.002138
 157	7.8000e-02	1.5564	-9.163368	0.000676	6.755114	1.144347	0.013513
 158	7.8500e-02	1.5677	-9.132579	0.000308	3.078280	0.521475	0.006158
 159	7.9000e-02	1.5771	-9.094948	0.000376	3.762342	0.637358	0.007526
 160	7.9500e-02	1.5857	-9.044916	0.000500	5.002204	0.847396	0.010006
 161	8.0000e-02	1.5974	-9.018831	0.000261	2.607987	0.441805	0.005217
 162	8.0500e-02	1.6060	-8.983766	0.000351	3.505818	0.593902	0.007013
 163	8.1000e-02	1.6196	-8.957253	0.000265	2.650741	0.449048	0.005303
 164	8.1500e-02	1.6258	-8.902089	0.000552	5.515251	0.934309	0.011033
 165	8.2000e-02	1.6384	-8.892681	0.000094	0.940585	0.159339	0.001882
 166	8.2500e-02	1.6455	-8.845215	0.000475	4.745681	0.803940	0.009493
 167	8.3000e-02	1.6553	-8.815281	0.000299	2.992772	0.506989	0.005987
 168	8.3500e-02	1.6681	-8.758407	0.000569	5.686267	0.963280	0.011375
 169	8.4000e-02	1.6748	-8.728473	0.000299	2.992772	0.506989	0.005987
 170	8.4500e-02	1.6878	-8.695974	0.000325	3.249295	0.550445	0.006500
 171	8.5000e-02	1.6968	-8.644231	0.000517	5.173220	0.876367	0.010349
 172	8.5500e-02	1.7074	-8.616863	0.000274	2.736249	0.463533	0.005474
 173	8.6000e-02	1.7163	-8.562127	0.000547	5.472497	0.927066	0.010947
 174	8.6500e-02	1.7258	-8.541173	0.000209	2.094940	0.354892	0.004191
 175	8.7000e-02	1.7378	-8.508674	0.000325	3.249295	0.550445	0.006500
 176	8.7500e-02	1.7454	-8.456504	0.000522	5.215974	0.883610	0.010434
 177	8.8000e-02	1.7563	-8.431274	0.000252	2.522479	0.427320	0.005046
 178	8.8500e-02	1.7659	-8.395353	0.000359	3.591326	0.608387	0.007184
 179	8.9000e-02	1.7741	-8.350880	0.000445	4.446404	0.753241	0.008895
 180	8.9500e-02	1.7829	-8.323085	0.000278	2.779002	0.470776	0.005559
 181	9.0000e-02	1.7963	-8.307690	0.000154	1.539140	0.260737	0.003079
 182	9.0500e-02	1.8071	-8.271342	0.000363	3.634080	0.615630	0.007270
 183	9.1000e-02	1.8161	-8.209764	0.000616	6.156559	1.042949	0.012316
 184	9.1500e-02	1.8259	-8.186244	0.000235	2.351464	0.398349	0.004704
 185	9.2000e-02	1.8346	-8.130653	0.000556	5.558005	0.941552	0.011118
 186	9.2500e-02	1.8449	-8.129798	0.000009	0.085508	0.014485	0.000171
 187	9.3000e-02	1.8580	-8.064371	0.000654	6.541344	1.108134	0.013085
 188	9.3500e-02	1.8667	-8.050260	0.000141	1.410878	0.239009	0.002822
 189	9.4000e-02	1.8757	-7.994668	0.000556	5.558005	0.941552	0.011118
 190	9.4500e-02	1.8855	-7.961741	0.000329	3.292049	0.557688	0.006585
 191	9.5000e-02	1.8999	-7.923683	0.000381	3.805096	0.644601	0.007612
 192	9.5500e-02	1.9058	-7.890328	0.000333	3.334803	0.564931	0.006671
 193	9.6000e-02	1.9167	-7.850559	0.000398	3.976111	0.673571	0.007954
 194	9.6500e-02	1.9289	-7.818914	0.000316	3.163787	0.535960	0.006329
 195	9.7000e-02	1.9370	-7.781283	0.000376	3.762342	0.637358	0.007526
 196	9.7500e-02	1.9461	-7.747073	0.000342	3.420311	0.579416	0.006842
 197	9.8000e-02	1.9556	-7.705166	0.000419	4.189881	0.709785	0.008381
 198	9.8500e-02	1.9672	-7.667107	0.000381	3.805096	0.644601	0.007612
 199	9.9000e-02	1.9753	-7.636746	0.000304	3.035526	0.514232	0.006072
 200	9.9500e-02	1.9817	-7.602108	0.000346	3.463065	0.586659	0.006928
 201	1.0000e-01	1.9931	-7.558491	0.000436	4.360896	0.738756	0.008724
 202	1.0050e-01	2.0077	-7.537537	0.000209	2.094940	0.354892	0.004191
 203	1.0100e-01	2.0153	-7.499906	0.000376	3.762342	0.637358	0.007526
 204	1.0150e-01	2.0265	-7.453295	0.000466	4.660173	0.789455	0.009322
 205	1.0200e-01	2.0381	-7.428065	0.000252	2.522479	0.427320	0.005046
 206	1.0250e-01	2.0471	-7.386158	0.000419	4.189881	0.709785	0.008381
 207	1.0300e-01	2.0575	-7.339119	0.000470	4.702927	0.796697	0.009408
 208	1.0350e-01	2.0668	-7.309613	0.000295	2.950018	0.499747	0.005901
 209	1.0400e-01	2.0770	-7.277113	0.000325	3.249295	0.550445	0.006500
 210	1.0450e-01	2.0876	-7.227936	0.000492	4.916697	0.832911	0.009835
 211	1.0500e-01	2.0966	-7.218956	0.000090	0.897832	0.152097	0.001796
 212	1.0550e-01	2.1057	-7.163792	0.000552	5.515251	0.934309	0.011033
 213	1.0600e-01	2.1149	-7.133431	0.000304	3.035526	0.514232	0.006072
 214	1.0650e-01	2.1273	-7.114616	0.000188	1.881171	0.318679	0.003763
 215	1.0700e-01	2.1369	-7.071425	0.000432	4.318142	0.731513	0.008638
 216	1.0750e-01	2.1460	-7.023959	0.000475	4.745681	0.803940	0.009493
 217	1.0800e-01	2.1547	-6.981196	0.000428	4.275388	0.724270	0.008553
 218	1.0850e-01	2.1647	-6.952973	0.000282	2.821756	0.478018	0.005645
 219	1.0900e-01	2.1771	-6.928599	0.000244	2.436971	0.412834	0.004875
 220	1.0950e-01	2.1852	-6.864455	0.000641	6.413083	1.086406	0.012829
 221	1.1000e-01	2.1973	-6.834521	0.000299	2.992772	0.506989	0.005987
 222	1.1050e-01	2.2070	-6.824686	0.000098	0.983339	0.166582	0.001967
 223	1.1100e-01	2.2147	-6.785772	0.000389	3.890603	0.659086	0.007783
 224	1.1150e-01	2.2265	-6.742582	0.000432	4.318142	0.731513	0.008638
 225	1.1200e-01	2.2351	-6.689984	0.000526	5.258728	0.890853	0.010520
 226	1.1250e-01	2.2465	-6.678010	0.000120	1.197109	0.202796	0.002395
 227	1.1300e-01	2.2568	-6.646366	0.000316	3.163787	0.535960	0.006329
 228	1.1350e-01	2.2650	-6.601893	0.000445	4.446404	0.753241	0.008895
 229	1.1400e-01	2.2762	-6.562124	0.000398	3.976111	0.673571	0.007954
 230	1.1450e-01	2.2864	-6.520644	0.000415	4.147127	0.702542	0.008296
 231	1.1500e-01	2.2968	-6.497980	0.000227	2.265956	0.383863	0.004533
 232	1.1550e-01	2.3067	-6.450941	0.000470	4.702927	0.796697	0.009408
 233	1.1600e-01	2.3177	-6.440250	0.000107	1.068847	0.181068	0.002138
 234	1.1650e-01	2.3267	-6.392356	0.000479	4.788435	0.811183	0.009579
 235	1.1700e-01	2.3361	-6.354725	0.000376	3.762342	0.637358	0.007526
 236	1.1750e-01	2.3470	-6.327785	0.000269	2.693495	0.456290	0.005388
 237	1.1800e-01	2.3576	-6.296568	0.000312	3.121033	0.528717	0.006243
 238	1.1850e-01	2.3695	-6.265352	0.000312	3.121033	0.528717	0.006243
 239	1.1900e-01	2.3778	-6.230714	0.000346	3.463065	0.586659	0.006928
 240	1.1950e-01	2.3882	-6.178116	0.000526	5.258728	0.890853	0.010520
 241	1.2000e-01	2.3984	-6.147327	0.000308	3.078280	0.521475	0.006158
 242	1.2050e-01	2.4060	-6.093019	0.000543	5.429743	0.919823	0.010862
 243	1.2100e-01	2.4152	-6.093019	0.000000	0.000000	0.000000	0.000000
 244	1.2150e-01	2.4274	-6.037427	0.000556	5.558005	0.941552	0.011118
 245	1.2200e-01	2.4373	-6.013480	0.000239	2.394217	0.405591	0.004789
 246	1.2250e-01	2.4473	-5.975849	0.000376	3.762342	0.637358	0.007526
 247	1.2300e-01	2.4570	-5.923679	0.000522	5.215974	0.883610	0.010434
 248	1.2350e-01	2.4664	-5.914699	0.000090	0.897832	0.152097	0.001796
 249	1.2400e-01	2.4773	-5.874075	0.000406	4.061619	0.688057	0.008125
 250	1.2450e-01	2.4854	-5.832595	0.000415	4.147127	0.702542	0.008296
 251	1.2500e-01	2.4940	-5.785556	0.000470	4.702927	0.796697	0.009408
 252	1.2550e-01	2.5076	-5.754767	0.000308	3.078280	0.521475	0.006158
 253	1.2600e-01	2.5186	-5.723550	0.000312	3.121033	0.528717	0.006243
 254	1.2650e-01	2.5277	-5.712005	0.000115	1.154355	0.195553	0.002309
 255	1.2700e-01	2.5372	-5.665393	0.000466	4.660173	0.789455	0.009322
 256	1.2750e-01	2.5468	-5.627762	0.000376	3.762342	0.637358	0.007526
 257	1.2800e-01	2.5574	-5.592697	0.000351	3.505818	0.593902	0.007013
 258	1.2850e-01	2.5642	-5.549935	0.000428	4.275388	0.724270	0.008553
 259	1.2900e-01	2.5771	-5.533685	0.000162	1.624648	0.275223	0.003250
