»»»»»»»»»»»»»»»»»»»»»»»»»»»»»»»»»»»» Hysteresis ««««««««««««««««««««««««««««««««««««
»»»  Executed Version:	5.48.1
»»»  Vision Version:	5.48.4 (R)
»»»  Vision Compiled:	9/18/24
»»»  Driver Version:	5.47.0
»»»  Windows Version:	Windows 8 or 8.1
»»»  Processor Information:	x86 (AMD or Intel) - 32 Processors
»»»  Tester Name:	PMF21124-494 (100V)
»»»  Tester S/N:	PMF21124-494
»»»  Internal Amp Type:	100V RevK 270k
»»»  Internal Amp S/N:	iAB2-596/K     
»»»  Execution Count:	1
»»»»»»»»»»»»»»»»»»»»»»»»»»»»»»»»»»»»»»»»»»««««««««««««««««««««««««««««««««««««««««««

Stored:	6/27/2025 - 15:21:6
Configured:	06/27/25 11:23:28 AM
Executed:	06/27/25 03:20:40 PM

»»»»»»»»»»»»»»»»»»»»»»»»»»»»»»»»»»» Sample Info ««««««««««««««««««««««««««««««««««««
Sample Name:	
Lot Name:	
Wafer Name:	
Die Row/Column:	0/0
Capacitor Number:	0
Sample Area (cm2):	1.00e-04
Sample Thickness (microns):	1.50e-01

Amplifier:	Internal

»»»»»»»»»»»»»»»»»»»»»»»»»»»»»»»»»»» Tester Info «««««««««««««««««««««««««««««««««««
Tester Name:	PMF21124-494 (100V)
Tester Serial Number:	PMF21124-494
Return Signal Amp. Level:	1.79 [Index: 2]

»»»»»»»»»»»»»»»»»»»»»»»»»»»»»»»» Hysteresis Info ««««««««««««««««««««««««««««««««««
Task Name:	Hyst-1276
Volts:	10.00
Field:	666.67 (kV/cm)
DCBias:	0.00
DCField:	0.00 (kV/cm)
Hysteresis Period (ms):	1.00e+00
Preset:	Enabled
Preset Delay (ms):	1.00e+03
Profile:	Standard Monopolar

»»»»»»»»»»»»»»»»»»»»»»»»»»»»»»»»»»»»»» Data «««««««««««««««««««««««««««««««««««««««
Points:	2001

Valid Data

Point	Time (ms)	Drive Voltage	Measured Polarization (uC/cm2)	Capacitance (uF)	Normalized Capacitance (uF/cm2)	Dielectric Constant	Instantaneous Current (mA)
   1	0.0000e+00	0.0001	-14.561710	0.000624	6.243496	1.057677	0.012487
   2	5.0000e-04	0.0071	-14.499276	0.000624	6.243496	1.057677	0.012487
   3	1.0000e-03	0.0140	-14.450955	0.000483	4.832295	0.818613	0.009664
   4	1.5000e-03	0.0268	-14.427863	0.000231	2.309238	0.391196	0.004618
   5	2.0000e-03	0.0355	-14.382962	0.000449	4.490185	0.760658	0.008980
   6	2.5000e-03	0.0459	-14.350463	0.000325	3.250039	0.550571	0.006500
   7	3.0000e-03	0.0539	-14.311121	0.000393	3.934258	0.666481	0.007868
   8	3.5000e-03	0.0654	-14.280760	0.000304	3.036221	0.514350	0.006072
   9	4.0000e-03	0.0777	-14.240135	0.000406	4.062549	0.688214	0.008125
  10	4.5000e-03	0.0861	-14.202932	0.000372	3.720439	0.630259	0.007441
  11	5.0000e-03	0.0969	-14.169577	0.000334	3.335566	0.565060	0.006671
  12	5.5000e-03	0.1054	-14.131091	0.000385	3.848730	0.651993	0.007697
  13	6.0000e-03	0.1155	-14.092605	0.000385	3.848730	0.651993	0.007697
  14	6.5000e-03	0.1242	-14.059678	0.000329	3.292803	0.557816	0.006585
  15	7.0000e-03	0.1359	-14.010073	0.000496	4.960586	0.840346	0.009921
  16	7.5000e-03	0.1445	-13.982705	0.000274	2.736875	0.463639	0.005474
  17	8.0000e-03	0.1579	-13.925831	0.000569	5.687568	0.963500	0.011375
  18	8.5000e-03	0.1653	-13.908298	0.000175	1.753310	0.297019	0.003507
  19	9.0000e-03	0.1759	-13.854417	0.000539	5.388222	0.912790	0.010776
  20	9.5000e-03	0.1867	-13.818497	0.000359	3.592148	0.608526	0.007184
  21	1.0000e-02	0.1984	-13.785997	0.000325	3.250039	0.550571	0.006500
  22	1.0500e-02	0.2052	-13.748366	0.000376	3.763203	0.637504	0.007526
  23	1.1000e-02	0.2159	-13.700045	0.000483	4.832295	0.818613	0.009664
  24	1.1500e-02	0.2253	-13.679519	0.000205	2.052656	0.347729	0.004105
  25	1.2000e-02	0.2359	-13.626066	0.000535	5.345459	0.905545	0.010691
  26	1.2500e-02	0.2460	-13.588435	0.000376	3.763203	0.637504	0.007526
  27	1.3000e-02	0.2550	-13.569191	0.000192	1.924365	0.325996	0.003849
  28	1.3500e-02	0.2677	-13.520870	0.000483	4.832295	0.818613	0.009664
  29	1.4000e-02	0.2753	-13.485377	0.000355	3.549385	0.601282	0.007099
  30	1.4500e-02	0.2861	-13.433634	0.000517	5.174404	0.876568	0.010349
  31	1.5000e-02	0.2975	-13.406266	0.000274	2.736875	0.463639	0.005474
  32	1.5500e-02	0.3036	-13.382747	0.000235	2.352002	0.398440	0.004704
  33	1.6000e-02	0.3151	-13.343405	0.000393	3.934258	0.666481	0.007868
  34	1.6500e-02	0.3259	-13.287814	0.000556	5.559277	0.941767	0.011118
  35	1.7000e-02	0.3369	-13.277979	0.000098	0.983564	0.166620	0.001967
  36	1.7500e-02	0.3456	-13.212980	0.000650	6.500078	1.101143	0.013000
  37	1.8000e-02	0.3558	-13.169789	0.000432	4.319131	0.731681	0.008638
  38	1.8500e-02	0.3671	-13.152684	0.000171	1.710547	0.289774	0.003421
  39	1.9000e-02	0.3749	-13.110777	0.000419	4.190840	0.709947	0.008381
  40	1.9500e-02	0.3865	-13.060317	0.000505	5.046113	0.854835	0.010092
  41	2.0000e-02	0.3952	-13.033805	0.000265	2.651348	0.449150	0.005303
  42	2.0500e-02	0.4063	-12.973509	0.000603	6.029677	1.021455	0.012059
  43	2.1000e-02	0.4163	-12.951273	0.000222	2.223711	0.376707	0.004447
  44	2.1500e-02	0.4250	-12.909366	0.000419	4.190840	0.709947	0.008381
  45	2.2000e-02	0.4372	-12.867886	0.000415	4.148076	0.702703	0.008296
  46	2.2500e-02	0.4476	-12.825979	0.000419	4.190840	0.709947	0.008381
  47	2.3000e-02	0.4548	-12.801604	0.000244	2.437529	0.412929	0.004875
  48	2.3500e-02	0.4658	-12.779795	0.000218	2.180947	0.369462	0.004362
  49	2.4000e-02	0.4758	-12.736605	0.000432	4.319131	0.731681	0.008638
  50	2.4500e-02	0.4880	-12.681441	0.000552	5.516513	0.934523	0.011033
  51	2.5000e-02	0.4976	-12.653646	0.000278	2.779639	0.470884	0.005559
  52	2.5500e-02	0.5073	-12.623284	0.000304	3.036221	0.514350	0.006072
  53	2.6000e-02	0.5192	-12.583515	0.000398	3.977021	0.673726	0.007954
  54	2.6500e-02	0.5260	-12.544174	0.000393	3.934258	0.666481	0.007868
  55	2.7000e-02	0.5394	-12.493714	0.000505	5.046113	0.854835	0.010092
  56	2.7500e-02	0.5476	-12.474898	0.000188	1.881601	0.318752	0.003763
  57	2.8000e-02	0.5573	-12.431708	0.000432	4.319131	0.731681	0.008638
  58	2.8500e-02	0.5662	-12.405623	0.000261	2.608584	0.441906	0.005217
  59	2.9000e-02	0.5762	-12.361578	0.000440	4.404658	0.746169	0.008809
  60	2.9500e-02	0.5856	-12.328650	0.000329	3.292803	0.557816	0.006585
  61	3.0000e-02	0.5984	-12.267500	0.000612	6.115205	1.035944	0.012230
  62	3.0500e-02	0.6065	-12.236283	0.000312	3.121748	0.528838	0.006243
  63	3.1000e-02	0.6179	-12.226448	0.000098	0.983564	0.166620	0.001967
  64	3.1500e-02	0.6236	-12.157600	0.000688	6.884951	1.166342	0.013770
  65	3.2000e-02	0.6351	-12.125528	0.000321	3.207275	0.543327	0.006414
  66	3.2500e-02	0.6473	-12.090891	0.000346	3.463857	0.586793	0.006928
  67	3.3000e-02	0.6554	-12.078917	0.000120	1.197383	0.202842	0.002395
  68	3.3500e-02	0.6673	-12.021616	0.000573	5.730332	0.970744	0.011460
  69	3.4000e-02	0.6789	-11.988688	0.000329	3.292803	0.557816	0.006585
  70	3.4500e-02	0.6862	-11.957899	0.000308	3.078984	0.521594	0.006158
  71	3.5000e-02	0.6952	-11.888196	0.000697	6.970478	1.180831	0.013941
  72	3.5500e-02	0.7072	-11.853559	0.000346	3.463857	0.586793	0.006928
  73	3.6000e-02	0.7162	-11.854842	-0.000013	-0.128291	-0.021733	-0.000257
  74	3.6500e-02	0.7269	-11.806948	0.000479	4.789531	0.811369	0.009579
  75	3.7000e-02	0.7362	-11.785994	0.000210	2.095420	0.354974	0.004191
  76	3.7500e-02	0.7464	-11.725271	0.000607	6.072441	1.028699	0.012145
  77	3.8000e-02	0.7545	-11.683792	0.000415	4.148076	0.702703	0.008296
  78	3.8500e-02	0.7659	-11.661983	0.000218	2.180947	0.369462	0.004362
  79	3.9000e-02	0.7755	-11.639746	0.000222	2.223711	0.376707	0.004447
  80	3.9500e-02	0.7854	-11.590142	0.000496	4.960586	0.840346	0.009921
  81	4.0000e-02	0.7967	-11.542675	0.000475	4.746767	0.804124	0.009493
  82	4.0500e-02	0.8080	-11.510176	0.000325	3.250039	0.550571	0.006500
  83	4.1000e-02	0.8153	-11.458861	0.000513	5.131640	0.869323	0.010263
  84	4.1500e-02	0.8279	-11.441756	0.000171	1.710547	0.289774	0.003421
  85	4.2000e-02	0.8348	-11.392579	0.000492	4.917822	0.833102	0.009835
  86	4.2500e-02	0.8452	-11.355375	0.000372	3.720439	0.630259	0.007441
  87	4.3000e-02	0.8569	-11.318172	0.000372	3.720439	0.630259	0.007441
  88	4.3500e-02	0.8670	-11.286528	0.000316	3.164512	0.536083	0.006329
  89	4.4000e-02	0.8739	-11.245476	0.000411	4.105312	0.695459	0.008210
  90	4.4500e-02	0.8875	-11.213831	0.000316	3.164512	0.536083	0.006329
  91	4.5000e-02	0.8951	-11.172352	0.000415	4.148076	0.702703	0.008296
  92	4.5500e-02	0.9053	-11.149260	0.000231	2.309238	0.391196	0.004618
  93	4.6000e-02	0.9132	-11.106497	0.000428	4.276367	0.724436	0.008553
  94	4.6500e-02	0.9248	-11.089392	0.000171	1.710547	0.289774	0.003421
  95	4.7000e-02	0.9352	-11.025676	0.000637	6.371787	1.079410	0.012743
  96	4.7500e-02	0.9451	-11.002585	0.000231	2.309238	0.391196	0.004618
  97	4.8000e-02	0.9544	-10.967519	0.000351	3.506621	0.594038	0.007013
  98	4.8500e-02	0.9645	-10.927750	0.000398	3.977021	0.673726	0.007954
  99	4.9000e-02	0.9734	-10.897816	0.000299	2.993457	0.507105	0.005987
 100	4.9500e-02	0.9862	-10.846501	0.000513	5.131640	0.869323	0.010263
 101	5.0000e-02	0.9977	-10.820416	0.000261	2.608584	0.441906	0.005217
 102	5.0500e-02	1.0077	-10.797752	0.000227	2.266474	0.383951	0.004533
 103	5.1000e-02	1.0168	-10.744726	0.000530	5.302695	0.898301	0.010605
 104	5.1500e-02	1.0276	-10.718641	0.000261	2.608584	0.441906	0.005217
 105	5.2000e-02	1.0363	-10.668609	0.000500	5.003349	0.847590	0.010006
 106	5.2500e-02	1.0464	-10.627557	0.000411	4.105312	0.695459	0.008210
 107	5.3000e-02	1.0564	-10.616867	0.000107	1.069092	0.181109	0.002138
 108	5.3500e-02	1.0670	-10.566407	0.000505	5.046113	0.854835	0.010092
 109	5.4000e-02	1.0756	-10.554006	0.000124	1.240146	0.210086	0.002480
 110	5.4500e-02	1.0864	-10.491572	0.000624	6.243496	1.057677	0.012487
 111	5.5000e-02	1.0947	-10.459073	0.000325	3.250039	0.550571	0.006500
 112	5.5500e-02	1.1063	-10.424008	0.000351	3.506621	0.594038	0.007013
 113	5.6000e-02	1.1159	-10.386804	0.000372	3.720439	0.630259	0.007441
 114	5.6500e-02	1.1266	-10.362857	0.000239	2.394765	0.405684	0.004789
 115	5.7000e-02	1.1349	-10.308976	0.000539	5.388222	0.912790	0.010776
 116	5.7500e-02	1.1459	-10.275622	0.000334	3.335566	0.565060	0.006671
 117	5.8000e-02	1.1562	-10.243122	0.000325	3.250039	0.550571	0.006500
 118	5.8500e-02	1.1660	-10.206774	0.000363	3.634912	0.615771	0.007270
 119	5.9000e-02	1.1765	-10.184110	0.000227	2.266474	0.383951	0.004533
 120	5.9500e-02	1.1874	-10.142630	0.000415	4.148076	0.702703	0.008296
 121	6.0000e-02	1.1987	-10.102433	0.000402	4.019785	0.680970	0.008039
 122	6.0500e-02	1.2042	-10.058816	0.000436	4.361894	0.738925	0.008724
 123	6.1000e-02	1.2179	-10.025461	0.000334	3.335566	0.565060	0.006671
 124	6.1500e-02	1.2262	-9.978422	0.000470	4.704004	0.796880	0.009408
 125	6.2000e-02	1.2364	-9.952764	0.000257	2.565820	0.434662	0.005132
 126	6.2500e-02	1.2466	-9.937370	0.000154	1.539492	0.260797	0.003079
 127	6.3000e-02	1.2586	-9.893325	0.000440	4.404658	0.746169	0.008809
 128	6.3500e-02	1.2684	-9.839871	0.000535	5.345459	0.905545	0.010691
 129	6.4000e-02	1.2753	-9.826187	0.000137	1.368437	0.231820	0.002737
 130	6.4500e-02	1.2866	-9.783852	0.000423	4.233603	0.717192	0.008467
 131	6.5000e-02	1.2936	-9.753491	0.000304	3.036221	0.514350	0.006072
 132	6.5500e-02	1.3055	-9.720136	0.000334	3.335566	0.565060	0.006671
 133	6.6000e-02	1.3165	-9.689347	0.000308	3.078984	0.521594	0.006158
 134	6.6500e-02	1.3271	-9.650006	0.000393	3.934258	0.666481	0.007868
 135	6.7000e-02	1.3347	-9.641881	0.000081	0.812510	0.137643	0.001625
 136	6.7500e-02	1.3461	-9.564908	0.000770	7.697460	1.303985	0.015395
 137	6.8000e-02	1.3550	-9.529843	0.000351	3.506621	0.594038	0.007013
 138	6.8500e-02	1.3690	-9.501620	0.000282	2.822402	0.478128	0.005645
 139	6.9000e-02	1.3759	-9.466982	0.000346	3.463857	0.586793	0.006928
 140	6.9500e-02	1.3844	-9.436193	0.000308	3.078984	0.521594	0.006158
 141	7.0000e-02	1.3982	-9.404549	0.000316	3.164512	0.536083	0.006329
 142	7.0500e-02	1.4040	-9.373760	0.000308	3.078984	0.521594	0.006158
 143	7.1000e-02	1.4145	-9.335701	0.000381	3.805967	0.644748	0.007612
 144	7.1500e-02	1.4246	-9.292083	0.000436	4.361894	0.738925	0.008724
 145	7.2000e-02	1.4371	-9.270702	0.000214	2.138183	0.362218	0.004276
 146	7.2500e-02	1.4472	-9.215111	0.000556	5.559277	0.941767	0.011118
 147	7.3000e-02	1.4558	-9.197151	0.000180	1.796074	0.304263	0.003592
 148	7.3500e-02	1.4644	-9.153105	0.000440	4.404658	0.746169	0.008809
 149	7.4000e-02	1.4754	-9.120178	0.000329	3.292803	0.557816	0.006585
 150	7.4500e-02	1.4835	-9.079981	0.000402	4.019785	0.680970	0.008039
 151	7.5000e-02	1.4957	-9.055179	0.000248	2.480293	0.420173	0.004960
 152	7.5500e-02	1.5063	-9.028239	0.000269	2.694111	0.456395	0.005388
 153	7.6000e-02	1.5140	-8.954687	0.000736	7.355351	1.246030	0.014710
 154	7.6500e-02	1.5263	-8.943569	0.000111	1.111855	0.188353	0.002224
 155	7.7000e-02	1.5363	-8.919622	0.000239	2.394765	0.405684	0.004789
 156	7.7500e-02	1.5468	-8.873866	0.000458	4.575713	0.775147	0.009151
 157	7.8000e-02	1.5558	-8.833241	0.000406	4.062549	0.688214	0.008125
 158	7.8500e-02	1.5659	-8.813143	0.000201	2.009892	0.340485	0.004020
 159	7.9000e-02	1.5770	-8.786630	0.000265	2.651348	0.449150	0.005303
 160	7.9500e-02	1.5845	-8.727618	0.000590	5.901386	0.999722	0.011802
 161	8.0000e-02	1.5974	-8.701105	0.000265	2.651348	0.449150	0.005303
 162	8.0500e-02	1.6089	-8.675448	0.000257	2.565820	0.434662	0.005132
 163	8.1000e-02	1.6156	-8.622850	0.000526	5.259931	0.891056	0.010520
 164	8.1500e-02	1.6255	-8.604890	0.000180	1.796074	0.304263	0.003592
 165	8.2000e-02	1.6373	-8.576666	0.000282	2.822402	0.478128	0.005645
 166	8.2500e-02	1.6512	-8.546305	0.000304	3.036221	0.514350	0.006072
 167	8.3000e-02	1.6550	-8.498839	0.000475	4.746767	0.804124	0.009493
 168	8.3500e-02	1.6644	-8.458214	0.000406	4.062549	0.688214	0.008125
 169	8.4000e-02	1.6763	-8.424859	0.000334	3.335566	0.565060	0.006671
 170	8.4500e-02	1.6863	-8.400912	0.000239	2.394765	0.405684	0.004789
 171	8.5000e-02	1.6969	-8.354729	0.000462	4.618476	0.782391	0.009237
 172	8.5500e-02	1.7056	-8.305552	0.000492	4.917822	0.833102	0.009835
 173	8.6000e-02	1.7142	-8.282033	0.000235	2.352002	0.398440	0.004704
 174	8.6500e-02	1.7267	-8.255947	0.000261	2.608584	0.441906	0.005217
 175	8.7000e-02	1.7378	-8.236704	0.000192	1.924365	0.325996	0.003849
 176	8.7500e-02	1.7478	-8.177264	0.000594	5.944150	1.006966	0.011888
 177	8.8000e-02	1.7545	-8.150324	0.000269	2.694111	0.456395	0.005388
 178	8.8500e-02	1.7656	-8.117824	0.000325	3.250039	0.550571	0.006500
 179	8.9000e-02	1.7766	-8.075917	0.000419	4.190840	0.709947	0.008381
 180	8.9500e-02	1.7878	-8.049832	0.000261	2.608584	0.441906	0.005217
 181	9.0000e-02	1.7964	-8.018188	0.000316	3.164512	0.536083	0.006329
 182	9.0500e-02	1.8071	-7.982695	0.000355	3.549385	0.601282	0.007099
 183	9.1000e-02	1.8176	-7.936511	0.000462	4.618476	0.782391	0.009237
 184	9.1500e-02	1.8271	-7.932235	0.000043	0.427637	0.072444	0.000855
 185	9.2000e-02	1.8390	-7.874506	0.000577	5.773095	0.977989	0.011546
 186	9.2500e-02	1.8458	-7.858683	0.000158	1.582256	0.268041	0.003164
 187	9.3000e-02	1.8578	-7.823618	0.000351	3.506621	0.594038	0.007013
 188	9.3500e-02	1.8671	-7.792829	0.000308	3.078984	0.521594	0.006158
 189	9.4000e-02	1.8771	-7.750494	0.000423	4.233603	0.717192	0.008467
 190	9.4500e-02	1.8867	-7.697041	0.000535	5.345459	0.905545	0.010691
 191	9.5000e-02	1.8988	-7.671384	0.000257	2.565820	0.434662	0.005132
 192	9.5500e-02	1.9081	-7.643588	0.000278	2.779639	0.470884	0.005559
 193	9.6000e-02	1.9183	-7.599115	0.000445	4.447422	0.753414	0.008895
 194	9.6500e-02	1.9263	-7.561912	0.000372	3.720439	0.630259	0.007441
 195	9.7000e-02	1.9350	-7.534116	0.000278	2.779639	0.470884	0.005559
 196	9.7500e-02	1.9446	-7.506748	0.000274	2.736875	0.463639	0.005474
 197	9.8000e-02	1.9554	-7.481946	0.000248	2.480293	0.420173	0.004960
 198	9.8500e-02	1.9647	-7.444742	0.000372	3.720439	0.630259	0.007441
 199	9.9000e-02	1.9772	-7.413098	0.000316	3.164512	0.536083	0.006329
 200	9.9500e-02	1.9890	-7.369480	0.000436	4.361894	0.738925	0.008724
 201	1.0000e-01	1.9958	-7.339974	0.000295	2.950693	0.499861	0.005901
 202	1.0050e-01	2.0056	-7.315172	0.000248	2.480293	0.420173	0.004960
 203	1.0100e-01	2.0142	-7.269843	0.000453	4.532949	0.767902	0.009066
 204	1.0150e-01	2.0248	-7.231357	0.000385	3.848730	0.651993	0.007697
 205	1.0200e-01	2.0345	-7.206127	0.000252	2.523056	0.427417	0.005046
 206	1.0250e-01	2.0484	-7.159516	0.000466	4.661240	0.789635	0.009322
 207	1.0300e-01	2.0572	-7.118464	0.000411	4.105312	0.695459	0.008210
 208	1.0350e-01	2.0667	-7.105635	0.000128	1.282910	0.217331	0.002566
 209	1.0400e-01	2.0747	-7.055603	0.000500	5.003349	0.847590	0.010006
 210	1.0450e-01	2.0858	-7.026097	0.000295	2.950693	0.499861	0.005901
 211	1.0500e-01	2.0972	-6.994025	0.000321	3.207275	0.543327	0.006414
 212	1.0550e-01	2.1063	-6.951690	0.000423	4.233603	0.717192	0.008467
 213	1.0600e-01	2.1191	-6.937579	0.000141	1.411201	0.239064	0.002822
 214	1.0650e-01	2.1267	-6.894816	0.000428	4.276367	0.724436	0.008553
 215	1.0700e-01	2.1364	-6.864882	0.000299	2.993457	0.507105	0.005987
 216	1.0750e-01	2.1458	-6.828962	0.000359	3.592148	0.608526	0.007184
 217	1.0800e-01	2.1561	-6.796462	0.000325	3.250039	0.550571	0.006500
 218	1.0850e-01	2.1689	-6.773371	0.000231	2.309238	0.391196	0.004618
 219	1.0900e-01	2.1787	-6.734457	0.000389	3.891494	0.659237	0.007783
 220	1.0950e-01	2.1881	-6.691266	0.000432	4.319131	0.731681	0.008638
 221	1.1000e-01	2.1968	-6.669458	0.000218	2.180947	0.369462	0.004362
 222	1.1050e-01	2.2083	-6.624985	0.000445	4.447422	0.753414	0.008895
 223	1.1100e-01	2.2162	-6.602320	0.000227	2.266474	0.383951	0.004533
 224	1.1150e-01	2.2255	-6.561696	0.000406	4.062549	0.688214	0.008125
 225	1.1200e-01	2.2357	-6.533473	0.000282	2.822402	0.478128	0.005645
 226	1.1250e-01	2.2456	-6.492848	0.000406	4.062549	0.688214	0.008125
 227	1.1300e-01	2.2550	-6.465053	0.000278	2.779639	0.470884	0.005559
 228	1.1350e-01	2.2662	-6.444527	0.000205	2.052656	0.347729	0.004105
 229	1.1400e-01	2.2742	-6.399198	0.000453	4.532949	0.767902	0.009066
 230	1.1450e-01	2.2864	-6.379100	0.000201	2.009892	0.340485	0.004020
 231	1.1500e-01	2.2975	-6.342324	0.000368	3.677676	0.623015	0.007355
 232	1.1550e-01	2.3072	-6.311108	0.000312	3.121748	0.528838	0.006243
 233	1.1600e-01	2.3181	-6.267490	0.000436	4.361894	0.738925	0.008724
 234	1.1650e-01	2.3256	-6.228576	0.000389	3.891494	0.659237	0.007783
 235	1.1700e-01	2.3346	-6.191800	0.000368	3.677676	0.623015	0.007355
 236	1.1750e-01	2.3483	-6.171702	0.000201	2.009892	0.340485	0.004020
 237	1.1800e-01	2.3569	-6.135781	0.000359	3.592148	0.608526	0.007184
 238	1.1850e-01	2.3669	-6.104565	0.000312	3.121748	0.528838	0.006243
 239	1.1900e-01	2.3756	-6.081045	0.000235	2.352002	0.398440	0.004704
 240	1.1950e-01	2.3892	-6.048118	0.000329	3.292803	0.557816	0.006585
 241	1.2000e-01	2.3963	-5.997658	0.000505	5.046113	0.854835	0.010092
 242	1.2050e-01	2.4057	-5.978415	0.000192	1.924365	0.325996	0.003849
 243	1.2100e-01	2.4153	-5.928811	0.000496	4.960586	0.840346	0.009921
 244	1.2150e-01	2.4279	-5.918548	0.000103	1.026328	0.173865	0.002053
 245	1.2200e-01	2.4335	-5.886476	0.000321	3.207275	0.543327	0.006414
 246	1.2250e-01	2.4466	-5.843286	0.000432	4.319131	0.731681	0.008638
 247	1.2300e-01	2.4585	-5.796247	0.000470	4.704004	0.796880	0.009408
 248	1.2350e-01	2.4663	-5.764175	0.000321	3.207275	0.543327	0.006414
 249	1.2400e-01	2.4783	-5.733386	0.000308	3.078984	0.521594	0.006158
 250	1.2450e-01	2.4863	-5.710722	0.000227	2.266474	0.383951	0.004533
 251	1.2500e-01	2.4945	-5.658124	0.000526	5.259931	0.891056	0.010520
 252	1.2550e-01	2.5071	-5.651709	0.000064	0.641455	0.108665	0.001283
 253	1.2600e-01	2.5158	-5.591842	0.000599	5.986914	1.014211	0.011974
 254	1.2650e-01	2.5272	-5.584145	0.000077	0.769746	0.130399	0.001539
 255	1.2700e-01	2.5342	-5.544803	0.000393	3.934258	0.666481	0.007868
 256	1.2750e-01	2.5455	-5.504606	0.000402	4.019785	0.680970	0.008039
 257	1.2800e-01	2.5540	-5.492205	0.000124	1.240146	0.210086	0.002480
 258	1.2850e-01	2.5671	-5.434903	0.000573	5.730332	0.970744	0.011460
 259	1.2900e-01	2.5780	-5.412239	0.000227	2.266474	0.383951	0.004533
