»»»»»»»»»»»»»»»»»»»»»»»»»»»»»»»»»»»» Hysteresis ««««««««««««««««««««««««««««««««««««
»»»  Executed Version:	5.48.1
»»»  Vision Version:	5.48.4 (R)
»»»  Vision Compiled:	9/18/24
»»»  Driver Version:	5.47.0
»»»  Windows Version:	Windows 8 or 8.1
»»»  Processor Information:	x86 (AMD or Intel) - 32 Processors
»»»  Tester Name:	PMF21124-494 (100V)
»»»  Tester S/N:	PMF21124-494
»»»  Internal Amp Type:	100V RevK 270k
»»»  Internal Amp S/N:	iAB2-596/K     
»»»  Execution Count:	1
»»»»»»»»»»»»»»»»»»»»»»»»»»»»»»»»»»»»»»»»»»««««««««««««««««««««««««««««««««««««««««««

Stored:	6/25/2025 - 14:21:47
Configured:	06/25/25 10:44:40 AM
Executed:	06/25/25 02:21:24 PM

»»»»»»»»»»»»»»»»»»»»»»»»»»»»»»»»»»» Sample Info ««««««««««««««««««««««««««««««««««««
Sample Name:	
Lot Name:	
Wafer Name:	
Die Row/Column:	0/0
Capacitor Number:	0
Sample Area (cm2):	1.00e-04
Sample Thickness (microns):	1.50e-01

Amplifier:	Internal

»»»»»»»»»»»»»»»»»»»»»»»»»»»»»»»»»»» Tester Info «««««««««««««««««««««««««««««««««««
Tester Name:	PMF21124-494 (100V)
Tester Serial Number:	PMF21124-494
Return Signal Amp. Level:	1.79 [Index: 2]

»»»»»»»»»»»»»»»»»»»»»»»»»»»»»»»» Hysteresis Info ««««««««««««««««««««««««««««««««««
Task Name:	Hyst-116
Volts:	10.00
Field:	666.67 (kV/cm)
DCBias:	0.00
DCField:	0.00 (kV/cm)
Hysteresis Period (ms):	1.00e+00
Preset:	Enabled
Preset Delay (ms):	1.00e+03
Profile:	Standard Monopolar

»»»»»»»»»»»»»»»»»»»»»»»»»»»»»»»»»»»»»» Data «««««««««««««««««««««««««««««««««««««««
Points:	2001

Valid Data

Point	Time (ms)	Drive Voltage	Measured Polarization (uC/cm2)	Capacitance (uF)	Normalized Capacitance (uF/cm2)	Dielectric Constant	Instantaneous Current (mA)
   1	0.0000e+00	-0.0050	-15.639753	0.000419	4.191303	0.710026	0.008381
   2	5.0000e-04	0.0078	-15.597846	0.000419	4.191303	0.710026	0.008381
   3	1.0000e-03	0.0153	-15.557649	0.000402	4.020230	0.681045	0.008039
   4	1.5000e-03	0.0277	-15.537123	0.000205	2.052883	0.347768	0.004105
   5	2.0000e-03	0.0356	-15.483670	0.000535	5.346050	0.905645	0.010691
   6	2.5000e-03	0.0448	-15.439197	0.000445	4.447914	0.753497	0.008895
   7	3.0000e-03	0.0565	-15.398572	0.000406	4.062998	0.688291	0.008125
   8	3.5000e-03	0.0637	-15.355382	0.000432	4.319608	0.731761	0.008638
   9	4.0000e-03	0.0748	-15.319462	0.000359	3.592546	0.608594	0.007184
  10	4.5000e-03	0.0863	-15.290811	0.000287	2.865483	0.485426	0.005730
  11	5.0000e-03	0.0965	-15.261305	0.000295	2.951020	0.499916	0.005901
  12	5.5000e-03	0.1048	-15.204858	0.000565	5.645429	0.956362	0.011289
  13	6.0000e-03	0.1161	-15.178773	0.000261	2.608872	0.441955	0.005217
  14	6.5000e-03	0.1266	-15.123609	0.000552	5.517124	0.934626	0.011033
  15	7.0000e-03	0.1352	-15.085123	0.000385	3.849156	0.652065	0.007697
  16	7.5000e-03	0.1450	-15.051341	0.000338	3.378704	0.572368	0.006756
  17	8.0000e-03	0.1552	-15.007723	0.000436	4.362377	0.739007	0.008724
  18	8.5000e-03	0.1656	-14.957691	0.000500	5.003903	0.847684	0.010006
  19	9.0000e-03	0.1755	-14.932461	0.000252	2.523336	0.427465	0.005046
  20	9.5000e-03	0.1846	-14.897396	0.000351	3.507009	0.594103	0.007013
  21	1.0000e-02	0.1949	-14.839666	0.000577	5.773734	0.978097	0.011546
  22	1.0500e-02	0.2045	-14.806311	0.000334	3.335935	0.565123	0.006671
  23	1.1000e-02	0.2158	-14.766970	0.000393	3.934693	0.666555	0.007868
  24	1.1500e-02	0.2251	-14.731905	0.000351	3.507009	0.594103	0.007013
  25	1.2000e-02	0.2375	-14.695984	0.000359	3.592546	0.608594	0.007184
  26	1.2500e-02	0.2458	-14.649800	0.000462	4.618987	0.782478	0.009237
  27	1.3000e-02	0.2556	-14.609604	0.000402	4.020230	0.681045	0.008039
  28	1.3500e-02	0.2642	-14.565558	0.000441	4.405145	0.746252	0.008809
  29	1.4000e-02	0.2766	-14.531348	0.000342	3.421472	0.579613	0.006842
  30	1.4500e-02	0.2866	-14.496283	0.000351	3.507009	0.594103	0.007013
  31	1.5000e-02	0.2942	-14.459507	0.000368	3.678082	0.623084	0.007355
  32	1.5500e-02	0.3049	-14.414607	0.000449	4.490682	0.760742	0.008980
  33	1.6000e-02	0.3165	-14.382962	0.000316	3.164862	0.536142	0.006329
  34	1.6500e-02	0.3249	-14.342766	0.000402	4.020230	0.681045	0.008039
  35	1.7000e-02	0.3367	-14.306417	0.000364	3.635314	0.615839	0.007270
  36	1.7500e-02	0.3468	-14.251681	0.000547	5.474355	0.927381	0.010947
  37	1.8000e-02	0.3531	-14.201649	0.000500	5.003903	0.847684	0.010006
  38	1.8500e-02	0.3650	-14.176419	0.000252	2.523336	0.427465	0.005046
  39	1.9000e-02	0.3767	-14.137505	0.000389	3.891924	0.659310	0.007783
  40	1.9500e-02	0.3862	-14.094315	0.000432	4.319608	0.731761	0.008638
  41	2.0000e-02	0.3971	-14.057539	0.000368	3.678082	0.623084	0.007355
  42	2.0500e-02	0.4079	-14.021191	0.000364	3.635314	0.615839	0.007270
  43	2.1000e-02	0.4148	-13.989547	0.000316	3.164862	0.536142	0.006329
  44	2.1500e-02	0.4275	-13.953627	0.000359	3.592546	0.608594	0.007184
  45	2.2000e-02	0.4373	-13.901456	0.000522	5.217745	0.883910	0.010434
  46	2.2500e-02	0.4469	-13.863398	0.000381	3.806388	0.644820	0.007612
  47	2.3000e-02	0.4578	-13.816786	0.000466	4.661756	0.789723	0.009322
  48	2.3500e-02	0.4655	-13.780438	0.000364	3.635314	0.615839	0.007270
  49	2.4000e-02	0.4769	-13.747939	0.000325	3.250398	0.550632	0.006500
  50	2.4500e-02	0.4857	-13.723137	0.000248	2.480567	0.420219	0.004960
  51	2.5000e-02	0.4982	-13.670539	0.000526	5.260513	0.891155	0.010520
  52	2.5500e-02	0.5067	-13.623500	0.000470	4.704524	0.796968	0.009408
  53	2.6000e-02	0.5180	-13.579027	0.000445	4.447914	0.753497	0.008895
  54	2.6500e-02	0.5270	-13.552942	0.000261	2.608872	0.441955	0.005217
  55	2.7000e-02	0.5370	-13.511034	0.000419	4.191303	0.710026	0.008381
  56	2.7500e-02	0.5462	-13.475114	0.000359	3.592546	0.608594	0.007184
  57	2.8000e-02	0.5558	-13.433634	0.000415	4.148535	0.702781	0.008296
  58	2.8500e-02	0.5642	-13.388306	0.000453	4.533450	0.767987	0.009066
  59	2.9000e-02	0.5798	-13.369918	0.000184	1.839041	0.311542	0.003678
  60	2.9500e-02	0.5861	-13.318603	0.000513	5.132208	0.869420	0.010263
  61	3.0000e-02	0.5935	-13.283538	0.000351	3.507009	0.594103	0.007013
  62	3.0500e-02	0.6070	-13.251466	0.000321	3.207630	0.543387	0.006414
  63	3.1000e-02	0.6193	-13.205282	0.000462	4.618987	0.782478	0.009237
  64	3.1500e-02	0.6265	-13.156533	0.000488	4.875598	0.825949	0.009750
  65	3.2000e-02	0.6359	-13.136435	0.000201	2.010115	0.340523	0.004020
  66	3.2500e-02	0.6448	-13.095810	0.000406	4.062998	0.688291	0.008125
  67	3.3000e-02	0.6551	-13.050910	0.000449	4.490682	0.760742	0.008980
  68	3.3500e-02	0.6647	-13.003871	0.000470	4.704524	0.796968	0.009408
  69	3.4000e-02	0.6806	-12.961108	0.000428	4.276840	0.724516	0.008553
  70	3.4500e-02	0.6865	-12.945714	0.000154	1.539662	0.260826	0.003079
  71	3.5000e-02	0.6944	-12.893543	0.000522	5.217745	0.883910	0.010434
  72	3.5500e-02	0.7044	-12.871735	0.000218	2.181188	0.369503	0.004362
  73	3.6000e-02	0.7156	-12.813578	0.000582	5.816503	0.985342	0.011631
  74	3.6500e-02	0.7282	-12.779795	0.000338	3.378704	0.572368	0.006756
  75	3.7000e-02	0.7388	-12.749006	0.000308	3.079325	0.521652	0.006158
  76	3.7500e-02	0.7458	-12.700684	0.000483	4.832829	0.818703	0.009664
  77	3.8000e-02	0.7565	-12.668613	0.000321	3.207630	0.543387	0.006414
  78	3.8500e-02	0.7652	-12.633547	0.000351	3.507009	0.594103	0.007013
  79	3.9000e-02	0.7754	-12.588647	0.000449	4.490682	0.760742	0.008980
  80	3.9500e-02	0.7872	-12.550588	0.000381	3.806388	0.644820	0.007612
  81	4.0000e-02	0.7996	-12.510391	0.000402	4.020230	0.681045	0.008039
  82	4.0500e-02	0.8083	-12.482168	0.000282	2.822714	0.478181	0.005645
  83	4.1000e-02	0.8154	-12.437695	0.000445	4.447914	0.753497	0.008895
  84	4.1500e-02	0.8260	-12.403485	0.000342	3.421472	0.579613	0.006842
  85	4.2000e-02	0.8383	-12.370558	0.000329	3.293167	0.557878	0.006585
  86	4.2500e-02	0.8458	-12.326085	0.000445	4.447914	0.753497	0.008895
  87	4.3000e-02	0.8566	-12.293158	0.000329	3.293167	0.557878	0.006585
  88	4.3500e-02	0.8669	-12.251678	0.000415	4.148535	0.702781	0.008296
  89	4.4000e-02	0.8773	-12.207633	0.000441	4.405145	0.746252	0.008809
  90	4.4500e-02	0.8898	-12.175988	0.000316	3.164862	0.536142	0.006329
  91	4.5000e-02	0.8969	-12.131943	0.000441	4.405145	0.746252	0.008809
  92	4.5500e-02	0.9058	-12.103720	0.000282	2.822714	0.478181	0.005645
  93	4.6000e-02	0.9179	-12.058819	0.000449	4.490682	0.760742	0.008980
  94	4.6500e-02	0.9261	-12.033161	0.000257	2.566104	0.434710	0.005132
  95	4.7000e-02	0.9380	-11.977143	0.000560	5.602661	0.949116	0.011204
  96	4.7500e-02	0.9460	-11.952768	0.000244	2.437799	0.412974	0.004875
  97	4.8000e-02	0.9553	-11.899315	0.000535	5.346050	0.905645	0.010691
  98	4.8500e-02	0.9673	-11.874512	0.000248	2.480567	0.420219	0.004960
  99	4.9000e-02	0.9782	-11.839020	0.000355	3.549777	0.601349	0.007099
 100	4.9500e-02	0.9863	-11.782573	0.000565	5.645429	0.956362	0.011289
 101	5.0000e-02	0.9967	-11.766751	0.000158	1.582431	0.268071	0.003164
 102	5.0500e-02	1.0042	-11.724844	0.000419	4.191303	0.710026	0.008381
 103	5.1000e-02	1.0162	-11.691916	0.000329	3.293167	0.557878	0.006585
 104	5.1500e-02	1.0274	-11.638891	0.000530	5.303282	0.898400	0.010605
 105	5.2000e-02	1.0376	-11.609812	0.000291	2.908251	0.492671	0.005816
 106	5.2500e-02	1.0460	-11.568760	0.000411	4.105766	0.695536	0.008210
 107	5.3000e-02	1.0532	-11.527708	0.000411	4.105766	0.695536	0.008210
 108	5.3500e-02	1.0645	-11.502051	0.000257	2.566104	0.434710	0.005132
 109	5.4000e-02	1.0760	-11.460571	0.000415	4.148535	0.702781	0.008296
 110	5.4500e-02	1.0883	-11.421657	0.000389	3.891924	0.659310	0.007783
 111	5.5000e-02	1.0976	-11.390441	0.000312	3.122093	0.528897	0.006243
 112	5.5500e-02	1.1059	-11.342119	0.000483	4.832829	0.818703	0.009664
 113	5.6000e-02	1.1161	-11.307481	0.000346	3.464240	0.586858	0.006928
 114	5.6500e-02	1.1306	-11.269423	0.000381	3.806388	0.644820	0.007612
 115	5.7000e-02	1.1356	-11.235640	0.000338	3.378704	0.572368	0.006756
 116	5.7500e-02	1.1465	-11.190312	0.000453	4.533450	0.767987	0.009066
 117	5.8000e-02	1.1557	-11.166793	0.000235	2.352262	0.398484	0.004704
 118	5.8500e-02	1.1665	-11.124030	0.000428	4.276840	0.724516	0.008553
 119	5.9000e-02	1.1772	-11.090675	0.000334	3.335935	0.565123	0.006671
 120	5.9500e-02	1.1860	-11.038933	0.000517	5.174976	0.876665	0.010349
 121	6.0000e-02	1.1942	-11.010709	0.000282	2.822714	0.478181	0.005645
 122	6.0500e-02	1.2057	-10.963671	0.000470	4.704524	0.796968	0.009408
 123	6.1000e-02	1.2146	-10.944000	0.000197	1.967346	0.333278	0.003934
 124	6.1500e-02	1.2268	-10.895678	0.000483	4.832829	0.818703	0.009664
 125	6.2000e-02	1.2331	-10.849495	0.000462	4.618987	0.782478	0.009237
 126	6.2500e-02	1.2445	-10.825120	0.000244	2.437799	0.412974	0.004875
 127	6.3000e-02	1.2576	-10.790910	0.000342	3.421472	0.579613	0.006842
 128	6.3500e-02	1.2688	-10.775088	0.000158	1.582431	0.268071	0.003164
 129	6.4000e-02	1.2766	-10.712655	0.000624	6.244187	1.057794	0.012487
 130	6.4500e-02	1.2848	-10.683148	0.000295	2.951020	0.499916	0.005901
 131	6.5000e-02	1.2977	-10.636537	0.000466	4.661756	0.789723	0.009322
 132	6.5500e-02	1.3050	-10.612590	0.000240	2.395030	0.405729	0.004789
 133	6.6000e-02	1.3162	-10.577525	0.000351	3.507009	0.594103	0.007013
 134	6.6500e-02	1.3258	-10.545453	0.000321	3.207630	0.543387	0.006414
 135	6.7000e-02	1.3367	-10.496704	0.000488	4.875598	0.825949	0.009750
 136	6.7500e-02	1.3498	-10.470191	0.000265	2.651641	0.449200	0.005303
 137	6.8000e-02	1.3526	-10.418876	0.000513	5.132208	0.869420	0.010263
 138	6.8500e-02	1.3651	-10.399205	0.000197	1.967346	0.333278	0.003934
 139	6.9000e-02	1.3748	-10.343186	0.000560	5.602661	0.949116	0.011204
 140	6.9500e-02	1.3872	-10.309404	0.000338	3.378704	0.572368	0.006756
 141	7.0000e-02	1.3953	-10.273056	0.000364	3.635314	0.615839	0.007270
 142	7.0500e-02	1.4035	-10.244405	0.000287	2.865483	0.485426	0.005730
 143	7.1000e-02	1.4149	-10.210622	0.000338	3.378704	0.572368	0.006756
 144	7.1500e-02	1.4240	-10.166149	0.000445	4.447914	0.753497	0.008895
 145	7.2000e-02	1.4354	-10.127236	0.000389	3.891924	0.659310	0.007783
 146	7.2500e-02	1.4470	-10.099440	0.000278	2.779946	0.470936	0.005559
 147	7.3000e-02	1.4556	-10.066940	0.000325	3.250398	0.550632	0.006500
 148	7.3500e-02	1.4653	-10.021612	0.000453	4.533450	0.767987	0.009066
 149	7.4000e-02	1.4756	-9.992961	0.000287	2.865483	0.485426	0.005730
 150	7.4500e-02	1.4856	-9.965593	0.000274	2.737178	0.463690	0.005474
 151	7.5000e-02	1.4953	-9.917699	0.000479	4.790061	0.811458	0.009579
 152	7.5500e-02	1.5028	-9.884344	0.000334	3.335935	0.565123	0.006671
 153	7.6000e-02	1.5147	-9.845858	0.000385	3.849156	0.652065	0.007697
 154	7.6500e-02	1.5244	-9.815069	0.000308	3.079325	0.521652	0.006158
 155	7.7000e-02	1.5351	-9.778293	0.000368	3.678082	0.623084	0.007355
 156	7.7500e-02	1.5485	-9.736814	0.000415	4.148535	0.702781	0.008296
 157	7.8000e-02	1.5553	-9.702176	0.000346	3.464240	0.586858	0.006928
 158	7.8500e-02	1.5749	-9.670959	0.000312	3.122093	0.528897	0.006243
 159	7.9000e-02	1.5767	-9.661552	0.000094	0.940905	0.159394	0.001882
 160	7.9500e-02	1.5875	-9.589283	0.000723	7.227860	1.224433	0.014454
 161	8.0000e-02	1.5971	-9.544810	0.000445	4.447914	0.753497	0.008895
 162	8.0500e-02	1.6061	-9.532836	0.000120	1.197515	0.202865	0.002395
 163	8.1000e-02	1.6176	-9.481949	0.000509	5.089440	0.862174	0.010177
 164	8.1500e-02	1.6248	-9.455864	0.000261	2.608872	0.441955	0.005217
 165	8.2000e-02	1.6376	-9.431062	0.000248	2.480567	0.420219	0.004960
 166	8.2500e-02	1.6446	-9.378891	0.000522	5.217745	0.883910	0.010434
 167	8.3000e-02	1.6528	-9.341260	0.000376	3.763619	0.637574	0.007526
 168	8.3500e-02	1.6669	-9.306195	0.000351	3.507009	0.594103	0.007013
 169	8.4000e-02	1.6770	-9.286097	0.000201	2.010115	0.340523	0.004020
 170	8.4500e-02	1.6864	-9.260867	0.000252	2.523336	0.427465	0.005046
 171	8.5000e-02	1.6962	-9.198861	0.000620	6.201418	1.050549	0.012401
 172	8.5500e-02	1.7056	-9.166789	0.000321	3.207630	0.543387	0.006414
 173	8.6000e-02	1.7159	-9.131296	0.000355	3.549777	0.601349	0.007099
 174	8.6500e-02	1.7258	-9.091100	0.000402	4.020230	0.681045	0.008039
 175	8.7000e-02	1.7352	-9.075705	0.000154	1.539662	0.260826	0.003079
 176	8.7500e-02	1.7465	-9.011561	0.000642	6.415260	1.086774	0.012829
 177	8.8000e-02	1.7555	-8.997450	0.000141	1.411357	0.239090	0.002822
 178	8.8500e-02	1.7651	-8.957253	0.000402	4.020230	0.681045	0.008039
 179	8.9000e-02	1.7751	-8.924326	0.000329	3.293167	0.557878	0.006585
 180	8.9500e-02	1.7860	-8.884984	0.000393	3.934693	0.666555	0.007868
 181	9.0000e-02	1.7948	-8.852485	0.000325	3.250398	0.550632	0.006500
 182	9.0500e-02	1.8066	-8.822978	0.000295	2.951020	0.499916	0.005901
 183	9.1000e-02	1.8147	-8.787913	0.000351	3.507009	0.594103	0.007013
 184	9.1500e-02	1.8262	-8.743013	0.000449	4.490682	0.760742	0.008980
 185	9.2000e-02	1.8390	-8.706664	0.000364	3.635314	0.615839	0.007270
 186	9.2500e-02	1.8451	-8.675448	0.000312	3.122093	0.528897	0.006243
 187	9.3000e-02	1.8573	-8.644659	0.000308	3.079325	0.521652	0.006158
 188	9.3500e-02	1.8642	-8.600186	0.000445	4.447914	0.753497	0.008895
 189	9.4000e-02	1.8794	-8.569397	0.000308	3.079325	0.521652	0.006158
 190	9.4500e-02	1.8832	-8.539035	0.000304	3.036556	0.514407	0.006072
 191	9.5000e-02	1.8952	-8.494562	0.000445	4.447914	0.753497	0.008895
 192	9.5500e-02	1.9089	-8.480023	0.000145	1.454126	0.246336	0.002908
 193	9.6000e-02	1.9151	-8.447096	0.000329	3.293167	0.557878	0.006585
 194	9.6500e-02	1.9251	-8.394498	0.000526	5.260513	0.891155	0.010520
 195	9.7000e-02	1.9338	-8.362854	0.000316	3.164862	0.536142	0.006329
 196	9.7500e-02	1.9452	-8.320519	0.000423	4.234072	0.717271	0.008467
 197	9.8000e-02	1.9565	-8.302559	0.000180	1.796273	0.304297	0.003592
 198	9.8500e-02	1.9644	-8.260651	0.000419	4.191303	0.710026	0.008381
 199	9.9000e-02	1.9788	-8.226014	0.000346	3.464240	0.586858	0.006928
 200	9.9500e-02	1.9855	-8.191804	0.000342	3.421472	0.579613	0.006842
 201	1.0000e-01	1.9958	-8.149896	0.000419	4.191303	0.710026	0.008381
 202	1.0050e-01	2.0062	-8.121673	0.000282	2.822714	0.478181	0.005645
 203	1.0100e-01	2.0175	-8.089601	0.000321	3.207630	0.543387	0.006414
 204	1.0150e-01	2.0258	-8.053253	0.000364	3.635314	0.615839	0.007270
 205	1.0200e-01	2.0356	-8.001510	0.000517	5.174976	0.876665	0.010349
 206	1.0250e-01	2.0470	-7.984405	0.000171	1.710736	0.289807	0.003421
 207	1.0300e-01	2.0558	-7.935656	0.000488	4.875598	0.825949	0.009750
 208	1.0350e-01	2.0656	-7.899308	0.000364	3.635314	0.615839	0.007270
 209	1.0400e-01	2.0784	-7.886479	0.000128	1.283052	0.217355	0.002566
 210	1.0450e-01	2.0837	-7.847138	0.000393	3.934693	0.666555	0.007868
 211	1.0500e-01	2.0972	-7.827039	0.000201	2.010115	0.340523	0.004020
 212	1.0550e-01	2.1051	-7.759474	0.000676	6.757407	1.144736	0.013513
 213	1.0600e-01	2.1194	-7.757336	0.000021	0.213842	0.036226	0.000428
 214	1.0650e-01	2.1244	-7.709015	0.000483	4.832829	0.818703	0.009664
 215	1.0700e-01	2.1362	-7.684640	0.000244	2.437799	0.412974	0.004875
 216	1.0750e-01	2.1444	-7.632897	0.000517	5.174976	0.876665	0.010349
 217	1.0800e-01	2.1558	-7.589707	0.000432	4.319608	0.731761	0.008638
 218	1.0850e-01	2.1657	-7.572175	0.000175	1.753504	0.297052	0.003507
 219	1.0900e-01	2.1747	-7.525563	0.000466	4.661756	0.789723	0.009322
 220	1.0950e-01	2.1842	-7.487505	0.000381	3.806388	0.644820	0.007612
 221	1.1000e-01	2.1957	-7.458426	0.000291	2.908251	0.492671	0.005816
 222	1.1050e-01	2.2056	-7.431486	0.000269	2.694409	0.456445	0.005388
 223	1.1100e-01	2.2180	-7.406256	0.000252	2.523336	0.427465	0.005046
 224	1.1150e-01	2.2241	-7.363066	0.000432	4.319608	0.731761	0.008638
 225	1.1200e-01	2.2362	-7.327573	0.000355	3.549777	0.601349	0.007099
 226	1.1250e-01	2.2453	-7.307047	0.000205	2.052883	0.347768	0.004105
 227	1.1300e-01	2.2556	-7.261291	0.000458	4.576219	0.775232	0.009151
 228	1.1350e-01	2.2656	-7.233923	0.000274	2.737178	0.463690	0.005474
 229	1.1400e-01	2.2760	-7.195864	0.000381	3.806388	0.644820	0.007612
 230	1.1450e-01	2.2858	-7.162510	0.000334	3.335935	0.565123	0.006671
 231	1.1500e-01	2.2937	-7.146687	0.000158	1.582431	0.268071	0.003164
 232	1.1550e-01	2.3047	-7.100076	0.000466	4.661756	0.789723	0.009322
 233	1.1600e-01	2.3154	-7.067577	0.000325	3.250398	0.550632	0.006500
 234	1.1650e-01	2.3279	-7.031656	0.000359	3.592546	0.608594	0.007184
 235	1.1700e-01	2.3358	-6.996591	0.000351	3.507009	0.594103	0.007013
 236	1.1750e-01	2.3456	-6.954256	0.000423	4.234072	0.717271	0.008467
 237	1.1800e-01	2.3590	-6.935013	0.000192	1.924578	0.326032	0.003849
 238	1.1850e-01	2.3669	-6.887119	0.000479	4.790061	0.811458	0.009579
 239	1.1900e-01	2.3765	-6.857185	0.000299	2.993788	0.507161	0.005987
 240	1.1950e-01	2.3881	-6.825968	0.000312	3.122093	0.528897	0.006243
 241	1.2000e-01	2.3944	-6.784489	0.000415	4.148535	0.702781	0.008296
 242	1.2050e-01	2.4094	-6.770377	0.000141	1.411357	0.239090	0.002822
 243	1.2100e-01	2.4162	-6.731463	0.000389	3.891924	0.659310	0.007783
 244	1.2150e-01	2.4256	-6.687418	0.000441	4.405145	0.746252	0.008809
 245	1.2200e-01	2.4363	-6.649787	0.000376	3.763619	0.637574	0.007526
 246	1.2250e-01	2.4465	-6.632254	0.000175	1.753504	0.297052	0.003507
 247	1.2300e-01	2.4575	-6.593340	0.000389	3.891924	0.659310	0.007783
 248	1.2350e-01	2.4686	-6.579656	0.000137	1.368589	0.231845	0.002737
 249	1.2400e-01	2.4768	-6.528769	0.000509	5.089440	0.862174	0.010177
 250	1.2450e-01	2.4850	-6.484296	0.000445	4.447914	0.753497	0.008895
 251	1.2500e-01	2.4973	-6.447948	0.000364	3.635314	0.615839	0.007270
 252	1.2550e-01	2.5066	-6.428705	0.000192	1.924578	0.326032	0.003849
 253	1.2600e-01	2.5154	-6.388508	0.000402	4.020230	0.681045	0.008039
 254	1.2650e-01	2.5299	-6.354298	0.000342	3.421472	0.579613	0.006842
 255	1.2700e-01	2.5352	-6.326930	0.000274	2.737178	0.463690	0.005474
 256	1.2750e-01	2.5477	-6.288443	0.000385	3.849156	0.652065	0.007697
 257	1.2800e-01	2.5555	-6.254661	0.000338	3.378704	0.572368	0.006756
 258	1.2850e-01	2.5653	-6.236701	0.000180	1.796273	0.304297	0.003592
 259	1.2900e-01	2.5751	-6.182392	0.000543	5.431587	0.920136	0.010862
