»»»»»»»»»»»»»»»»»»»»»»»»»»»»»»»»»»»» Hysteresis ««««««««««««««««««««««««««««««««««««
»»»  Executed Version:	5.48.1
»»»  Vision Version:	5.48.4 (R)
»»»  Vision Compiled:	9/18/24
»»»  Driver Version:	5.47.0
»»»  Windows Version:	Windows 8 or 8.1
»»»  Processor Information:	x86 (AMD or Intel) - 32 Processors
»»»  Tester Name:	PMF21124-494 (100V)
»»»  Tester S/N:	PMF21124-494
»»»  Internal Amp Type:	100V RevK 270k
»»»  Internal Amp S/N:	iAB2-596/K     
»»»  Execution Count:	1
»»»»»»»»»»»»»»»»»»»»»»»»»»»»»»»»»»»»»»»»»»««««««««««««««««««««««««««««««««««««««««««

Stored:	6/25/2025 - 17:35:59
Configured:	06/25/25 10:44:40 AM
Executed:	06/25/25 05:35:38 PM

»»»»»»»»»»»»»»»»»»»»»»»»»»»»»»»»»»» Sample Info ««««««««««««««««««««««««««««««««««««
Sample Name:	
Lot Name:	
Wafer Name:	
Die Row/Column:	0/0
Capacitor Number:	0
Sample Area (cm2):	1.00e-04
Sample Thickness (microns):	1.50e-01

Amplifier:	Internal

»»»»»»»»»»»»»»»»»»»»»»»»»»»»»»»»»»» Tester Info «««««««««««««««««««««««««««««««««««
Tester Name:	PMF21124-494 (100V)
Tester Serial Number:	PMF21124-494
Return Signal Amp. Level:	0.19 [Index: 3]

»»»»»»»»»»»»»»»»»»»»»»»»»»»»»»»» Hysteresis Info ««««««««««««««««««««««««««««««««««
Task Name:	Hyst-116
Volts:	10.00
Field:	666.67 (kV/cm)
DCBias:	0.00
DCField:	0.00 (kV/cm)
Hysteresis Period (ms):	1.00e+00
Preset:	Enabled
Preset Delay (ms):	1.00e+03
Profile:	Standard Monopolar

»»»»»»»»»»»»»»»»»»»»»»»»»»»»»»»»»»»»»» Data «««««««««««««««««««««««««««««««««««««««
Points:	2001

Valid Data

Point	Time (ms)	Drive Voltage	Measured Polarization (uC/cm2)	Capacitance (uF)	Normalized Capacitance (uF/cm2)	Dielectric Constant	Instantaneous Current (mA)
   1	0.0000e+00	0.0005	-27.298028	-0.000202	-2.018497	-0.341943	-0.004033
   2	5.0000e-04	0.0048	-27.318193	-0.000202	-2.018497	-0.341943	-0.004033
   3	1.0000e-03	0.0148	-27.310127	0.000081	0.807399	0.136777	0.001613
   4	1.5000e-03	0.0239	-27.277862	0.000323	3.229596	0.547108	0.006453
   5	2.0000e-03	0.0338	-27.261730	0.000161	1.614798	0.273554	0.003226
   6	2.5000e-03	0.0428	-27.253664	0.000081	0.807399	0.136777	0.001613
   7	3.0000e-03	0.0541	-27.185101	0.000686	6.862891	1.162605	0.013713
   8	3.5000e-03	0.0634	-27.164936	0.000202	2.018497	0.341943	0.004033
   9	4.0000e-03	0.0745	-27.136704	0.000283	2.825896	0.478720	0.005646
  10	4.5000e-03	0.0839	-27.076207	0.000606	6.055492	1.025828	0.012099
  11	5.0000e-03	0.0945	-27.072174	0.000040	0.403699	0.068389	0.000807
  12	5.5000e-03	0.1041	-27.023777	0.000484	4.844394	0.820663	0.009679
  13	6.0000e-03	0.1139	-26.979413	0.000444	4.440694	0.752274	0.008873
  14	6.5000e-03	0.1237	-26.943115	0.000363	3.633295	0.615497	0.007260
  15	7.0000e-03	0.1331	-26.866486	0.000767	7.670290	1.299382	0.015326
  16	7.5000e-03	0.1438	-26.793891	0.000727	7.266591	1.230994	0.014519
  17	8.0000e-03	0.1546	-26.733394	0.000606	6.055492	1.025828	0.012099
  18	8.5000e-03	0.1633	-26.684997	0.000484	4.844394	0.820663	0.009679
  19	9.0000e-03	0.1736	-26.624500	0.000606	6.055492	1.025828	0.012099
  20	9.5000e-03	0.1842	-26.523673	0.001009	10.092487	1.709714	0.020165
  21	1.0000e-02	0.1942	-26.507541	0.000161	1.614798	0.273554	0.003226
  22	1.0500e-02	0.2043	-26.451077	0.000565	5.651793	0.957440	0.011293
  23	1.1000e-02	0.2140	-26.378481	0.000727	7.266591	1.230994	0.014519
  24	1.1500e-02	0.2245	-26.285720	0.000929	9.285088	1.572936	0.018552
  25	1.2000e-02	0.2339	-26.209091	0.000767	7.670290	1.299382	0.015326
  26	1.2500e-02	0.2439	-26.188926	0.000202	2.018497	0.341943	0.004033
  27	1.3000e-02	0.2534	-26.080032	0.001090	10.899886	1.846491	0.021779
  28	1.3500e-02	0.2644	-26.059867	0.000202	2.018497	0.341943	0.004033
  29	1.4000e-02	0.2737	-25.975172	0.000848	8.477689	1.436159	0.016939
  30	1.4500e-02	0.2836	-25.910642	0.000646	6.459192	1.094217	0.012906
  31	1.5000e-02	0.2927	-25.874344	0.000363	3.633295	0.615497	0.007260
  32	1.5500e-02	0.3033	-25.797715	0.000767	7.670290	1.299382	0.015326
  33	1.6000e-02	0.3141	-25.733186	0.000646	6.459192	1.094217	0.012906
  34	1.6500e-02	0.3234	-25.656557	0.000767	7.670290	1.299382	0.015326
  35	1.7000e-02	0.3329	-25.587994	0.000686	6.862891	1.162605	0.013713
  36	1.7500e-02	0.3436	-25.507332	0.000807	8.073990	1.367771	0.016132
  37	1.8000e-02	0.3541	-25.434736	0.000727	7.266591	1.230994	0.014519
  38	1.8500e-02	0.3643	-25.430703	0.000040	0.403699	0.068389	0.000807
  39	1.9000e-02	0.3735	-25.293578	0.001373	13.725782	2.325210	0.027425
  40	1.9500e-02	0.3841	-25.269379	0.000242	2.422197	0.410331	0.004840
  41	2.0000e-02	0.3940	-25.200817	0.000686	6.862891	1.162605	0.013713
  42	2.0500e-02	0.4049	-25.124188	0.000767	7.670290	1.299382	0.015326
  43	2.1000e-02	0.4144	-25.039493	0.000848	8.477689	1.436159	0.016939
  44	2.1500e-02	0.4230	-24.974963	0.000646	6.459192	1.094217	0.012906
  45	2.2000e-02	0.4340	-24.934632	0.000404	4.036995	0.683885	0.008066
  46	2.2500e-02	0.4436	-24.837838	0.000969	9.688787	1.641325	0.019359
  47	2.3000e-02	0.4539	-24.801540	0.000363	3.633295	0.615497	0.007260
  48	2.3500e-02	0.4639	-24.761209	0.000404	4.036995	0.683885	0.008066
  49	2.4000e-02	0.4737	-24.672481	0.000888	8.881389	1.504548	0.017746
  50	2.4500e-02	0.4832	-24.620050	0.000525	5.248093	0.889051	0.010486
  51	2.5000e-02	0.4944	-24.519223	0.001009	10.092487	1.709714	0.020165
  52	2.5500e-02	0.5038	-24.482925	0.000363	3.633295	0.615497	0.007260
  53	2.6000e-02	0.5133	-24.418395	0.000646	6.459192	1.094217	0.012906
  54	2.6500e-02	0.5241	-24.345800	0.000727	7.266591	1.230994	0.014519
  55	2.7000e-02	0.5347	-24.281270	0.000646	6.459192	1.094217	0.012906
  56	2.7500e-02	0.5441	-24.168343	0.001130	11.303585	1.914879	0.022585
  57	2.8000e-02	0.5547	-24.119946	0.000484	4.844394	0.820663	0.009679
  58	2.8500e-02	0.5641	-24.099781	0.000202	2.018497	0.341943	0.004033
  59	2.9000e-02	0.5749	-24.027185	0.000727	7.266591	1.230994	0.014519
  60	2.9500e-02	0.5848	-23.930391	0.000969	9.688787	1.641325	0.019359
  61	3.0000e-02	0.5933	-23.902159	0.000283	2.825896	0.478720	0.005646
  62	3.0500e-02	0.6042	-23.825530	0.000767	7.670290	1.299382	0.015326
  63	3.1000e-02	0.6142	-23.740835	0.000848	8.477689	1.436159	0.016939
  64	3.1500e-02	0.6236	-23.668239	0.000727	7.266591	1.230994	0.014519
  65	3.2000e-02	0.6338	-23.648074	0.000202	2.018497	0.341943	0.004033
  66	3.2500e-02	0.6442	-23.519014	0.001292	12.918383	2.188433	0.025812
  67	3.3000e-02	0.6541	-23.474650	0.000444	4.440694	0.752274	0.008873
  68	3.3500e-02	0.6638	-23.393988	0.000807	8.073990	1.367771	0.016132
  69	3.4000e-02	0.6743	-23.321393	0.000727	7.266591	1.230994	0.014519
  70	3.4500e-02	0.6848	-23.264929	0.000565	5.651793	0.957440	0.011293
  71	3.5000e-02	0.6943	-23.216532	0.000484	4.844394	0.820663	0.009679
  72	3.5500e-02	0.7040	-23.103605	0.001130	11.303585	1.914879	0.022585
  73	3.6000e-02	0.7133	-23.043109	0.000606	6.055492	1.025828	0.012099
  74	3.6500e-02	0.7241	-23.014877	0.000283	2.825896	0.478720	0.005646
  75	3.7000e-02	0.7336	-22.946314	0.000686	6.862891	1.162605	0.013713
  76	3.7500e-02	0.7441	-22.914050	0.000323	3.229596	0.547108	0.006453
  77	3.8000e-02	0.7542	-22.825322	0.000888	8.881389	1.504548	0.017746
  78	3.8500e-02	0.7646	-22.655931	0.001696	16.955378	2.872319	0.033878
  79	3.9000e-02	0.7742	-22.700295	-0.000444	-4.440694	-0.752274	-0.008873
  80	3.9500e-02	0.7837	-22.639799	0.000606	6.055492	1.025828	0.012099
  81	4.0000e-02	0.7947	-22.502674	0.001373	13.725782	2.325210	0.027425
  82	4.0500e-02	0.8036	-22.502674	0.000000	0.000000	0.000000	0.000000
  83	4.1000e-02	0.8131	-22.393780	0.001090	10.899886	1.846491	0.021779
  84	4.1500e-02	0.8248	-22.357482	0.000363	3.633295	0.615497	0.007260
  85	4.2000e-02	0.8339	-22.276820	0.000807	8.073990	1.367771	0.016132
  86	4.2500e-02	0.8438	-22.192125	0.000848	8.477689	1.436159	0.016939
  87	4.3000e-02	0.8539	-22.123562	0.000686	6.862891	1.162605	0.013713
  88	4.3500e-02	0.8636	-22.067099	0.000565	5.651793	0.957440	0.011293
  89	4.4000e-02	0.8740	-22.034834	0.000323	3.229596	0.547108	0.006453
  90	4.4500e-02	0.8833	-21.921907	0.001130	11.303585	1.914879	0.022585
  91	4.5000e-02	0.8934	-21.877543	0.000444	4.440694	0.752274	0.008873
  92	4.5500e-02	0.9046	-21.813014	0.000646	6.459192	1.094217	0.012906
  93	4.6000e-02	0.9149	-21.700087	0.001130	11.303585	1.914879	0.022585
  94	4.6500e-02	0.9241	-21.647657	0.000525	5.248093	0.889051	0.010486
  95	4.7000e-02	0.9340	-21.611359	0.000363	3.633295	0.615497	0.007260
  96	4.7500e-02	0.9441	-21.518598	0.000929	9.285088	1.572936	0.018552
  97	4.8000e-02	0.9541	-21.450035	0.000686	6.862891	1.162605	0.013713
  98	4.8500e-02	0.9641	-21.369373	0.000807	8.073990	1.367771	0.016132
  99	4.9000e-02	0.9738	-21.357274	0.000121	1.211098	0.205166	0.002420
 100	4.9500e-02	0.9840	-21.308876	0.000484	4.844394	0.820663	0.009679
 101	5.0000e-02	0.9944	-21.260479	0.000484	4.844394	0.820663	0.009679
 102	5.0500e-02	1.0048	-21.119321	0.001413	14.129482	2.393599	0.028232
 103	5.1000e-02	1.0147	-21.058824	0.000606	6.055492	1.025828	0.012099
 104	5.1500e-02	1.0237	-21.018493	0.000404	4.036995	0.683885	0.008066
 105	5.2000e-02	1.0339	-20.970096	0.000484	4.844394	0.820663	0.009679
 106	5.2500e-02	1.0449	-20.885401	0.000848	8.477689	1.436159	0.016939
 107	5.3000e-02	1.0538	-20.808772	0.000767	7.670290	1.299382	0.015326
 108	5.3500e-02	1.0645	-20.752309	0.000565	5.651793	0.957440	0.011293
 109	5.4000e-02	1.0748	-20.687779	0.000646	6.459192	1.094217	0.012906
 110	5.4500e-02	1.0843	-20.647448	0.000404	4.036995	0.683885	0.008066
 111	5.5000e-02	1.0938	-20.542588	0.001050	10.496186	1.778102	0.020972
 112	5.5500e-02	1.1044	-20.494191	0.000484	4.844394	0.820663	0.009679
 113	5.6000e-02	1.1145	-20.453860	0.000404	4.036995	0.683885	0.008066
 114	5.6500e-02	1.1245	-20.357065	0.000969	9.688787	1.641325	0.019359
 115	5.7000e-02	1.1343	-20.280436	0.000767	7.670290	1.299382	0.015326
 116	5.7500e-02	1.1447	-20.219940	0.000606	6.055492	1.025828	0.012099
 117	5.8000e-02	1.1546	-20.151377	0.000686	6.862891	1.162605	0.013713
 118	5.8500e-02	1.1649	-20.094914	0.000565	5.651793	0.957440	0.011293
 119	5.9000e-02	1.1744	-20.042484	0.000525	5.248093	0.889051	0.010486
 120	5.9500e-02	1.1840	-19.953755	0.000888	8.881389	1.504548	0.017746
 121	6.0000e-02	1.1951	-19.909391	0.000444	4.440694	0.752274	0.008873
 122	6.0500e-02	1.2041	-19.848895	0.000606	6.055492	1.025828	0.012099
 123	6.1000e-02	1.2140	-19.800498	0.000484	4.844394	0.820663	0.009679
 124	6.1500e-02	1.2241	-19.723869	0.000767	7.670290	1.299382	0.015326
 125	6.2000e-02	1.2342	-19.651273	0.000727	7.266591	1.230994	0.014519
 126	6.2500e-02	1.2447	-19.534313	0.001171	11.707285	1.983268	0.023392
 127	6.3000e-02	1.2551	-19.506081	0.000283	2.825896	0.478720	0.005646
 128	6.3500e-02	1.2647	-19.433486	0.000727	7.266591	1.230994	0.014519
 129	6.4000e-02	1.2741	-19.389122	0.000444	4.440694	0.752274	0.008873
 130	6.4500e-02	1.2837	-19.296360	0.000929	9.285088	1.572936	0.018552
 131	6.5000e-02	1.2936	-19.268129	0.000283	2.825896	0.478720	0.005646
 132	6.5500e-02	1.3031	-19.203599	0.000646	6.459192	1.094217	0.012906
 133	6.6000e-02	1.3138	-19.155202	0.000484	4.844394	0.820663	0.009679
 134	6.6500e-02	1.3239	-19.090672	0.000646	6.459192	1.094217	0.012906
 135	6.7000e-02	1.3346	-18.977745	0.001130	11.303585	1.914879	0.022585
 136	6.7500e-02	1.3444	-18.901117	0.000767	7.670290	1.299382	0.015326
 137	6.8000e-02	1.3541	-18.860786	0.000404	4.036995	0.683885	0.008066
 138	6.8500e-02	1.3641	-18.804322	0.000565	5.651793	0.957440	0.011293
 139	6.9000e-02	1.3737	-18.739793	0.000646	6.459192	1.094217	0.012906
 140	6.9500e-02	1.3843	-18.647031	0.000929	9.285088	1.572936	0.018552
 141	7.0000e-02	1.3947	-18.614767	0.000323	3.229596	0.547108	0.006453
 142	7.0500e-02	1.4035	-18.558303	0.000565	5.651793	0.957440	0.011293
 143	7.1000e-02	1.4138	-18.477641	0.000807	8.073990	1.367771	0.016132
 144	7.1500e-02	1.4238	-18.421178	0.000565	5.651793	0.957440	0.011293
 145	7.2000e-02	1.4337	-18.324383	0.000969	9.688787	1.641325	0.019359
 146	7.2500e-02	1.4436	-18.263887	0.000606	6.055492	1.025828	0.012099
 147	7.3000e-02	1.4541	-18.227589	0.000363	3.633295	0.615497	0.007260
 148	7.3500e-02	1.4639	-18.171126	0.000565	5.651793	0.957440	0.011293
 149	7.4000e-02	1.4741	-18.146927	0.000242	2.422197	0.410331	0.004840
 150	7.4500e-02	1.4834	-18.013835	0.001332	13.322083	2.256822	0.026618
 151	7.5000e-02	1.4935	-17.953338	0.000606	6.055492	1.025828	0.012099
 152	7.5500e-02	1.5039	-17.884776	0.000686	6.862891	1.162605	0.013713
 153	7.6000e-02	1.5137	-17.820246	0.000646	6.459192	1.094217	0.012906
 154	7.6500e-02	1.5248	-17.787981	0.000323	3.229596	0.547108	0.006453
 155	7.7000e-02	1.5332	-17.715386	0.000727	7.266591	1.230994	0.014519
 156	7.7500e-02	1.5431	-17.691187	0.000242	2.422197	0.410331	0.004840
 157	7.8000e-02	1.5537	-17.630691	0.000606	6.055492	1.025828	0.012099
 158	7.8500e-02	1.5631	-17.517764	0.001130	11.303585	1.914879	0.022585
 159	7.9000e-02	1.5735	-17.481466	0.000363	3.633295	0.615497	0.007260
 160	7.9500e-02	1.5833	-17.352407	0.001292	12.918383	2.188433	0.025812
 161	8.0000e-02	1.5946	-17.291910	0.000606	6.055492	1.025828	0.012099
 162	8.0500e-02	1.6043	-17.251579	0.000404	4.036995	0.683885	0.008066
 163	8.1000e-02	1.6110	-17.304010	-0.000525	-5.248093	-0.889051	-0.010486
 164	8.1500e-02	1.6238	-17.174950	0.001292	12.918383	2.188433	0.025812
 165	8.2000e-02	1.6343	-17.045891	0.001292	12.918383	2.188433	0.025812
 166	8.2500e-02	1.6444	-16.965229	0.000807	8.073990	1.367771	0.016132
 167	8.3000e-02	1.6533	-16.904733	0.000606	6.055492	1.025828	0.012099
 168	8.3500e-02	1.6635	-16.941031	-0.000363	-3.633295	-0.615497	-0.007260
 169	8.4000e-02	1.6740	-16.811972	0.001292	12.918383	2.188433	0.025812
 170	8.4500e-02	1.6840	-16.723243	0.000888	8.881389	1.504548	0.017746
 171	8.5000e-02	1.6943	-16.678879	0.000444	4.440694	0.752274	0.008873
 172	8.5500e-02	1.7046	-16.662747	0.000161	1.614798	0.273554	0.003226
 173	8.6000e-02	1.7145	-16.545787	0.001171	11.707285	1.983268	0.023392
 174	8.6500e-02	1.7242	-16.461092	0.000848	8.477689	1.436159	0.016939
 175	8.7000e-02	1.7345	-16.432860	0.000283	2.825896	0.478720	0.005646
 176	8.7500e-02	1.7438	-16.340099	0.000929	9.285088	1.572936	0.018552
 177	8.8000e-02	1.7549	-16.223139	0.001171	11.707285	1.983268	0.023392
 178	8.8500e-02	1.7641	-16.211040	0.000121	1.211098	0.205166	0.002420
 179	8.9000e-02	1.7744	-16.138444	0.000727	7.266591	1.230994	0.014519
 180	8.9500e-02	1.7831	-16.033583	0.001050	10.496186	1.778102	0.020972
 181	9.0000e-02	1.7949	-16.005352	0.000283	2.825896	0.478720	0.005646
 182	9.0500e-02	1.8044	-15.948888	0.000565	5.651793	0.957440	0.011293
 183	9.1000e-02	1.8142	-15.916624	0.000323	3.229596	0.547108	0.006453
 184	9.1500e-02	1.8243	-15.848061	0.000686	6.862891	1.162605	0.013713
 185	9.2000e-02	1.8351	-15.791598	0.000565	5.651793	0.957440	0.011293
 186	9.2500e-02	1.8446	-15.719002	0.000727	7.266591	1.230994	0.014519
 187	9.3000e-02	1.8549	-15.682704	0.000363	3.633295	0.615497	0.007260
 188	9.3500e-02	1.8628	-15.569777	0.001130	11.303585	1.914879	0.022585
 189	9.4000e-02	1.8732	-15.525413	0.000444	4.440694	0.752274	0.008873
 190	9.4500e-02	1.8836	-15.432652	0.000929	9.285088	1.572936	0.018552
 191	9.5000e-02	1.8943	-15.392321	0.000404	4.036995	0.683885	0.008066
 192	9.5500e-02	1.9031	-15.311659	0.000807	8.073990	1.367771	0.016132
 193	9.6000e-02	1.9138	-15.275361	0.000363	3.633295	0.615497	0.007260
 194	9.6500e-02	1.9234	-15.194699	0.000807	8.073990	1.367771	0.016132
 195	9.7000e-02	1.9333	-15.130169	0.000646	6.459192	1.094217	0.012906
 196	9.7500e-02	1.9435	-15.061607	0.000686	6.862891	1.162605	0.013713
 197	9.8000e-02	1.9534	-15.017243	0.000444	4.440694	0.752274	0.008873
 198	9.8500e-02	1.9644	-14.920448	0.000969	9.688787	1.641325	0.019359
 199	9.9000e-02	1.9753	-14.863985	0.000565	5.651793	0.957440	0.011293
 200	9.9500e-02	1.9837	-14.815588	0.000484	4.844394	0.820663	0.009679
 201	1.0000e-01	1.9940	-14.759124	0.000565	5.651793	0.957440	0.011293
 202	1.0050e-01	2.0044	-14.698628	0.000606	6.055492	1.025828	0.012099
 203	1.0100e-01	2.0143	-14.621999	0.000767	7.670290	1.299382	0.015326
 204	1.0150e-01	2.0241	-14.553436	0.000686	6.862891	1.162605	0.013713
 205	1.0200e-01	2.0339	-14.472774	0.000807	8.073990	1.367771	0.016132
 206	1.0250e-01	2.0441	-14.432443	0.000404	4.036995	0.683885	0.008066
 207	1.0300e-01	2.0535	-14.408245	0.000242	2.422197	0.410331	0.004840
 208	1.0350e-01	2.0647	-14.335649	0.000727	7.266591	1.230994	0.014519
 209	1.0400e-01	2.0749	-14.254987	0.000807	8.073990	1.367771	0.016132
 210	1.0450e-01	2.0846	-14.182391	0.000727	7.266591	1.230994	0.014519
 211	1.0500e-01	2.0935	-14.158193	0.000242	2.422197	0.410331	0.004840
 212	1.0550e-01	2.1033	-14.105762	0.000525	5.248093	0.889051	0.010486
 213	1.0600e-01	2.1147	-14.004935	0.001009	10.092487	1.709714	0.020165
 214	1.0650e-01	2.1246	-13.944438	0.000606	6.055492	1.025828	0.012099
 215	1.0700e-01	2.1345	-13.871843	0.000727	7.266591	1.230994	0.014519
 216	1.0750e-01	2.1437	-13.835545	0.000363	3.633295	0.615497	0.007260
 217	1.0800e-01	2.1543	-13.771015	0.000646	6.459192	1.094217	0.012906
 218	1.0850e-01	2.1638	-13.666155	0.001050	10.496186	1.778102	0.020972
 219	1.0900e-01	2.1747	-13.617757	0.000484	4.844394	0.820663	0.009679
 220	1.0950e-01	2.1844	-13.569360	0.000484	4.844394	0.820663	0.009679
 221	1.1000e-01	2.1936	-13.512897	0.000565	5.651793	0.957440	0.011293
 222	1.1050e-01	2.2037	-13.440301	0.000727	7.266591	1.230994	0.014519
 223	1.1100e-01	2.2150	-13.351573	0.000888	8.881389	1.504548	0.017746
 224	1.1150e-01	2.2241	-13.327374	0.000242	2.422197	0.410331	0.004840
 225	1.1200e-01	2.2340	-13.250745	0.000767	7.670290	1.299382	0.015326
 226	1.1250e-01	2.2444	-13.137819	0.001130	11.303585	1.914879	0.022585
 227	1.1300e-01	2.2543	-13.121686	0.000161	1.614798	0.273554	0.003226
 228	1.1350e-01	2.2632	-12.992627	0.001292	12.918383	2.188433	0.025812
 229	1.1400e-01	2.2739	-12.984561	0.000081	0.807399	0.136777	0.001613
 230	1.1450e-01	2.2842	-12.924064	0.000606	6.055492	1.025828	0.012099
 231	1.1500e-01	2.2948	-12.839369	0.000848	8.477689	1.436159	0.016939
 232	1.1550e-01	2.3044	-12.795005	0.000444	4.440694	0.752274	0.008873
 233	1.1600e-01	2.3145	-12.750641	0.000444	4.440694	0.752274	0.008873
 234	1.1650e-01	2.3242	-12.690145	0.000606	6.055492	1.025828	0.012099
 235	1.1700e-01	2.3334	-12.601417	0.000888	8.881389	1.504548	0.017746
 236	1.1750e-01	2.3443	-12.532854	0.000686	6.862891	1.162605	0.013713
 237	1.1800e-01	2.3541	-12.464291	0.000686	6.862891	1.162605	0.013713
 238	1.1850e-01	2.3642	-12.403795	0.000606	6.055492	1.025828	0.012099
 239	1.1900e-01	2.3738	-12.323133	0.000807	8.073990	1.367771	0.016132
 240	1.1950e-01	2.3840	-12.254570	0.000686	6.862891	1.162605	0.013713
 241	1.2000e-01	2.3938	-12.242471	0.000121	1.211098	0.205166	0.002420
 242	1.2050e-01	2.4044	-12.177941	0.000646	6.459192	1.094217	0.012906
 243	1.2100e-01	2.4142	-12.121478	0.000565	5.651793	0.957440	0.011293
 244	1.2150e-01	2.4245	-12.069048	0.000525	5.248093	0.889051	0.010486
 245	1.2200e-01	2.4341	-12.004518	0.000646	6.459192	1.094217	0.012906
 246	1.2250e-01	2.4443	-11.935955	0.000686	6.862891	1.162605	0.013713
 247	1.2300e-01	2.4545	-11.895624	0.000404	4.036995	0.683885	0.008066
 248	1.2350e-01	2.4689	-11.726234	0.001696	16.955378	2.872319	0.033878
 249	1.2400e-01	2.4756	-11.693969	0.000323	3.229596	0.547108	0.006453
 250	1.2450e-01	2.4843	-11.669771	0.000242	2.422197	0.410331	0.004840
 251	1.2500e-01	2.4944	-11.568943	0.001009	10.092487	1.709714	0.020165
 252	1.2550e-01	2.5034	-11.577010	-0.000081	-0.807399	-0.136777	-0.001613
 253	1.2600e-01	2.5142	-11.464083	0.001130	11.303585	1.914879	0.022585
 254	1.2650e-01	2.5249	-11.435851	0.000283	2.825896	0.478720	0.005646
 255	1.2700e-01	2.5345	-11.335024	0.001009	10.092487	1.709714	0.020165
 256	1.2750e-01	2.5433	-11.326957	0.000081	0.807399	0.136777	0.001613
