»»»»»»»»»»»»»»»»»»»»»»»»»»»»»»»»»»»» Hysteresis ««««««««««««««««««««««««««««««««««««
»»»  Executed Version:	5.48.1
»»»  Vision Version:	5.48.4 (R)
»»»  Vision Compiled:	9/18/24
»»»  Driver Version:	5.47.0
»»»  Windows Version:	Windows 8 or 8.1
»»»  Processor Information:	x86 (AMD or Intel) - 32 Processors
»»»  Tester Name:	PMF21124-494 (100V)
»»»  Tester S/N:	PMF21124-494
»»»  Internal Amp Type:	100V RevK 270k
»»»  Internal Amp S/N:	iAB2-596/K     
»»»  Execution Count:	1
»»»»»»»»»»»»»»»»»»»»»»»»»»»»»»»»»»»»»»»»»»««««««««««««««««««««««««««««««««««««««««««

Stored:	6/18/2025 - 10:16:24
Configured:	06/18/25 09:47:30 AM
Executed:	06/18/25 10:15:45 AM

»»»»»»»»»»»»»»»»»»»»»»»»»»»»»»»»»»» Sample Info ««««««««««««««««««««««««««««««««««««
Sample Name:	
Lot Name:	
Wafer Name:	
Die Row/Column:	0/0
Capacitor Number:	0
Sample Area (cm2):	1.00e-04
Sample Thickness (microns):	3.00e-01

Amplifier:	Internal

»»»»»»»»»»»»»»»»»»»»»»»»»»»»»»»»»»» Tester Info «««««««««««««««««««««««««««««««««««
Tester Name:	PMF21124-494 (100V)
Tester Serial Number:	PMF21124-494
Return Signal Amp. Level:	0.19 [Index: 3]

»»»»»»»»»»»»»»»»»»»»»»»»»»»»»»»» Hysteresis Info ««««««««««««««««««««««««««««««««««
Task Name:	Hyst-554
Volts:	20.00
Field:	666.67 (kV/cm)
DCBias:	0.00
DCField:	0.00 (kV/cm)
Hysteresis Period (ms):	2.00e+02
Preset:	Enabled
Preset Delay (ms):	1.00e+03
Profile:	Standard Bipolar

»»»»»»»»»»»»»»»»»»»»»»»»»»»»»»»»»»»»»» Data «««««««««««««««««««««««««««««««««««««««
Points:	2009

Valid Data

Point	Time (ms)	Drive Voltage	Measured Polarization (uC/cm2)	Capacitance (uF)	Normalized Capacitance (uF/cm2)	Dielectric Constant	Instantaneous Current (mA)
   1	0.0000e+00	-0.0064	-3.780778	0.000233	2.330829	0.789706	0.000093
   2	9.9500e-02	0.0257	-3.687923	0.000233	2.330829	0.789706	0.000093
   3	1.9900e-01	0.0706	-3.550661	0.000345	3.445573	1.167392	0.000138
   4	2.9850e-01	0.1075	-3.449732	0.000253	2.533510	0.858376	0.000101
   5	3.9800e-01	0.1492	-3.264024	0.000466	4.661658	1.579412	0.000187
   6	4.9750e-01	0.1765	-3.130799	0.000334	3.344233	1.133057	0.000134
   7	5.9700e-01	0.2246	-2.985462	0.000365	3.648254	1.236062	0.000146
   8	6.9650e-01	0.2711	-2.856274	0.000324	3.242892	1.098722	0.000130
   9	7.9600e-01	0.3048	-2.706900	0.000375	3.749594	1.270397	0.000150
  10	8.9550e-01	0.3449	-2.569637	0.000345	3.445573	1.167392	0.000138
  11	9.9500e-01	0.3850	-2.408151	0.000405	4.053615	1.373402	0.000162
  12	1.0945e+00	0.4251	-2.339520	0.000172	1.722787	0.583696	0.000069
  13	1.1940e+00	0.4572	-2.153812	0.000466	4.661658	1.579412	0.000187
  14	1.2935e+00	0.5021	-2.032698	0.000304	3.040212	1.030052	0.000122
  15	1.3930e+00	0.5390	-1.899472	0.000334	3.344233	1.133057	0.000134
  16	1.4925e+00	0.5759	-1.697616	0.000507	5.067019	1.716753	0.000203
  17	1.5920e+00	0.6176	-1.661281	0.000091	0.912063	0.309015	0.000037
  18	1.6915e+00	0.6609	-1.475573	0.000466	4.661658	1.579412	0.000187
  19	1.7910e+00	0.7043	-1.354459	0.000304	3.040212	1.030052	0.000122
  20	1.8905e+00	0.7396	-1.197011	0.000395	3.952275	1.339067	0.000158
  21	1.9900e+00	0.7829	-1.019377	0.000446	4.458977	1.510742	0.000179
  22	2.0895e+00	0.8150	-0.882114	0.000345	3.445573	1.167392	0.000138
  23	2.1890e+00	0.8663	-0.773111	0.000274	2.736190	0.927046	0.000110
  24	2.2885e+00	0.9064	-0.631812	0.000355	3.546914	1.201727	0.000142
  25	2.3880e+00	0.9385	-0.502623	0.000324	3.242892	1.098722	0.000130
  26	2.4875e+00	0.9802	-0.329027	0.000436	4.357637	1.476407	0.000174
  27	2.5870e+00	1.0219	-0.211950	0.000294	2.938871	0.995717	0.000118
  28	2.6865e+00	1.0684	-0.046427	0.000415	4.154956	1.407737	0.000166
  29	2.7860e+00	1.1021	0.058538	0.000263	2.634850	0.892711	0.000105
  30	2.8855e+00	1.1518	0.211950	0.000385	3.850935	1.304732	0.000154
  31	2.9850e+00	1.1871	0.361324	0.000375	3.749594	1.270397	0.000150
  32	3.0845e+00	1.2176	0.518772	0.000395	3.952275	1.339067	0.000158
  33	3.1840e+00	1.2625	0.668146	0.000375	3.749594	1.270397	0.000150
  34	3.2835e+00	1.2978	0.817520	0.000375	3.749594	1.270397	0.000150
  35	3.3830e+00	1.3411	0.914411	0.000243	2.432169	0.824041	0.000097
  36	3.4825e+00	1.3828	1.067822	0.000385	3.850935	1.304732	0.000154
  37	3.5820e+00	1.4149	1.229308	0.000405	4.053615	1.373402	0.000162
  38	3.6815e+00	1.4663	1.354459	0.000314	3.141552	1.064387	0.000126
  39	3.7810e+00	1.5016	1.479610	0.000314	3.141552	1.064387	0.000126
  40	3.8805e+00	1.5417	1.641096	0.000405	4.053615	1.373402	0.000162
  41	3.9800e+00	1.5850	1.754135	0.000284	2.837531	0.961381	0.000114
  42	4.0795e+00	1.6219	1.915621	0.000405	4.053615	1.373402	0.000162
  43	4.1790e+00	1.6636	2.044809	0.000324	3.242892	1.098722	0.000130
  44	4.2785e+00	1.7037	2.161886	0.000294	2.938871	0.995717	0.000118
  45	4.3780e+00	1.7454	2.355669	0.000486	4.864339	1.648083	0.000195
  46	4.4775e+00	1.7759	2.533303	0.000446	4.458977	1.510742	0.000179
  47	4.5770e+00	1.8224	2.646342	0.000284	2.837531	0.961381	0.000114
  48	4.6765e+00	1.8545	2.755345	0.000274	2.736190	0.927046	0.000110
  49	4.7760e+00	1.9058	2.941053	0.000466	4.661658	1.579412	0.000187
  50	4.8755e+00	1.9395	3.066205	0.000314	3.141552	1.064387	0.000126
  51	4.9750e+00	1.9668	3.191356	0.000314	3.141552	1.064387	0.000126
  52	5.0745e+00	2.0165	3.320544	0.000324	3.242892	1.098722	0.000130
  53	5.1740e+00	2.0598	3.461844	0.000355	3.546914	1.201727	0.000142
  54	5.2735e+00	2.0951	3.619292	0.000395	3.952275	1.339067	0.000158
  55	5.3730e+00	2.1465	3.752518	0.000334	3.344233	1.133057	0.000134
  56	5.4725e+00	2.1882	3.877669	0.000314	3.141552	1.064387	0.000126
  57	5.5720e+00	2.2106	4.055303	0.000446	4.458977	1.510742	0.000179
  58	5.6715e+00	2.2507	4.208714	0.000385	3.850935	1.304732	0.000154
  59	5.7710e+00	2.2941	4.358088	0.000375	3.749594	1.270397	0.000150
  60	5.8705e+00	2.3390	4.479202	0.000304	3.040212	1.030052	0.000122
  61	5.9700e+00	2.3727	4.628576	0.000375	3.749594	1.270397	0.000150
  62	6.0695e+00	2.4176	4.753727	0.000314	3.141552	1.064387	0.000126
  63	6.1690e+00	2.4593	4.915213	0.000405	4.053615	1.373402	0.000162
  64	6.2685e+00	2.4962	5.024215	0.000274	2.736190	0.927046	0.000110
  65	6.3680e+00	2.5347	5.205887	0.000456	4.560317	1.545077	0.000183
  66	6.4675e+00	2.5828	5.335075	0.000324	3.242892	1.098722	0.000130
  67	6.5670e+00	2.6213	5.468300	0.000334	3.344233	1.133057	0.000134
  68	6.6665e+00	2.6566	5.633823	0.000415	4.154956	1.407737	0.000166
  69	6.7660e+00	2.6983	5.763011	0.000324	3.242892	1.098722	0.000130
  70	6.8655e+00	2.7481	5.932571	0.000426	4.256296	1.442072	0.000170
  71	6.9650e+00	2.7801	6.037536	0.000263	2.634850	0.892711	0.000105
  72	7.0645e+00	2.8138	6.194985	0.000395	3.952275	1.339067	0.000158
  73	7.1640e+00	2.8523	6.320136	0.000314	3.141552	1.064387	0.000126
  74	7.2635e+00	2.8956	6.473547	0.000385	3.850935	1.304732	0.000154
  75	7.3630e+00	2.9406	6.618884	0.000365	3.648254	1.236062	0.000146
  76	7.4625e+00	2.9807	6.748072	0.000324	3.242892	1.098722	0.000130
  77	7.5620e+00	3.0192	6.901484	0.000385	3.850935	1.304732	0.000154
  78	7.6615e+00	3.0609	7.034709	0.000334	3.344233	1.133057	0.000134
  79	7.7610e+00	3.0962	7.167935	0.000334	3.344233	1.133057	0.000134
  80	7.8605e+00	3.1379	7.345568	0.000446	4.458977	1.510742	0.000179
  81	7.9600e+00	3.1796	7.511091	0.000415	4.154956	1.407737	0.000166
  82	8.0595e+00	3.2149	7.595871	0.000213	2.128148	0.721036	0.000085
  83	8.1590e+00	3.2678	7.757356	0.000405	4.053615	1.373402	0.000162
  84	8.2585e+00	3.2983	7.902693	0.000365	3.648254	1.236062	0.000146
  85	8.3580e+00	3.3272	8.015733	0.000284	2.837531	0.961381	0.000114
  86	8.4575e+00	3.3689	8.152996	0.000345	3.445573	1.167392	0.000138
  87	8.5570e+00	3.4170	8.338704	0.000466	4.661658	1.579412	0.000187
  88	8.6565e+00	3.4443	8.455781	0.000294	2.938871	0.995717	0.000118
  89	8.7560e+00	3.4940	8.593043	0.000345	3.445573	1.167392	0.000138
  90	8.8555e+00	3.5325	8.738380	0.000365	3.648254	1.236062	0.000146
  91	8.9550e+00	3.5726	8.883717	0.000365	3.648254	1.236062	0.000146
  92	9.0545e+00	3.6159	9.045203	0.000405	4.053615	1.373402	0.000162
  93	9.1540e+00	3.6609	9.198614	0.000385	3.850935	1.304732	0.000154
  94	9.2535e+00	3.6913	9.364136	0.000415	4.154956	1.407737	0.000166
  95	9.3530e+00	3.7298	9.485250	0.000304	3.040212	1.030052	0.000122
  96	9.4525e+00	3.7732	9.610402	0.000314	3.141552	1.064387	0.000126
  97	9.5520e+00	3.8133	9.759776	0.000375	3.749594	1.270397	0.000150
  98	9.6515e+00	3.8502	9.893001	0.000334	3.344233	1.133057	0.000134
  99	9.7510e+00	3.8838	10.046412	0.000385	3.850935	1.304732	0.000154
 100	9.8505e+00	3.9256	10.183675	0.000345	3.445573	1.167392	0.000138
 101	9.9500e+00	3.9737	10.312863	0.000324	3.242892	1.098722	0.000130
 102	1.0050e+01	4.0090	10.486460	0.000436	4.357637	1.476407	0.000174
 103	1.0149e+01	4.0539	10.619686	0.000334	3.344233	1.133057	0.000134
 104	1.0248e+01	4.0988	10.785208	0.000415	4.154956	1.407737	0.000166
 105	1.0348e+01	4.1277	10.902285	0.000294	2.938871	0.995717	0.000118
 106	1.0447e+01	4.1742	11.035511	0.000334	3.344233	1.133057	0.000134
 107	1.0547e+01	4.2143	11.213145	0.000446	4.458977	1.510742	0.000179
 108	1.0646e+01	4.2544	11.346370	0.000334	3.344233	1.133057	0.000134
 109	1.0746e+01	4.2961	11.495744	0.000375	3.749594	1.270397	0.000150
 110	1.0845e+01	4.3298	11.604747	0.000274	2.736190	0.927046	0.000110
 111	1.0945e+01	4.3699	11.778344	0.000436	4.357637	1.476407	0.000174
 112	1.1044e+01	4.4132	11.923680	0.000365	3.648254	1.236062	0.000146
 113	1.1144e+01	4.4437	12.052869	0.000324	3.242892	1.098722	0.000130
 114	1.1243e+01	4.4999	12.218391	0.000415	4.154956	1.407737	0.000166
 115	1.1343e+01	4.5320	12.351617	0.000334	3.344233	1.133057	0.000134
 116	1.1443e+01	4.5689	12.553474	0.000507	5.067019	1.716753	0.000203
 117	1.1542e+01	4.6154	12.646328	0.000233	2.330829	0.789706	0.000093
 118	1.1642e+01	4.6523	12.779553	0.000334	3.344233	1.133057	0.000134
 119	1.1741e+01	4.6860	12.928927	0.000375	3.749594	1.270397	0.000150
 120	1.1841e+01	4.7277	13.090413	0.000405	4.053615	1.373402	0.000162
 121	1.1940e+01	4.7614	13.239787	0.000375	3.749594	1.270397	0.000150
 122	1.2040e+01	4.8063	13.385124	0.000365	3.648254	1.236062	0.000146
 123	1.2139e+01	4.8448	13.526423	0.000355	3.546914	1.201727	0.000142
 124	1.2239e+01	4.8881	13.695983	0.000426	4.256296	1.442072	0.000170
 125	1.2338e+01	4.9282	13.853431	0.000395	3.952275	1.339067	0.000158
 126	1.2438e+01	4.9731	13.986657	0.000334	3.344233	1.133057	0.000134
 127	1.2537e+01	5.0052	14.083548	0.000243	2.432169	0.824041	0.000097
 128	1.2636e+01	5.0469	14.277331	0.000486	4.864339	1.648083	0.000195
 129	1.2736e+01	5.0918	14.422667	0.000365	3.648254	1.236062	0.000146
 130	1.2835e+01	5.1255	14.588190	0.000415	4.154956	1.407737	0.000166
 131	1.2935e+01	5.1720	14.717378	0.000324	3.242892	1.098722	0.000130
 132	1.3034e+01	5.2138	14.874827	0.000395	3.952275	1.339067	0.000158
 133	1.3134e+01	5.2474	15.032275	0.000395	3.952275	1.339067	0.000158
 134	1.3233e+01	5.2811	15.197797	0.000415	4.154956	1.407737	0.000166
 135	1.3333e+01	5.3277	15.347172	0.000375	3.749594	1.270397	0.000150
 136	1.3432e+01	5.3581	15.452137	0.000263	2.634850	0.892711	0.000105
 137	1.3532e+01	5.4079	15.613622	0.000405	4.053615	1.373402	0.000162
 138	1.3632e+01	5.4480	15.742811	0.000324	3.242892	1.098722	0.000130
 139	1.3731e+01	5.4897	15.892185	0.000375	3.749594	1.270397	0.000150
 140	1.3831e+01	5.5218	16.053670	0.000405	4.053615	1.373402	0.000162
 141	1.3930e+01	5.5731	16.211119	0.000395	3.952275	1.339067	0.000158
 142	1.4030e+01	5.6100	16.396827	0.000466	4.661658	1.579412	0.000187
 143	1.4129e+01	5.6549	16.550238	0.000385	3.850935	1.304732	0.000154
 144	1.4229e+01	5.6726	16.671352	0.000304	3.040212	1.030052	0.000122
 145	1.4328e+01	5.7319	16.788429	0.000294	2.938871	0.995717	0.000118
 146	1.4428e+01	5.7688	16.962026	0.000436	4.357637	1.476407	0.000174
 147	1.4527e+01	5.8089	17.083140	0.000304	3.040212	1.030052	0.000122
 148	1.4627e+01	5.8362	17.260774	0.000446	4.458977	1.510742	0.000179
 149	1.4726e+01	5.8859	17.398036	0.000345	3.445573	1.167392	0.000138
 150	1.4825e+01	5.9180	17.551448	0.000385	3.850935	1.304732	0.000154
 151	1.4925e+01	5.9629	17.684673	0.000334	3.344233	1.133057	0.000134
 152	1.5024e+01	6.0143	17.838084	0.000385	3.850935	1.304732	0.000154
 153	1.5124e+01	6.0512	17.995533	0.000395	3.952275	1.339067	0.000158
 154	1.5223e+01	6.0881	18.152981	0.000395	3.952275	1.339067	0.000158
 155	1.5323e+01	6.1250	18.278132	0.000314	3.141552	1.064387	0.000126
 156	1.5422e+01	6.1683	18.459803	0.000456	4.560317	1.545077	0.000183
 157	1.5522e+01	6.2068	18.617251	0.000395	3.952275	1.339067	0.000158
 158	1.5621e+01	6.2469	18.766625	0.000375	3.749594	1.270397	0.000150
 159	1.5721e+01	6.2870	18.895814	0.000324	3.242892	1.098722	0.000130
 160	1.5820e+01	6.3335	19.029039	0.000334	3.344233	1.133057	0.000134
 161	1.5920e+01	6.3640	19.202636	0.000436	4.357637	1.476407	0.000174
 162	1.6020e+01	6.4057	19.364122	0.000405	4.053615	1.373402	0.000162
 163	1.6119e+01	6.4458	19.525607	0.000405	4.053615	1.373402	0.000162
 164	1.6218e+01	6.4843	19.662870	0.000345	3.445573	1.167392	0.000138
 165	1.6318e+01	6.5164	19.812244	0.000375	3.749594	1.270397	0.000150
 166	1.6418e+01	6.5501	19.957581	0.000365	3.648254	1.236062	0.000146
 167	1.6517e+01	6.5966	20.123103	0.000415	4.154956	1.407737	0.000166
 168	1.6616e+01	6.6383	20.268440	0.000365	3.648254	1.236062	0.000146
 169	1.6716e+01	6.6800	20.409740	0.000355	3.546914	1.201727	0.000142
 170	1.6816e+01	6.7185	20.575262	0.000415	4.154956	1.407737	0.000166
 171	1.6915e+01	6.7634	20.680228	0.000263	2.634850	0.892711	0.000105
 172	1.7015e+01	6.7939	20.849788	0.000426	4.256296	1.442072	0.000170
 173	1.7114e+01	6.8308	20.974939	0.000314	3.141552	1.064387	0.000126
 174	1.7213e+01	6.8806	21.156610	0.000456	4.560317	1.545077	0.000183
 175	1.7313e+01	6.9158	21.322132	0.000415	4.154956	1.407737	0.000166
 176	1.7413e+01	6.9560	21.439209	0.000294	2.938871	0.995717	0.000118
 177	1.7512e+01	6.9945	21.616843	0.000446	4.458977	1.510742	0.000179
 178	1.7611e+01	7.0426	21.705660	0.000223	2.229489	0.755371	0.000089
 179	1.7711e+01	7.0715	21.939814	0.000588	5.877742	1.991433	0.000235
 180	1.7811e+01	7.1196	22.048817	0.000274	2.736190	0.927046	0.000110
 181	1.7910e+01	7.1677	22.161857	0.000284	2.837531	0.961381	0.000114
 182	1.8009e+01	7.1982	22.375825	0.000537	5.371041	1.819758	0.000215
 183	1.8109e+01	7.2351	22.464642	0.000223	2.229489	0.755371	0.000089
 184	1.8209e+01	7.2800	22.638239	0.000436	4.357637	1.476407	0.000174
 185	1.8308e+01	7.3185	22.771464	0.000334	3.344233	1.133057	0.000134
 186	1.8407e+01	7.3554	22.908727	0.000345	3.445573	1.167392	0.000138
 187	1.8507e+01	7.4035	23.094435	0.000466	4.661658	1.579412	0.000187
 188	1.8607e+01	7.4388	23.231698	0.000345	3.445573	1.167392	0.000138
 189	1.8706e+01	7.4837	23.381072	0.000375	3.749594	1.270397	0.000150
 190	1.8805e+01	7.5142	23.534483	0.000385	3.850935	1.304732	0.000154
 191	1.8905e+01	7.5607	23.655597	0.000304	3.040212	1.030052	0.000122
 192	1.9005e+01	7.5912	23.825157	0.000426	4.256296	1.442072	0.000170
 193	1.9104e+01	7.6329	23.982605	0.000395	3.952275	1.339067	0.000158
 194	1.9203e+01	7.6875	24.111793	0.000324	3.242892	1.098722	0.000130
 195	1.9303e+01	7.7212	24.289427	0.000446	4.458977	1.510742	0.000179
 196	1.9402e+01	7.7613	24.434764	0.000365	3.648254	1.236062	0.000146
 197	1.9502e+01	7.7966	24.596249	0.000405	4.053615	1.373402	0.000162
 198	1.9602e+01	7.8335	24.737549	0.000355	3.546914	1.201727	0.000142
 199	1.9701e+01	7.8784	24.866738	0.000324	3.242892	1.098722	0.000130
 200	1.9800e+01	7.9153	25.036297	0.000426	4.256296	1.442072	0.000170
 201	1.9900e+01	7.9602	25.153374	0.000294	2.938871	0.995717	0.000118
 202	2.0000e+01	7.9907	25.326971	0.000436	4.357637	1.476407	0.000174
 203	2.0099e+01	8.0372	25.452122	0.000314	3.141552	1.064387	0.000126
 204	2.0198e+01	8.0789	25.585348	0.000334	3.344233	1.133057	0.000134
 205	2.0298e+01	8.1110	25.758945	0.000436	4.357637	1.476407	0.000174
 206	2.0398e+01	8.1527	25.892170	0.000334	3.344233	1.133057	0.000134
 207	2.0497e+01	8.1912	26.053655	0.000405	4.053615	1.373402	0.000162
 208	2.0596e+01	8.2361	26.158621	0.000263	2.634850	0.892711	0.000105
 209	2.0696e+01	8.2762	26.316069	0.000395	3.952275	1.339067	0.000158
 210	2.0796e+01	8.3228	26.505815	0.000476	4.762998	1.613747	0.000191
 211	2.0895e+01	8.3532	26.643077	0.000345	3.445573	1.167392	0.000138
 212	2.0994e+01	8.3933	26.752080	0.000274	2.736190	0.927046	0.000110
 213	2.1094e+01	8.4367	26.881268	0.000324	3.242892	1.098722	0.000130
 214	2.1194e+01	8.4720	27.042754	0.000405	4.053615	1.373402	0.000162
 215	2.1293e+01	8.5072	27.192128	0.000375	3.749594	1.270397	0.000150
 216	2.1392e+01	8.5538	27.373799	0.000456	4.560317	1.545077	0.000183
 217	2.1492e+01	8.5891	27.482802	0.000274	2.736190	0.927046	0.000110
 218	2.1591e+01	8.6308	27.640250	0.000395	3.952275	1.339067	0.000158
 219	2.1691e+01	8.6741	27.789624	0.000375	3.749594	1.270397	0.000150
 220	2.1791e+01	8.7126	27.910738	0.000304	3.040212	1.030052	0.000122
 221	2.1890e+01	8.7463	28.080298	0.000426	4.256296	1.442072	0.000170
 222	2.1989e+01	8.7896	28.217560	0.000345	3.445573	1.167392	0.000138
 223	2.2089e+01	8.8329	28.362897	0.000365	3.648254	1.236062	0.000146
 224	2.2189e+01	8.8666	28.524383	0.000405	4.053615	1.373402	0.000162
 225	2.2288e+01	8.9195	28.697979	0.000436	4.357637	1.476407	0.000174
 226	2.2387e+01	8.9516	28.802945	0.000263	2.634850	0.892711	0.000105
 227	2.2487e+01	8.9869	28.960393	0.000395	3.952275	1.339067	0.000158
 228	2.2587e+01	9.0382	29.077470	0.000294	2.938871	0.995717	0.000118
 229	2.2686e+01	9.0671	29.234918	0.000395	3.952275	1.339067	0.000158
 230	2.2785e+01	9.1169	29.420627	0.000466	4.661658	1.579412	0.000187
 231	2.2885e+01	9.1538	29.537704	0.000294	2.938871	0.995717	0.000118
 232	2.2985e+01	9.1955	29.683041	0.000365	3.648254	1.236062	0.000146
 233	2.3084e+01	9.2292	29.812229	0.000324	3.242892	1.098722	0.000130
 234	2.3183e+01	9.2789	29.961603	0.000375	3.749594	1.270397	0.000150
 235	2.3283e+01	9.3142	30.082717	0.000304	3.040212	1.030052	0.000122
 236	2.3383e+01	9.3527	30.215942	0.000334	3.344233	1.133057	0.000134
 237	2.3482e+01	9.3960	30.381465	0.000415	4.154956	1.407737	0.000166
 238	2.3581e+01	9.4377	30.534876	0.000385	3.850935	1.304732	0.000154
 239	2.3681e+01	9.4762	30.676176	0.000355	3.546914	1.201727	0.000142
 240	2.3780e+01	9.5099	30.809401	0.000334	3.344233	1.133057	0.000134
 241	2.3880e+01	9.5468	30.958775	0.000375	3.749594	1.270397	0.000150
 242	2.3980e+01	9.5997	31.063741	0.000263	2.634850	0.892711	0.000105
 243	2.4079e+01	9.6302	31.192929	0.000324	3.242892	1.098722	0.000130
 244	2.4178e+01	9.6639	31.358452	0.000415	4.154956	1.407737	0.000166
 245	2.4278e+01	9.7072	31.495714	0.000345	3.445573	1.167392	0.000138
 246	2.4378e+01	9.7441	31.612791	0.000294	2.938871	0.995717	0.000118
 247	2.4477e+01	9.7922	31.786388	0.000436	4.357637	1.476407	0.000174
 248	2.4576e+01	9.8211	31.919614	0.000334	3.344233	1.133057	0.000134
 249	2.4676e+01	9.8644	32.052839	0.000334	3.344233	1.133057	0.000134
 250	2.4776e+01	9.9110	32.218362	0.000415	4.154956	1.407737	0.000166
 251	2.4875e+01	9.9462	32.359662	0.000355	3.546914	1.201727	0.000142
 252	2.4974e+01	9.9944	32.529221	0.000426	4.256296	1.442072	0.000170
 253	2.5074e+01	10.0232	32.658410	0.000324	3.242892	1.098722	0.000130
 254	2.5174e+01	10.0698	32.743189	0.000213	2.128148	0.721036	0.000085
 255	2.5273e+01	10.1051	32.908712	0.000415	4.154956	1.407737	0.000166
 256	2.5372e+01	10.1436	33.037900	0.000324	3.242892	1.098722	0.000130
 257	2.5472e+01	10.1853	33.199386	0.000405	4.053615	1.373402	0.000162
 258	2.5572e+01	10.2206	33.324537	0.000314	3.141552	1.064387	0.000126
 259	2.5671e+01	10.2623	33.473911	0.000375	3.749594	1.270397	0.000150
 260	2.5770e+01	10.3040	33.675768	0.000507	5.067019	1.716753	0.000203
 261	2.5870e+01	10.3473	33.768622	0.000233	2.330829	0.789706	0.000093
 262	2.5970e+01	10.3858	33.909922	0.000355	3.546914	1.201727	0.000142
