»»»»»»»»»»»»»»»»»»»»»»»»»»»»»»»»»»»» Hysteresis ««««««««««««««««««««««««««««««««««««
»»»  Executed Version:	5.48.1
»»»  Vision Version:	5.48.4 (R)
»»»  Vision Compiled:	9/18/24
»»»  Driver Version:	5.47.0
»»»  Windows Version:	Windows 8 or 8.1
»»»  Processor Information:	x86 (AMD or Intel) - 32 Processors
»»»  Tester Name:	PMF21124-494 (100V)
»»»  Tester S/N:	PMF21124-494
»»»  Internal Amp Type:	100V RevK 270k
»»»  Internal Amp S/N:	iAB2-596/K     
»»»  Execution Count:	1
»»»»»»»»»»»»»»»»»»»»»»»»»»»»»»»»»»»»»»»»»»««««««««««««««««««««««««««««««««««««««««««

Stored:	6/18/2025 - 11:36:18
Configured:	06/18/25 09:47:30 AM
Executed:	06/18/25 11:35:47 AM

»»»»»»»»»»»»»»»»»»»»»»»»»»»»»»»»»»» Sample Info ««««««««««««««««««««««««««««««««««««
Sample Name:	
Lot Name:	
Wafer Name:	
Die Row/Column:	0/0
Capacitor Number:	0
Sample Area (cm2):	1.00e-04
Sample Thickness (microns):	3.00e-01

Amplifier:	Internal

»»»»»»»»»»»»»»»»»»»»»»»»»»»»»»»»»»» Tester Info «««««««««««««««««««««««««««««««««««
Tester Name:	PMF21124-494 (100V)
Tester Serial Number:	PMF21124-494
Return Signal Amp. Level:	0.19 [Index: 3]

»»»»»»»»»»»»»»»»»»»»»»»»»»»»»»»» Hysteresis Info ««««««««««««««««««««««««««««««««««
Task Name:	Hyst-554
Volts:	20.00
Field:	666.67 (kV/cm)
DCBias:	0.00
DCField:	0.00 (kV/cm)
Hysteresis Period (ms):	2.00e+02
Preset:	Enabled
Preset Delay (ms):	1.00e+03
Profile:	Standard Bipolar

»»»»»»»»»»»»»»»»»»»»»»»»»»»»»»»»»»»»»» Data «««««««««««««««««««««««««««««««««««««««
Points:	2009

Valid Data

Point	Time (ms)	Drive Voltage	Measured Polarization (uC/cm2)	Capacitance (uF)	Normalized Capacitance (uF/cm2)	Dielectric Constant	Instantaneous Current (mA)
   1	0.0000e+00	0.0032	-7.414200	0.000314	3.142560	1.064728	0.000126
   2	9.9500e-02	0.0337	-7.289049	0.000314	3.142560	1.064728	0.000126
   3	1.9900e-01	0.0674	-7.079118	0.000527	5.271392	1.785996	0.000211
   4	2.9850e-01	0.1139	-6.877261	0.000507	5.068646	1.717304	0.000203
   5	3.9800e-01	0.1588	-6.715775	0.000405	4.054917	1.373843	0.000162
   6	4.9750e-01	0.2053	-6.485659	0.000578	5.778256	1.957726	0.000231
   7	5.9700e-01	0.2310	-6.324173	0.000405	4.054917	1.373843	0.000162
   8	6.9650e-01	0.2727	-6.110205	0.000537	5.372764	1.820342	0.000215
   9	7.9600e-01	0.3096	-5.920460	0.000476	4.764527	1.614265	0.000191
  10	8.9550e-01	0.3610	-5.718603	0.000507	5.068646	1.717304	0.000203
  11	9.9500e-01	0.3882	-5.516746	0.000507	5.068646	1.717304	0.000203
  12	1.0945e+00	0.4315	-5.327001	0.000476	4.764527	1.614265	0.000191
  13	1.1940e+00	0.4716	-5.125144	0.000507	5.068646	1.717304	0.000203
  14	1.2935e+00	0.5085	-4.935398	0.000476	4.764527	1.614265	0.000191
  15	1.3930e+00	0.5519	-4.733542	0.000507	5.068646	1.717304	0.000203
  16	1.4925e+00	0.5871	-4.519573	0.000537	5.372764	1.820342	0.000215
  17	1.5920e+00	0.6321	-4.345977	0.000436	4.359035	1.476881	0.000174
  18	1.6915e+00	0.6706	-4.148157	0.000497	4.967273	1.682958	0.000199
  19	1.7910e+00	0.7123	-3.926115	0.000558	5.575510	1.889034	0.000223
  20	1.8905e+00	0.7476	-3.728295	0.000497	4.967273	1.682958	0.000199
  21	1.9900e+00	0.7957	-3.534512	0.000487	4.865900	1.648612	0.000195
  22	2.0895e+00	0.8342	-3.348804	0.000466	4.663154	1.579919	0.000187
  23	2.1890e+00	0.8711	-3.130799	0.000547	5.474137	1.854688	0.000219
  24	2.2885e+00	0.9080	-2.932979	0.000497	4.967273	1.682958	0.000199
  25	2.3880e+00	0.9465	-2.751308	0.000456	4.561781	1.545573	0.000183
  26	2.4875e+00	0.9930	-2.521191	0.000578	5.778256	1.957726	0.000231
  27	2.5870e+00	1.0251	-2.343557	0.000446	4.460408	1.511227	0.000179
  28	2.6865e+00	1.0620	-2.101329	0.000608	6.082375	2.060764	0.000243
  29	2.7860e+00	1.1117	-2.004438	0.000243	2.432950	0.824306	0.000097
  30	2.8855e+00	1.1406	-1.709727	0.000740	7.400223	2.507263	0.000296
  31	2.9850e+00	1.1855	-1.532093	0.000446	4.460408	1.511227	0.000179
  32	3.0845e+00	1.2304	-1.346385	0.000466	4.663154	1.579919	0.000187
  33	3.1840e+00	1.2673	-1.132417	0.000537	5.372764	1.820342	0.000215
  34	3.2835e+00	1.3042	-0.950745	0.000456	4.561781	1.545573	0.000183
  35	3.3830e+00	1.3427	-0.720629	0.000578	5.778256	1.957726	0.000231
  36	3.4825e+00	1.3861	-0.534920	0.000466	4.663154	1.579919	0.000187
  37	3.5820e+00	1.4310	-0.337101	0.000497	4.967273	1.682958	0.000199
  38	3.6815e+00	1.4679	-0.147355	0.000476	4.764527	1.614265	0.000191
  39	3.7810e+00	1.5160	0.082761	0.000578	5.778256	1.957726	0.000231
  40	3.8805e+00	1.5465	0.236172	0.000385	3.852171	1.305151	0.000154
  41	3.9800e+00	1.5802	0.490512	0.000639	6.386494	2.163803	0.000256
  42	4.0795e+00	1.6299	0.660072	0.000426	4.257662	1.442535	0.000170
  43	4.1790e+00	1.6684	0.886151	0.000568	5.676883	1.923380	0.000227
  44	4.2785e+00	1.7117	1.067822	0.000456	4.561781	1.545573	0.000183
  45	4.3780e+00	1.7566	1.281791	0.000537	5.372764	1.820342	0.000215
  46	4.4775e+00	1.7871	1.443276	0.000405	4.054917	1.373843	0.000162
  47	4.5770e+00	1.8272	1.637059	0.000487	4.865900	1.648612	0.000195
  48	4.6765e+00	1.8593	1.875250	0.000598	5.981002	2.026418	0.000239
  49	4.7760e+00	1.9042	2.069032	0.000487	4.865900	1.648612	0.000195
  50	4.8755e+00	1.9427	2.230517	0.000405	4.054917	1.373843	0.000162
  51	4.9750e+00	1.9876	2.488894	0.000649	6.487867	2.198149	0.000260
  52	5.0745e+00	2.0165	2.682677	0.000487	4.865900	1.648612	0.000195
  53	5.1740e+00	2.0695	2.884533	0.000507	5.068646	1.717304	0.000203
  54	5.2735e+00	2.1112	3.098502	0.000537	5.372764	1.820342	0.000215
  55	5.3730e+00	2.1465	3.296321	0.000497	4.967273	1.682958	0.000199
  56	5.4725e+00	2.1914	3.465881	0.000426	4.257662	1.442535	0.000170
  57	5.5720e+00	2.2219	3.679849	0.000537	5.372764	1.820342	0.000215
  58	5.6715e+00	2.2668	3.885743	0.000517	5.170019	1.751650	0.000207
  59	5.7710e+00	2.3021	4.107786	0.000558	5.575510	1.889034	0.000223
  60	5.8705e+00	2.3566	4.305605	0.000497	4.967273	1.682958	0.000199
  61	5.9700e+00	2.3919	4.527648	0.000558	5.575510	1.889034	0.000223
  62	6.0695e+00	2.4272	4.741616	0.000537	5.372764	1.820342	0.000215
  63	6.1690e+00	2.4593	4.923287	0.000456	4.561781	1.545573	0.000183
  64	6.2685e+00	2.5074	5.100921	0.000446	4.460408	1.511227	0.000179
  65	6.3680e+00	2.5539	5.302778	0.000507	5.068646	1.717304	0.000203
  66	6.4675e+00	2.5828	5.520783	0.000547	5.474137	1.854688	0.000219
  67	6.5670e+00	2.6293	5.738788	0.000547	5.474137	1.854688	0.000219
  68	6.6665e+00	2.6662	5.936608	0.000497	4.967273	1.682958	0.000199
  69	6.7660e+00	2.7015	6.106168	0.000426	4.257662	1.442535	0.000170
  70	6.8655e+00	2.7464	6.332247	0.000568	5.676883	1.923380	0.000227
  71	6.9650e+00	2.7817	6.558327	0.000568	5.676883	1.923380	0.000227
  72	7.0645e+00	2.8315	6.752110	0.000487	4.865900	1.648612	0.000195
  73	7.1640e+00	2.8620	6.925706	0.000436	4.359035	1.476881	0.000174
  74	7.2635e+00	2.9053	7.200232	0.000689	6.893358	2.335533	0.000276
  75	7.3630e+00	2.9470	7.394014	0.000487	4.865900	1.648612	0.000195
  76	7.4625e+00	2.9871	7.575685	0.000456	4.561781	1.545573	0.000183
  77	7.5620e+00	3.0160	7.805802	0.000578	5.778256	1.957726	0.000231
  78	7.6615e+00	3.0561	7.975362	0.000426	4.257662	1.442535	0.000170
  79	7.7610e+00	3.0962	8.177218	0.000507	5.068646	1.717304	0.000203
  80	7.8605e+00	3.1379	8.362927	0.000466	4.663154	1.579919	0.000187
  81	7.9600e+00	3.1844	8.576895	0.000537	5.372764	1.820342	0.000215
  82	8.0595e+00	3.2293	8.762603	0.000466	4.663154	1.579919	0.000187
  83	8.1590e+00	3.2614	9.041165	0.000699	6.994731	2.369879	0.000280
  84	8.2585e+00	3.2999	9.194577	0.000385	3.852171	1.305151	0.000154
  85	8.3580e+00	3.3432	9.380285	0.000466	4.663154	1.579919	0.000187
  86	8.4575e+00	3.3753	9.582142	0.000507	5.068646	1.717304	0.000203
  87	8.5570e+00	3.4250	9.800147	0.000547	5.474137	1.854688	0.000219
  88	8.6565e+00	3.4571	10.018152	0.000547	5.474137	1.854688	0.000219
  89	8.7560e+00	3.4908	10.220009	0.000507	5.068646	1.717304	0.000203
  90	8.8555e+00	3.5518	10.433977	0.000537	5.372764	1.820342	0.000215
  91	8.9550e+00	3.5742	10.615648	0.000456	4.561781	1.545573	0.000183
  92	9.0545e+00	3.6272	10.841728	0.000568	5.676883	1.923380	0.000227
  93	9.1540e+00	3.6673	11.035511	0.000487	4.865900	1.648612	0.000195
  94	9.2535e+00	3.6945	11.221219	0.000466	4.663154	1.579919	0.000187
  95	9.3530e+00	3.7443	11.398853	0.000446	4.460408	1.511227	0.000179
  96	9.4525e+00	3.7796	11.612821	0.000537	5.372764	1.820342	0.000215
  97	9.5520e+00	3.8389	11.855049	0.000608	6.082375	2.060764	0.000243
  98	9.6515e+00	3.8598	12.044794	0.000476	4.764527	1.614265	0.000191
  99	9.7510e+00	3.9015	12.230503	0.000466	4.663154	1.579919	0.000187
 100	9.8505e+00	3.9368	12.436397	0.000517	5.170019	1.751650	0.000207
 101	9.9500e+00	3.9753	12.658439	0.000558	5.575510	1.889034	0.000223
 102	1.0050e+01	4.0186	12.872407	0.000537	5.372764	1.820342	0.000215
 103	1.0149e+01	4.0555	13.098487	0.000568	5.676883	1.923380	0.000227
 104	1.0248e+01	4.1020	13.247861	0.000375	3.750798	1.270805	0.000150
 105	1.0348e+01	4.1502	13.457792	0.000527	5.271392	1.785996	0.000211
 106	1.0447e+01	4.1774	13.687909	0.000578	5.778256	1.957726	0.000231
 107	1.0547e+01	4.2143	13.897840	0.000527	5.271392	1.785996	0.000211
 108	1.0646e+01	4.2560	14.127957	0.000578	5.778256	1.957726	0.000231
 109	1.0746e+01	4.2977	14.325776	0.000497	4.967273	1.682958	0.000199
 110	1.0845e+01	4.3411	14.547819	0.000558	5.575510	1.889034	0.000223
 111	1.0945e+01	4.3796	14.713341	0.000416	4.156290	1.408189	0.000166
 112	1.1044e+01	4.4181	14.919235	0.000517	5.170019	1.751650	0.000207
 113	1.1144e+01	4.4566	15.161463	0.000608	6.082375	2.060764	0.000243
 114	1.1243e+01	4.4967	15.375431	0.000537	5.372764	1.820342	0.000215
 115	1.1343e+01	4.5416	15.577288	0.000507	5.068646	1.717304	0.000203
 116	1.1443e+01	4.5721	15.742811	0.000416	4.156290	1.408189	0.000166
 117	1.1542e+01	4.6186	15.972928	0.000578	5.778256	1.957726	0.000231
 118	1.1642e+01	4.6555	16.199007	0.000568	5.676883	1.923380	0.000227
 119	1.1741e+01	4.6972	16.417012	0.000547	5.474137	1.854688	0.000219
 120	1.1841e+01	4.7389	16.626944	0.000527	5.271392	1.785996	0.000211
 121	1.1940e+01	4.7758	16.832837	0.000517	5.170019	1.751650	0.000207
 122	1.2040e+01	4.8239	17.026620	0.000487	4.865900	1.648612	0.000195
 123	1.2139e+01	4.8592	17.236551	0.000527	5.271392	1.785996	0.000211
 124	1.2239e+01	4.8977	17.462631	0.000568	5.676883	1.923380	0.000227
 125	1.2338e+01	4.9394	17.648339	0.000466	4.663154	1.579919	0.000187
 126	1.2438e+01	4.9715	17.862307	0.000537	5.372764	1.820342	0.000215
 127	1.2537e+01	5.0180	18.039941	0.000446	4.460408	1.511227	0.000179
 128	1.2636e+01	5.0485	18.294281	0.000639	6.386494	2.163803	0.000256
 129	1.2736e+01	5.1047	18.488063	0.000487	4.865900	1.648612	0.000195
 130	1.2835e+01	5.1319	18.706068	0.000547	5.474137	1.854688	0.000219
 131	1.2935e+01	5.1833	18.932148	0.000568	5.676883	1.923380	0.000227
 132	1.3034e+01	5.2025	19.125931	0.000487	4.865900	1.648612	0.000195
 133	1.3134e+01	5.2603	19.287416	0.000405	4.054917	1.373843	0.000162
 134	1.3233e+01	5.2988	19.537718	0.000629	6.285121	2.129457	0.000252
 135	1.3333e+01	5.3421	19.755724	0.000547	5.474137	1.854688	0.000219
 136	1.3432e+01	5.3710	19.985840	0.000578	5.778256	1.957726	0.000231
 137	1.3532e+01	5.4175	20.155400	0.000426	4.257662	1.442535	0.000170
 138	1.3632e+01	5.4528	20.361294	0.000517	5.170019	1.751650	0.000207
 139	1.3731e+01	5.4961	20.571225	0.000527	5.271392	1.785996	0.000211
 140	1.3831e+01	5.5346	20.773082	0.000507	5.068646	1.717304	0.000203
 141	1.3930e+01	5.5811	21.055681	0.000710	7.096104	2.404225	0.000284
 142	1.4030e+01	5.6212	21.192944	0.000345	3.446679	1.167766	0.000138
 143	1.4129e+01	5.6453	21.382689	0.000476	4.764527	1.614265	0.000191
 144	1.4229e+01	5.6966	21.637029	0.000639	6.386494	2.163803	0.000256
 145	1.4328e+01	5.7351	21.850997	0.000537	5.372764	1.820342	0.000215
 146	1.4428e+01	5.7784	22.069003	0.000547	5.474137	1.854688	0.000219
 147	1.4527e+01	5.8186	22.242599	0.000436	4.359035	1.476881	0.000174
 148	1.4627e+01	5.8522	22.472716	0.000578	5.778256	1.957726	0.000231
 149	1.4726e+01	5.8988	22.674573	0.000507	5.068646	1.717304	0.000203
 150	1.4825e+01	5.9357	22.896615	0.000558	5.575510	1.889034	0.000223
 151	1.4925e+01	5.9677	23.062138	0.000416	4.156290	1.408189	0.000166
 152	1.5024e+01	6.0127	23.292255	0.000578	5.778256	1.957726	0.000231
 153	1.5124e+01	6.0512	23.554668	0.000659	6.589239	2.232495	0.000264
 154	1.5223e+01	6.0897	23.704042	0.000375	3.750798	1.270805	0.000150
 155	1.5323e+01	6.1346	23.958382	0.000639	6.386494	2.163803	0.000256
 156	1.5422e+01	6.1731	24.144090	0.000466	4.663154	1.579919	0.000187
 157	1.5522e+01	6.2036	24.333836	0.000476	4.764527	1.614265	0.000191
 158	1.5621e+01	6.2485	24.567990	0.000588	5.879629	1.992072	0.000235
 159	1.5721e+01	6.2982	24.773883	0.000517	5.170019	1.751650	0.000207
 160	1.5820e+01	6.3351	24.979777	0.000517	5.170019	1.751650	0.000207
 161	1.5920e+01	6.3672	25.181634	0.000507	5.068646	1.717304	0.000203
 162	1.6020e+01	6.4153	25.423862	0.000608	6.082375	2.060764	0.000243
 163	1.6119e+01	6.4490	25.605533	0.000456	4.561781	1.545573	0.000183
 164	1.6218e+01	6.4891	25.815464	0.000527	5.271392	1.785996	0.000211
 165	1.6318e+01	6.5324	26.009247	0.000487	4.865900	1.648612	0.000195
 166	1.6418e+01	6.5790	26.231289	0.000558	5.575510	1.889034	0.000223
 167	1.6517e+01	6.6110	26.433146	0.000507	5.068646	1.717304	0.000203
 168	1.6616e+01	6.6528	26.675374	0.000608	6.082375	2.060764	0.000243
 169	1.6716e+01	6.6977	26.873194	0.000497	4.967273	1.682958	0.000199
 170	1.6816e+01	6.7378	27.099274	0.000568	5.676883	1.923380	0.000227
 171	1.6915e+01	6.7618	27.284982	0.000466	4.663154	1.579919	0.000187
 172	1.7015e+01	6.8132	27.519136	0.000588	5.879629	1.992072	0.000235
 173	1.7114e+01	6.8485	27.700807	0.000456	4.561781	1.545573	0.000183
 174	1.7213e+01	6.8870	27.922849	0.000558	5.575510	1.889034	0.000223
 175	1.7313e+01	6.9271	28.144892	0.000558	5.575510	1.889034	0.000223
 176	1.7413e+01	6.9640	28.342711	0.000497	4.967273	1.682958	0.000199
 177	1.7512e+01	6.9993	28.552643	0.000527	5.271392	1.785996	0.000211
 178	1.7611e+01	7.0522	28.734314	0.000456	4.561781	1.545573	0.000183
 179	1.7711e+01	7.0891	28.980579	0.000618	6.183748	2.095110	0.000248
 180	1.7811e+01	7.1196	29.158213	0.000446	4.460408	1.511227	0.000179
 181	1.7910e+01	7.1677	29.384292	0.000568	5.676883	1.923380	0.000227
 182	1.8009e+01	7.2062	29.606335	0.000558	5.575510	1.889034	0.000223
 183	1.8109e+01	7.2543	29.808192	0.000507	5.068646	1.717304	0.000203
 184	1.8209e+01	7.2864	30.010049	0.000507	5.068646	1.717304	0.000203
 185	1.8308e+01	7.3249	30.252277	0.000608	6.082375	2.060764	0.000243
 186	1.8407e+01	7.3682	30.450096	0.000497	4.967273	1.682958	0.000199
 187	1.8507e+01	7.4067	30.704436	0.000639	6.386494	2.163803	0.000256
 188	1.8607e+01	7.4388	30.869958	0.000416	4.156290	1.408189	0.000166
 189	1.8706e+01	7.4805	31.051630	0.000456	4.561781	1.545573	0.000183
 190	1.8805e+01	7.5287	31.277709	0.000568	5.676883	1.923380	0.000227
 191	1.8905e+01	7.5591	31.503789	0.000568	5.676883	1.923380	0.000227
 192	1.9005e+01	7.6137	31.685460	0.000456	4.561781	1.545573	0.000183
 193	1.9104e+01	7.6410	31.871168	0.000466	4.663154	1.579919	0.000187
 194	1.9203e+01	7.6923	32.097248	0.000568	5.676883	1.923380	0.000227
 195	1.9303e+01	7.7212	32.319290	0.000558	5.575510	1.889034	0.000223
 196	1.9402e+01	7.7661	32.509036	0.000476	4.764527	1.614265	0.000191
 197	1.9502e+01	7.8222	32.727041	0.000547	5.474137	1.854688	0.000219
 198	1.9602e+01	7.8479	32.908712	0.000456	4.561781	1.545573	0.000183
 199	1.9701e+01	7.8928	33.138829	0.000578	5.778256	1.957726	0.000231
 200	1.9800e+01	7.9233	33.352797	0.000537	5.372764	1.820342	0.000215
 201	1.9900e+01	7.9666	33.514282	0.000405	4.054917	1.373843	0.000162
 202	2.0000e+01	8.0035	33.724213	0.000527	5.271392	1.785996	0.000211
 203	2.0099e+01	8.0500	33.946256	0.000558	5.575510	1.889034	0.000223
 204	2.0198e+01	8.0805	34.152150	0.000517	5.170019	1.751650	0.000207
 205	2.0298e+01	8.1206	34.341895	0.000476	4.764527	1.614265	0.000191
 206	2.0398e+01	8.1543	34.535678	0.000487	4.865900	1.648612	0.000195
 207	2.0497e+01	8.2185	34.741572	0.000517	5.170019	1.751650	0.000207
 208	2.0596e+01	8.2458	34.947466	0.000517	5.170019	1.751650	0.000207
 209	2.0696e+01	8.2730	35.141248	0.000487	4.865900	1.648612	0.000195
 210	2.0796e+01	8.3212	35.367328	0.000568	5.676883	1.923380	0.000227
 211	2.0895e+01	8.3613	35.585333	0.000547	5.474137	1.854688	0.000219
 212	2.0994e+01	8.3982	35.779115	0.000487	4.865900	1.648612	0.000195
 213	2.1094e+01	8.4447	35.993084	0.000537	5.372764	1.820342	0.000215
 214	2.1194e+01	8.4864	36.207052	0.000537	5.372764	1.820342	0.000215
 215	2.1293e+01	8.5201	36.376612	0.000426	4.257662	1.442535	0.000170
 216	2.1392e+01	8.5618	36.562320	0.000466	4.663154	1.579919	0.000187
 217	2.1492e+01	8.6051	36.764177	0.000507	5.068646	1.717304	0.000203
 218	2.1591e+01	8.6420	37.002368	0.000598	5.981002	2.026418	0.000239
 219	2.1691e+01	8.6805	37.200187	0.000497	4.967273	1.682958	0.000199
 220	2.1791e+01	8.7206	37.377821	0.000446	4.460408	1.511227	0.000179
 221	2.1890e+01	8.7607	37.595827	0.000547	5.474137	1.854688	0.000219
 222	2.1989e+01	8.8008	37.781535	0.000466	4.663154	1.579919	0.000187
 223	2.2089e+01	8.8393	37.987429	0.000517	5.170019	1.751650	0.000207
 224	2.2189e+01	8.8810	38.213508	0.000568	5.676883	1.923380	0.000227
 225	2.2288e+01	8.9179	38.403254	0.000476	4.764527	1.614265	0.000191
 226	2.2387e+01	8.9580	38.584925	0.000456	4.561781	1.545573	0.000183
 227	2.2487e+01	8.9949	38.790819	0.000517	5.170019	1.751650	0.000207
 228	2.2587e+01	9.0479	39.004787	0.000537	5.372764	1.820342	0.000215
 229	2.2686e+01	9.0735	39.194532	0.000476	4.764527	1.614265	0.000191
 230	2.2785e+01	9.1185	39.396389	0.000507	5.068646	1.717304	0.000203
 231	2.2885e+01	9.1634	39.590172	0.000487	4.865900	1.648612	0.000195
 232	2.2985e+01	9.2051	39.787991	0.000497	4.967273	1.682958	0.000199
 233	2.3084e+01	9.2356	39.985811	0.000497	4.967273	1.682958	0.000199
 234	2.3183e+01	9.2837	40.175556	0.000476	4.764527	1.614265	0.000191
 235	2.3283e+01	9.3190	40.409710	0.000588	5.879629	1.992072	0.000235
 236	2.3383e+01	9.3463	40.623678	0.000537	5.372764	1.820342	0.000215
 237	2.3482e+01	9.3992	40.793238	0.000426	4.257662	1.442535	0.000170
 238	2.3581e+01	9.4457	41.003169	0.000527	5.271392	1.785996	0.000211
 239	2.3681e+01	9.4778	41.168692	0.000416	4.156290	1.408189	0.000166
 240	2.3780e+01	9.5179	41.418994	0.000629	6.285121	2.129457	0.000252
 241	2.3880e+01	9.5484	41.612777	0.000487	4.865900	1.648612	0.000195
 242	2.3980e+01	9.5933	41.770225	0.000395	3.953544	1.339497	0.000158
 243	2.4079e+01	9.6350	41.980156	0.000527	5.271392	1.785996	0.000211
 244	2.4178e+01	9.6783	42.169901	0.000476	4.764527	1.614265	0.000191
 245	2.4278e+01	9.7184	42.367721	0.000497	4.967273	1.682958	0.000199
 246	2.4378e+01	9.7553	42.585726	0.000547	5.474137	1.854688	0.000219
 247	2.4477e+01	9.8035	42.787583	0.000507	5.068646	1.717304	0.000203
 248	2.4576e+01	9.8339	42.957143	0.000426	4.257662	1.442535	0.000170
 249	2.4676e+01	9.8821	43.167074	0.000527	5.271392	1.785996	0.000211
 250	2.4776e+01	9.9206	43.368931	0.000507	5.068646	1.717304	0.000203
 251	2.4875e+01	9.9527	43.595010	0.000568	5.676883	1.923380	0.000227
 252	2.4974e+01	9.9847	43.728236	0.000335	3.345306	1.133420	0.000134
 253	2.5074e+01	10.0329	43.950278	0.000558	5.575510	1.889034	0.000223
 254	2.5174e+01	10.0762	44.140024	0.000476	4.764527	1.614265	0.000191
 255	2.5273e+01	10.1147	44.341880	0.000507	5.068646	1.717304	0.000203
 256	2.5372e+01	10.1532	44.503366	0.000405	4.054917	1.373843	0.000162
 257	2.5472e+01	10.1869	44.725408	0.000558	5.575510	1.889034	0.000223
 258	2.5572e+01	10.2446	44.927265	0.000507	5.068646	1.717304	0.000203
 259	2.5671e+01	10.2751	45.121048	0.000487	4.865900	1.648612	0.000195
 260	2.5770e+01	10.3136	45.314830	0.000487	4.865900	1.648612	0.000195
 261	2.5870e+01	10.3425	45.484390	0.000426	4.257662	1.442535	0.000170
 262	2.5970e+01	10.4067	45.694321	0.000527	5.271392	1.785996	0.000211
