»»»»»»»»»»»»»»»»»»»»»»»»»»»»»»»»»»»» Hysteresis ««««««««««««««««««««««««««««««««««««
»»»  Executed Version:	5.48.1
»»»  Vision Version:	5.48.4 (R)
»»»  Vision Compiled:	9/18/24
»»»  Driver Version:	5.47.0
»»»  Windows Version:	Windows 8 or 8.1
»»»  Processor Information:	x86 (AMD or Intel) - 32 Processors
»»»  Tester Name:	PMF21124-494 (100V)
»»»  Tester S/N:	PMF21124-494
»»»  Internal Amp Type:	100V RevK 270k
»»»  Internal Amp S/N:	iAB2-596/K     
»»»  Execution Count:	1
»»»»»»»»»»»»»»»»»»»»»»»»»»»»»»»»»»»»»»»»»»««««««««««««««««««««««««««««««««««««««««««

Stored:	6/18/2025 - 12:16:12
Configured:	06/18/25 09:47:30 AM
Executed:	06/18/25 12:15:47 PM

»»»»»»»»»»»»»»»»»»»»»»»»»»»»»»»»»»» Sample Info ««««««««««««««««««««««««««««««««««««
Sample Name:	
Lot Name:	
Wafer Name:	
Die Row/Column:	0/0
Capacitor Number:	0
Sample Area (cm2):	1.00e-04
Sample Thickness (microns):	3.00e-01

Amplifier:	Internal

»»»»»»»»»»»»»»»»»»»»»»»»»»»»»»»»»»» Tester Info «««««««««««««««««««««««««««««««««««
Tester Name:	PMF21124-494 (100V)
Tester Serial Number:	PMF21124-494
Return Signal Amp. Level:	0.19 [Index: 3]

»»»»»»»»»»»»»»»»»»»»»»»»»»»»»»»» Hysteresis Info ««««««««««««««««««««««««««««««««««
Task Name:	Hyst-554
Volts:	20.00
Field:	666.67 (kV/cm)
DCBias:	0.00
DCField:	0.00 (kV/cm)
Hysteresis Period (ms):	1.00e+00
Preset:	Enabled
Preset Delay (ms):	1.00e+03
Profile:	Standard Bipolar

»»»»»»»»»»»»»»»»»»»»»»»»»»»»»»»»»»»»»» Data «««««««««««««««««««««««««««««««««««««««
Points:	2001

Valid Data

Point	Time (ms)	Drive Voltage	Measured Polarization (uC/cm2)	Capacitance (uF)	Normalized Capacitance (uF/cm2)	Dielectric Constant	Instantaneous Current (mA)
   1	0.0000e+00	0.0209	-9.699602	0.000485	4.850327	1.643335	0.038718
   2	5.0000e-04	0.0289	-9.506013	0.000485	4.850327	1.643335	0.038718
   3	1.0000e-03	0.0561	-9.360822	0.000364	3.637745	1.232502	0.029038
   4	1.5000e-03	0.1059	-9.316458	0.000111	1.111533	0.376598	0.008873
   5	2.0000e-03	0.1364	-9.066406	0.000627	6.265006	2.122642	0.050010
   6	2.5000e-03	0.1781	-8.828453	0.000596	5.961861	2.019933	0.047591
   7	3.0000e-03	0.2069	-8.538070	0.000728	7.275491	2.465003	0.058077
   8	3.5000e-03	0.2519	-8.259786	0.000697	6.972345	2.362295	0.055657
   9	4.0000e-03	0.2920	-7.908906	0.000879	8.791218	2.978545	0.070176
  10	4.5000e-03	0.3337	-7.691119	0.000546	5.456618	1.848752	0.043557
  11	5.0000e-03	0.3818	-7.594325	0.000243	2.425164	0.821668	0.019359
  12	5.5000e-03	0.4123	-7.239412	0.000889	8.892267	3.012781	0.070983
  13	6.0000e-03	0.4556	-7.025658	0.000536	5.355570	1.814516	0.042751
  14	6.5000e-03	0.4941	-6.836102	0.000475	4.749279	1.609099	0.037911
  15	7.0000e-03	0.5278	-6.521520	0.000788	7.881782	2.670420	0.062916
  16	7.5000e-03	0.5663	-6.231137	0.000728	7.275491	2.465003	0.058077
  17	8.0000e-03	0.6112	-5.876225	0.000889	8.892267	3.012781	0.070983
  18	8.5000e-03	0.6593	-5.662470	0.000536	5.355570	1.814516	0.042751
  19	9.0000e-03	0.6962	-5.372087	0.000728	7.275491	2.465003	0.058077
  20	9.5000e-03	0.7347	-5.105903	0.000667	6.669200	2.259586	0.053237
  21	1.0000e-02	0.7700	-4.900215	0.000515	5.153473	1.746044	0.041138
  22	1.0500e-02	0.8101	-4.678394	0.000556	5.557667	1.882988	0.044364
  23	1.1000e-02	0.8567	-4.460607	0.000546	5.456618	1.848752	0.043557
  24	1.1500e-02	0.8936	-4.174257	0.000717	7.174442	2.430767	0.057270
  25	1.2000e-02	0.9305	-3.900006	0.000687	6.871297	2.328058	0.054850
  26	1.2500e-02	0.9690	-3.601557	0.000748	7.477588	2.533475	0.059690
  27	1.3000e-02	1.0123	-3.303108	0.000748	7.477588	2.533475	0.059690
  28	1.3500e-02	1.0588	-2.992559	0.000778	7.780733	2.636184	0.062110
  29	1.4000e-02	1.0829	-2.722342	0.000677	6.770248	2.293822	0.054044
  30	1.4500e-02	1.1278	-2.440025	0.000707	7.073394	2.396531	0.056463
  31	1.5000e-02	1.1791	-2.339197	0.000253	2.526212	0.855904	0.020165
  32	1.5500e-02	1.2128	-2.040748	0.000748	7.477588	2.533475	0.059690
  33	1.6000e-02	1.2577	-1.770530	0.000677	6.770248	2.293822	0.054044
  34	1.6500e-02	1.2978	-1.496280	0.000687	6.871297	2.328058	0.054850
  35	1.7000e-02	1.3379	-1.274459	0.000556	5.557667	1.882988	0.044364
  36	1.7500e-02	1.3732	-0.923580	0.000879	8.791218	2.978545	0.070176
  37	1.8000e-02	1.4165	-0.685627	0.000596	5.961861	2.019933	0.047591
  38	1.8500e-02	1.4582	-0.508170	0.000445	4.446133	1.506391	0.035491
  39	1.9000e-02	1.4855	-0.209721	0.000748	7.477588	2.533475	0.059690
  40	1.9500e-02	1.5465	-0.036298	0.000435	4.345085	1.472155	0.034685
  41	2.0000e-02	1.5641	0.330714	0.000920	9.195412	3.115490	0.073402
  42	2.0500e-02	1.6090	0.520270	0.000475	4.749279	1.609099	0.037911
  43	2.1000e-02	1.6540	0.855017	0.000839	8.387024	2.841601	0.066949
  44	2.1500e-02	1.6893	1.213963	0.000899	8.993315	3.047018	0.071789
  45	2.2000e-02	1.7390	1.435783	0.000556	5.557667	1.882988	0.044364
  46	2.2500e-02	1.7775	1.738265	0.000758	7.578636	2.567711	0.060496
  47	2.3000e-02	1.8112	1.988318	0.000627	6.265006	2.122642	0.050010
  48	2.3500e-02	1.8545	2.242403	0.000637	6.366055	2.156878	0.050817
  49	2.4000e-02	1.8898	2.488422	0.000616	6.163958	2.088405	0.049204
  50	2.4500e-02	1.9315	2.883666	0.000990	9.902751	3.355143	0.079049
  51	2.5000e-02	1.9796	3.073221	0.000475	4.749279	1.609099	0.037911
  52	2.5500e-02	2.0133	3.262777	0.000475	4.749279	1.609099	0.037911
  53	2.6000e-02	2.0534	3.549127	0.000717	7.174442	2.430767	0.057270
  54	2.6500e-02	2.0951	3.714484	0.000414	4.142988	1.403682	0.033071
  55	2.7000e-02	2.1352	4.020999	0.000768	7.679685	2.601948	0.061303
  56	2.7500e-02	2.1705	4.412210	0.000980	9.801703	3.320907	0.078242
  57	2.8000e-02	2.1994	4.589666	0.000445	4.446133	1.506391	0.035491
  58	2.8500e-02	2.2539	4.912314	0.000808	8.083879	2.738892	0.064530
  59	2.9000e-02	2.2892	5.178499	0.000667	6.669200	2.259586	0.053237
  60	2.9500e-02	2.3261	5.468882	0.000728	7.275491	2.465003	0.058077
  61	3.0000e-02	2.3711	5.710868	0.000606	6.062909	2.054169	0.048397
  62	3.0500e-02	2.4192	6.017383	0.000768	7.679685	2.601948	0.061303
  63	3.1000e-02	2.4481	6.291634	0.000687	6.871297	2.328058	0.054850
  64	3.1500e-02	2.4898	6.586050	0.000738	7.376539	2.499239	0.058883
  65	3.2000e-02	2.5379	6.856268	0.000677	6.770248	2.293822	0.054044
  66	3.2500e-02	2.5684	7.126485	0.000677	6.770248	2.293822	0.054044
  67	3.3000e-02	2.6101	7.328140	0.000505	5.052424	1.711808	0.040331
  68	3.3500e-02	2.6502	7.481398	0.000384	3.839842	1.300974	0.030652
  69	3.4000e-02	2.6887	7.880675	0.001000	10.003800	3.389379	0.079855
  70	3.4500e-02	2.7448	8.146859	0.000667	6.669200	2.259586	0.053237
  71	3.5000e-02	2.7769	8.457408	0.000778	7.780733	2.636184	0.062110
  72	3.5500e-02	2.8106	8.747791	0.000728	7.275491	2.465003	0.058077
  73	3.6000e-02	2.8507	8.961545	0.000536	5.355570	1.814516	0.042751
  74	3.6500e-02	2.8940	9.231763	0.000677	6.770248	2.293822	0.054044
  75	3.7000e-02	2.9341	9.453583	0.000556	5.557667	1.882988	0.044364
  76	3.7500e-02	2.9710	9.687503	0.000586	5.860812	1.985697	0.046784
  77	3.8000e-02	3.0111	10.050482	0.000909	9.094364	3.081254	0.072596
  78	3.8500e-02	3.0577	10.348931	0.000748	7.477588	2.533475	0.059690
  79	3.9000e-02	3.0930	10.639314	0.000728	7.275491	2.465003	0.058077
  80	3.9500e-02	3.1347	10.845002	0.000515	5.153473	1.746044	0.041138
  81	4.0000e-02	3.1748	11.095054	0.000627	6.265006	2.122642	0.050010
  82	4.0500e-02	3.2053	11.498364	0.001010	10.104848	3.423615	0.080662
  83	4.1000e-02	3.2502	11.732284	0.000586	5.860812	1.985697	0.046784
  84	4.1500e-02	3.2935	11.877475	0.000364	3.637745	1.232502	0.029038
  85	4.2000e-02	3.3368	12.224322	0.000869	8.690170	2.944309	0.069369
  86	4.2500e-02	3.3705	12.425977	0.000505	5.052424	1.711808	0.040331
  87	4.3000e-02	3.4186	12.651830	0.000566	5.658715	1.917225	0.045171
  88	4.3500e-02	3.4523	12.905916	0.000637	6.366055	2.156878	0.050817
  89	4.4000e-02	3.4972	13.317292	0.001031	10.306945	3.492088	0.082275
  90	4.4500e-02	3.5325	13.502814	0.000465	4.648230	1.574863	0.037105
  91	4.5000e-02	3.5742	13.736734	0.000586	5.860812	1.985697	0.046784
  92	4.5500e-02	3.6143	14.103746	0.000920	9.195412	3.115490	0.073402
  93	4.6000e-02	3.6560	14.361864	0.000647	6.467103	2.191114	0.051624
  94	4.6500e-02	3.7010	14.684512	0.000808	8.083879	2.738892	0.064530
  95	4.7000e-02	3.7363	14.930531	0.000616	6.163958	2.088405	0.049204
  96	4.7500e-02	3.7619	15.168484	0.000596	5.961861	2.019933	0.047591
  97	4.8000e-02	3.8068	15.535496	0.000920	9.195412	3.115490	0.073402
  98	4.8500e-02	3.8453	15.761349	0.000566	5.658715	1.917225	0.045171
  99	4.9000e-02	3.8951	15.886375	0.000313	3.132503	1.061321	0.025005
 100	4.9500e-02	3.9288	16.225156	0.000849	8.488073	2.875837	0.067756
 101	5.0000e-02	3.9673	16.567969	0.000859	8.589121	2.910073	0.068563
 102	5.0500e-02	4.0138	16.862385	0.000738	7.376539	2.499239	0.058883
 103	5.1000e-02	4.0507	17.245530	0.000960	9.599606	3.252435	0.076629
 104	5.1500e-02	4.0940	17.418953	0.000435	4.345085	1.472155	0.034685
 105	5.2000e-02	4.1325	17.697237	0.000697	6.972345	2.362295	0.055657
 106	5.2500e-02	4.1726	18.036017	0.000849	8.488073	2.875837	0.067756
 107	5.3000e-02	4.2095	18.290102	0.000637	6.366055	2.156878	0.050817
 108	5.3500e-02	4.2496	18.455459	0.000414	4.142988	1.403682	0.033071
 109	5.4000e-02	4.2945	18.830537	0.000940	9.397509	3.183962	0.075016
 110	5.4500e-02	4.3378	19.181417	0.000879	8.791218	2.978545	0.070176
 111	5.5000e-02	4.3763	19.536330	0.000889	8.892267	3.012781	0.070983
 112	5.5500e-02	4.4165	19.717819	0.000455	4.547182	1.540627	0.036298
 113	5.6000e-02	4.4598	19.975937	0.000647	6.467103	2.191114	0.051624
 114	5.6500e-02	4.4983	20.290519	0.000788	7.881782	2.670420	0.062916
 115	5.7000e-02	4.5255	20.431678	0.000354	3.536697	1.198265	0.028232
 116	5.7500e-02	4.5673	20.734160	0.000758	7.578636	2.567711	0.060496
 117	5.8000e-02	4.6106	21.068907	0.000839	8.387024	2.841601	0.066949
 118	5.8500e-02	4.6507	21.484316	0.001041	10.407994	3.526324	0.083082
 119	5.9000e-02	4.6892	21.681938	0.000495	4.951376	1.677572	0.039524
 120	5.9500e-02	4.7405	22.012652	0.000829	8.285976	2.807365	0.066143
 121	6.0000e-02	4.7790	22.178009	0.000414	4.142988	1.403682	0.033071
 122	6.0500e-02	4.8111	22.561154	0.000960	9.599606	3.252435	0.076629
 123	6.1000e-02	4.8560	22.899934	0.000849	8.488073	2.875837	0.067756
 124	6.1500e-02	4.8945	22.944298	0.000111	1.111533	0.376598	0.008873
 125	6.2000e-02	4.9314	23.250813	0.000768	7.679685	2.601948	0.061303
 126	6.2500e-02	4.9731	23.625892	0.000940	9.397509	3.183962	0.075016
 127	6.3000e-02	5.0180	23.787216	0.000404	4.041939	1.369446	0.032265
 128	6.3500e-02	5.0485	24.279254	0.001233	12.327915	4.176811	0.098408
 129	6.4000e-02	5.0918	24.367982	0.000222	2.223067	0.753195	0.017746
 130	6.4500e-02	5.1255	24.702729	0.000839	8.387024	2.841601	0.066949
 131	6.5000e-02	5.1688	24.940682	0.000596	5.961861	2.019933	0.047591
 132	6.5500e-02	5.2170	25.162502	0.000556	5.557667	1.882988	0.044364
 133	6.6000e-02	5.2490	25.569845	0.001021	10.205897	3.457851	0.081469
 134	6.6500e-02	5.2892	25.844096	0.000687	6.871297	2.328058	0.054850
 135	6.7000e-02	5.3325	26.158678	0.000788	7.881782	2.670420	0.062916
 136	6.7500e-02	5.3758	26.295803	0.000344	3.435648	1.164029	0.027425
 137	6.8000e-02	5.4175	26.735411	0.001101	11.014285	3.731741	0.087922
 138	6.8500e-02	5.4608	26.985463	0.000627	6.265006	2.122642	0.050010
 139	6.9000e-02	5.4961	27.203250	0.000546	5.456618	1.848752	0.043557
 140	6.9500e-02	5.5250	27.445236	0.000606	6.062909	2.054169	0.048397
 141	7.0000e-02	5.5715	27.707387	0.000657	6.568151	2.225350	0.052430
 142	7.0500e-02	5.6004	28.026002	0.000798	7.982830	2.704656	0.063723
 143	7.1000e-02	5.6565	28.288154	0.000657	6.568151	2.225350	0.052430
 144	7.1500e-02	5.6886	28.739861	0.001132	11.317430	3.834449	0.090341
 145	7.2000e-02	5.7319	28.872953	0.000333	3.334600	1.129793	0.026618
 146	7.2500e-02	5.7736	29.175435	0.000758	7.578636	2.567711	0.060496
 147	7.3000e-02	5.8057	29.465818	0.000728	7.275491	2.465003	0.058077
 148	7.3500e-02	5.8490	29.631175	0.000414	4.142988	1.403682	0.033071
 149	7.4000e-02	5.8907	30.070783	0.001101	11.014285	3.731741	0.087922
 150	7.4500e-02	5.9260	30.280504	0.000525	5.254521	1.780280	0.041944
 151	7.5000e-02	5.9742	30.470060	0.000475	4.749279	1.609099	0.037911
 152	7.5500e-02	6.0111	30.744311	0.000687	6.871297	2.328058	0.054850
 153	7.6000e-02	6.0512	31.066959	0.000808	8.083879	2.738892	0.064530
 154	7.6500e-02	6.0945	31.317011	0.000627	6.265006	2.122642	0.050010
 155	7.7000e-02	6.1362	31.607394	0.000728	7.275491	2.465003	0.058077
 156	7.7500e-02	6.1715	31.833247	0.000566	5.658715	1.917225	0.045171
 157	7.8000e-02	6.2164	32.260756	0.001071	10.711139	3.629032	0.085502
 158	7.8500e-02	6.2565	32.486609	0.000566	5.658715	1.917225	0.045171
 159	7.9000e-02	6.2950	32.821356	0.000839	8.387024	2.841601	0.066949
 160	7.9500e-02	6.3287	33.152071	0.000829	8.285976	2.807365	0.066143
 161	8.0000e-02	6.3816	33.313394	0.000404	4.041939	1.369446	0.032265
 162	8.0500e-02	6.4073	33.603778	0.000728	7.275491	2.465003	0.058077
 163	8.1000e-02	6.4586	34.059518	0.001142	11.418479	3.868685	0.091148
 164	8.1500e-02	6.4923	34.236974	0.000445	4.446133	1.506391	0.035491
 165	8.2000e-02	6.5276	34.430563	0.000485	4.850327	1.643335	0.038718
 166	8.2500e-02	6.5677	34.716913	0.000717	7.174442	2.430767	0.057270
 167	8.3000e-02	6.6239	35.096024	0.000950	9.498558	3.218198	0.075822
 168	8.3500e-02	6.6511	35.273480	0.000445	4.446133	1.506391	0.035491
 169	8.4000e-02	6.6848	35.608228	0.000839	8.387024	2.841601	0.066949
 170	8.4500e-02	6.7265	35.793750	0.000465	4.648230	1.574863	0.037105
 171	8.5000e-02	6.7795	36.108332	0.000788	7.881782	2.670420	0.062916
 172	8.5500e-02	6.8148	36.414847	0.000768	7.679685	2.601948	0.061303
 173	8.6000e-02	6.8533	36.709263	0.000738	7.376539	2.499239	0.058883
 174	8.6500e-02	6.8934	37.003680	0.000738	7.376539	2.499239	0.058883
 175	8.7000e-02	6.9255	37.314228	0.000778	7.780733	2.636184	0.062110
 176	8.7500e-02	6.9736	37.580413	0.000667	6.669200	2.259586	0.053237
 177	8.8000e-02	7.0121	37.753836	0.000435	4.345085	1.472155	0.034685
 178	8.8500e-02	7.0554	38.084550	0.000829	8.285976	2.807365	0.066143
 179	8.9000e-02	7.0875	38.209576	0.000313	3.132503	1.061321	0.025005
 180	8.9500e-02	7.1308	38.540290	0.000829	8.285976	2.807365	0.066143
 181	9.0000e-02	7.1725	38.810508	0.000677	6.770248	2.293822	0.054044
 182	9.0500e-02	7.2062	39.262215	0.001132	11.317430	3.834449	0.090341
 183	9.1000e-02	7.2447	39.451771	0.000475	4.749279	1.609099	0.037911
 184	9.1500e-02	7.2896	39.625194	0.000435	4.345085	1.472155	0.034685
 185	9.2000e-02	7.3329	40.121265	0.001243	12.428964	4.211047	0.099214
 186	9.2500e-02	7.3731	40.359218	0.000596	5.961861	2.019933	0.047591
 187	9.3000e-02	7.4100	40.564906	0.000515	5.153473	1.746044	0.041138
 188	9.3500e-02	7.4549	40.915785	0.000879	8.791218	2.978545	0.070176
 189	9.4000e-02	7.4982	41.226334	0.000778	7.780733	2.636184	0.062110
 190	9.4500e-02	7.5287	41.359426	0.000333	3.334600	1.129793	0.026618
 191	9.5000e-02	7.5704	41.617544	0.000647	6.467103	2.191114	0.051624
 192	9.5500e-02	7.6185	41.815166	0.000495	4.951376	1.677572	0.039524
 193	9.6000e-02	7.6506	42.178145	0.000909	9.094364	3.081254	0.072596
 194	9.6500e-02	7.6827	42.432230	0.000637	6.366055	2.156878	0.050817
 195	9.7000e-02	7.7292	42.593554	0.000404	4.041939	1.369446	0.032265
 196	9.7500e-02	7.7677	42.976699	0.000960	9.599606	3.252435	0.076629
 197	9.8000e-02	7.8094	43.371942	0.000990	9.902751	3.355143	0.079049
 198	9.8500e-02	7.8527	43.569564	0.000495	4.951376	1.677572	0.039524
 199	9.9000e-02	7.8880	43.876080	0.000768	7.679685	2.601948	0.061303
 200	9.9500e-02	7.9329	44.077735	0.000505	5.052424	1.711808	0.040331
 201	1.0000e-01	7.9714	44.376184	0.000748	7.477588	2.533475	0.059690
 202	1.0050e-01	8.0099	44.811759	0.001091	10.913236	3.697505	0.087115
 203	1.0100e-01	8.0484	44.948884	0.000344	3.435648	1.164029	0.027425
 204	1.0150e-01	8.0869	45.211035	0.000657	6.568151	2.225350	0.052430
 205	1.0200e-01	8.1174	45.485286	0.000687	6.871297	2.328058	0.054850
 206	1.0250e-01	8.1720	45.699040	0.000536	5.355570	1.814516	0.042751
 207	1.0300e-01	8.2089	46.070085	0.000930	9.296461	3.149726	0.074209
 208	1.0350e-01	8.2442	46.392733	0.000808	8.083879	2.738892	0.064530
 209	1.0400e-01	8.2875	46.691183	0.000748	7.477588	2.533475	0.059690
 210	1.0450e-01	8.3372	46.941235	0.000627	6.265006	2.122642	0.050010
 211	1.0500e-01	8.3757	47.203386	0.000657	6.568151	2.225350	0.052430
 212	1.0550e-01	8.4094	47.441339	0.000596	5.961861	2.019933	0.047591
 213	1.0600e-01	8.4527	47.667192	0.000566	5.658715	1.917225	0.045171
 214	1.0650e-01	8.4880	47.933377	0.000667	6.669200	2.259586	0.053237
 215	1.0700e-01	8.5377	48.167297	0.000586	5.860812	1.985697	0.046784
 216	1.0750e-01	8.5698	48.506077	0.000849	8.488073	2.875837	0.067756
 217	1.0800e-01	8.6099	48.812592	0.000768	7.679685	2.601948	0.061303
 218	1.0850e-01	8.6500	49.006181	0.000485	4.850327	1.643335	0.038718
 219	1.0900e-01	8.6917	49.369160	0.000909	9.094364	3.081254	0.072596
 220	1.0950e-01	8.7334	49.554683	0.000465	4.648230	1.574863	0.037105
 221	1.1000e-01	8.7623	49.812801	0.000647	6.467103	2.191114	0.051624
 222	1.1050e-01	8.8104	50.046721	0.000586	5.860812	1.985697	0.046784
 223	1.1100e-01	8.8489	50.304839	0.000647	6.467103	2.191114	0.051624
 224	1.1150e-01	8.8923	50.756546	0.001132	11.317430	3.834449	0.090341
 225	1.1200e-01	8.9372	50.950135	0.000485	4.850327	1.643335	0.038718
 226	1.1250e-01	8.9677	51.188087	0.000596	5.961861	2.019933	0.047591
 227	1.1300e-01	9.0094	51.623662	0.001091	10.913236	3.697505	0.087115
 228	1.1350e-01	9.0559	51.728523	0.000263	2.627261	0.890140	0.020972
 229	1.1400e-01	9.0960	51.946310	0.000546	5.456618	1.848752	0.043557
 230	1.1450e-01	9.1361	52.232660	0.000717	7.174442	2.430767	0.057270
 231	1.1500e-01	9.1714	52.591606	0.000899	8.993315	3.047018	0.071789
 232	1.1550e-01	9.2131	52.732764	0.000354	3.536697	1.198265	0.028232
 233	1.1600e-01	9.2564	53.119942	0.000970	9.700654	3.286671	0.077435
 234	1.1650e-01	9.3013	53.507119	0.000970	9.700654	3.286671	0.077435
 235	1.1700e-01	9.3350	53.599880	0.000232	2.324115	0.787432	0.018552
 236	1.1750e-01	9.3767	53.825734	0.000566	5.658715	1.917225	0.045171
 237	1.1800e-01	9.4136	54.055621	0.000576	5.759764	1.951461	0.045977
 238	1.1850e-01	9.4521	54.503295	0.001122	11.216382	3.800213	0.089535
 239	1.1900e-01	9.4826	54.797711	0.000738	7.376539	2.499239	0.058883
 240	1.1950e-01	9.5356	54.999366	0.000505	5.052424	1.711808	0.040331
 241	1.2000e-01	9.5660	55.301848	0.000758	7.578636	2.567711	0.060496
 242	1.2050e-01	9.6126	55.592231	0.000728	7.275491	2.465003	0.058077
 243	1.2100e-01	9.6511	55.963276	0.000930	9.296461	3.149726	0.074209
 244	1.2150e-01	9.6960	56.156865	0.000485	4.850327	1.643335	0.038718
 245	1.2200e-01	9.7345	56.342387	0.000465	4.648230	1.574863	0.037105
 246	1.2250e-01	9.7794	56.616638	0.000687	6.871297	2.328058	0.054850
 247	1.2300e-01	9.8099	56.822326	0.000515	5.153473	1.746044	0.041138
 248	1.2350e-01	9.8420	57.096577	0.000687	6.871297	2.328058	0.054850
 249	1.2400e-01	9.8965	57.322430	0.000566	5.658715	1.917225	0.045171
 250	1.2450e-01	9.9318	57.612814	0.000728	7.275491	2.465003	0.058077
 251	1.2500e-01	9.9735	57.830601	0.000546	5.456618	1.848752	0.043557
 252	1.2550e-01	10.0104	58.169381	0.000849	8.488073	2.875837	0.067756
 253	1.2600e-01	10.0521	58.455731	0.000717	7.174442	2.430767	0.057270
 254	1.2650e-01	10.1002	58.568658	0.000283	2.829358	0.958612	0.022585
 255	1.2700e-01	10.1371	58.992133	0.001061	10.610091	3.594796	0.084695
 256	1.2750e-01	10.1740	59.201854	0.000525	5.254521	1.780280	0.041944
 257	1.2800e-01	10.2142	59.496271	0.000738	7.376539	2.499239	0.058883
 258	1.2850e-01	10.2527	59.665661	0.000424	4.244036	1.437918	0.033878
 259	1.2900e-01	10.2879	60.113335	0.001122	11.216382	3.800213	0.089535
 260	1.2950e-01	10.3409	60.290791	0.000445	4.446133	1.506391	0.035491
 261	1.3000e-01	10.3762	60.565042	0.000687	6.871297	2.328058	0.054850
