»»»»»»»»»»»»»»»»»»»»»»»»»»»»»»»»»»»» Hysteresis ««««««««««««««««««««««««««««««««««««
»»»  Executed Version:	5.48.1
»»»  Vision Version:	5.48.4 (R)
»»»  Vision Compiled:	9/18/24
»»»  Driver Version:	5.47.0
»»»  Windows Version:	Windows 8 or 8.1
»»»  Processor Information:	x86 (AMD or Intel) - 32 Processors
»»»  Tester Name:	PMF21124-494 (100V)
»»»  Tester S/N:	PMF21124-494
»»»  Internal Amp Type:	100V RevK 270k
»»»  Internal Amp S/N:	iAB2-596/K     
»»»  Execution Count:	1
»»»»»»»»»»»»»»»»»»»»»»»»»»»»»»»»»»»»»»»»»»««««««««««««««««««««««««««««««««««««««««««

Stored:	6/18/2025 - 12:20:16
Configured:	06/18/25 09:47:30 AM
Executed:	06/18/25 12:19:51 PM

»»»»»»»»»»»»»»»»»»»»»»»»»»»»»»»»»»» Sample Info ««««««««««««««««««««««««««««««««««««
Sample Name:	
Lot Name:	
Wafer Name:	
Die Row/Column:	0/0
Capacitor Number:	0
Sample Area (cm2):	1.00e-04
Sample Thickness (microns):	3.00e-01

Amplifier:	Internal

»»»»»»»»»»»»»»»»»»»»»»»»»»»»»»»»»»» Tester Info «««««««««««««««««««««««««««««««««««
Tester Name:	PMF21124-494 (100V)
Tester Serial Number:	PMF21124-494
Return Signal Amp. Level:	0.19 [Index: 3]

»»»»»»»»»»»»»»»»»»»»»»»»»»»»»»»» Hysteresis Info ««««««««««««««««««««««««««««««««««
Task Name:	Hyst-554
Volts:	20.00
Field:	666.67 (kV/cm)
DCBias:	0.00
DCField:	0.00 (kV/cm)
Hysteresis Period (ms):	1.00e+00
Preset:	Enabled
Preset Delay (ms):	1.00e+03
Profile:	Standard Bipolar

»»»»»»»»»»»»»»»»»»»»»»»»»»»»»»»»»»»»»» Data «««««««««««««««««««««««««««««««««««««««
Points:	2001

Valid Data

Point	Time (ms)	Drive Voltage	Measured Polarization (uC/cm2)	Capacitance (uF)	Normalized Capacitance (uF/cm2)	Dielectric Constant	Instantaneous Current (mA)
   1	0.0000e+00	0.0176	-6.700993	0.000424	4.244463	1.438063	0.033878
   2	5.0000e-04	0.0369	-6.531603	0.000424	4.244463	1.438063	0.033878
   3	1.0000e-03	0.0545	-6.523537	0.000020	0.202117	0.068479	0.001613
   4	1.5000e-03	0.0946	-6.277518	0.000616	6.164577	2.088615	0.049204
   5	2.0000e-03	0.1315	-6.067797	0.000526	5.255049	1.780459	0.041944
   6	2.5000e-03	0.1781	-5.999234	0.000172	1.717997	0.582073	0.013713
   7	3.0000e-03	0.2150	-5.684652	0.000788	7.882574	2.670688	0.062916
   8	3.5000e-03	0.2471	-5.374104	0.000778	7.781515	2.636449	0.062110
   9	4.0000e-03	0.2936	-5.051456	0.000808	8.084691	2.739168	0.064530
  10	4.5000e-03	0.3385	-4.857867	0.000485	4.850815	1.643501	0.038718
  11	5.0000e-03	0.3610	-4.611848	0.000616	6.164577	2.088615	0.049204
  12	5.5000e-03	0.4075	-4.256936	0.000889	8.893160	3.013084	0.070983
  13	6.0000e-03	0.4556	-4.103678	0.000384	3.840228	1.301105	0.030652
  14	6.5000e-03	0.4893	-3.837493	0.000667	6.669870	2.259813	0.053237
  15	7.0000e-03	0.5262	-3.502746	0.000839	8.387867	2.841886	0.066949
  16	7.5000e-03	0.5695	-3.450316	0.000131	1.313762	0.445115	0.010486
  17	8.0000e-03	0.6048	-3.010708	0.001102	11.015392	3.732116	0.087922
  18	8.5000e-03	0.6465	-2.909881	0.000253	2.526466	0.855990	0.020165
  19	9.0000e-03	0.6882	-2.599332	0.000778	7.781515	2.636449	0.062110
  20	9.5000e-03	0.7283	-2.333148	0.000667	6.669870	2.259813	0.053237
  21	1.0000e-02	0.7716	-2.062930	0.000677	6.770929	2.294053	0.054044
  22	1.0500e-02	0.8198	-1.776580	0.000718	7.175163	2.431011	0.057270
  23	1.1000e-02	0.8615	-1.623322	0.000384	3.840228	1.301105	0.030652
  24	1.1500e-02	0.9000	-1.466031	0.000394	3.941287	1.335344	0.031458
  25	1.2000e-02	0.9240	-1.264376	0.000505	5.052932	1.711980	0.040331
  26	1.2500e-02	0.9802	-1.014324	0.000627	6.265636	2.122855	0.050010
  27	1.3000e-02	1.0235	-0.574717	0.001102	11.015392	3.732116	0.087922
  28	1.3500e-02	1.0476	-0.223837	0.000879	8.792102	2.978845	0.070176
  29	1.4000e-02	1.0893	-0.018149	0.000515	5.153991	1.746219	0.041138
  30	1.4500e-02	1.1278	0.191572	0.000526	5.255049	1.780459	0.041944
  31	1.5000e-02	1.1695	0.457757	0.000667	6.669870	2.259813	0.053237
  32	1.5500e-02	1.2112	0.703776	0.000616	6.164577	2.088615	0.049204
  33	1.6000e-02	1.2481	0.917530	0.000536	5.356108	1.814698	0.042751
  34	1.6500e-02	1.2978	1.179681	0.000657	6.568812	2.225574	0.052430
  35	1.7000e-02	1.3331	1.534594	0.000889	8.893160	3.013084	0.070983
  36	1.7500e-02	1.3812	1.587024	0.000131	1.313762	0.445115	0.010486
  37	1.8000e-02	1.4005	1.833043	0.000616	6.164577	2.088615	0.049204
  38	1.8500e-02	1.4502	2.204088	0.000930	9.297395	3.150043	0.074209
  39	1.9000e-02	1.4951	2.369445	0.000414	4.143404	1.403823	0.033071
  40	1.9500e-02	1.5256	2.651762	0.000707	7.074105	2.396772	0.056463
  41	2.0000e-02	1.5705	2.986510	0.000839	8.387867	2.841886	0.066949
  42	2.0500e-02	1.6171	3.252694	0.000667	6.669870	2.259813	0.053237
  43	2.1000e-02	1.6475	3.547110	0.000738	7.377281	2.499490	0.058883
  44	2.1500e-02	1.6812	3.825394	0.000697	6.973046	2.362532	0.055657
  45	2.2000e-02	1.7374	4.018983	0.000485	4.850815	1.643501	0.038718
  46	2.2500e-02	1.7727	4.321465	0.000758	7.579398	2.567970	0.060496
  47	2.3000e-02	1.8176	4.611848	0.000728	7.276222	2.465251	0.058077
  48	2.3500e-02	1.8449	4.813503	0.000505	5.052932	1.711980	0.040331
  49	2.4000e-02	1.8978	4.950629	0.000344	3.435994	1.164146	0.027425
  50	2.4500e-02	1.9347	5.297475	0.000869	8.691043	2.944605	0.069369
  51	2.5000e-02	1.9700	5.438633	0.000354	3.537052	1.198386	0.028232
  52	2.5500e-02	2.0165	5.805645	0.000920	9.196336	3.115803	0.073402
  53	2.6000e-02	2.0502	6.124260	0.000798	7.983632	2.704928	0.063723
  54	2.6500e-02	2.0871	6.301717	0.000445	4.446580	1.506542	0.035491
  55	2.7000e-02	2.1368	6.511438	0.000526	5.255049	1.780459	0.041944
  56	2.7500e-02	2.1705	6.858284	0.000869	8.691043	2.944605	0.069369
  57	2.8000e-02	2.2106	6.999443	0.000354	3.537052	1.198386	0.028232
  58	2.8500e-02	2.2459	7.439050	0.001102	11.015392	3.732116	0.087922
  59	2.9000e-02	2.2973	7.560043	0.000303	3.031759	1.027188	0.024199
  60	2.9500e-02	2.3310	7.914956	0.000889	8.893160	3.013084	0.070983
  61	3.0000e-02	2.3807	8.181141	0.000667	6.669870	2.259813	0.053237
  62	3.0500e-02	2.4096	8.491689	0.000778	7.781515	2.636449	0.062110
  63	3.1000e-02	2.4432	8.729642	0.000596	5.962460	2.020136	0.047591
  64	3.1500e-02	2.4898	8.882900	0.000384	3.840228	1.301105	0.030652
  65	3.2000e-02	2.5283	9.157150	0.000687	6.871987	2.328292	0.054850
  66	3.2500e-02	2.5716	9.298309	0.000354	3.537052	1.198386	0.028232
  67	3.3000e-02	2.6149	9.665321	0.000920	9.196336	3.115803	0.073402
  68	3.3500e-02	2.6518	9.875042	0.000526	5.255049	1.780459	0.041944
  69	3.4000e-02	2.6967	10.064598	0.000475	4.749756	1.609261	0.037911
  70	3.4500e-02	2.7288	10.371113	0.000768	7.680457	2.602209	0.061303
  71	3.5000e-02	2.7737	10.677629	0.000768	7.680457	2.602209	0.061303
  72	3.5500e-02	2.8154	10.871217	0.000485	4.850815	1.643501	0.038718
  73	3.6000e-02	2.8507	11.226130	0.000889	8.893160	3.013084	0.070983
  74	3.6500e-02	2.8924	11.500381	0.000687	6.871987	2.328292	0.054850
  75	3.7000e-02	2.9325	11.766565	0.000667	6.669870	2.259813	0.053237
  76	3.7500e-02	2.9775	11.992419	0.000566	5.659284	1.917417	0.045171
  77	3.8000e-02	3.0208	12.282802	0.000728	7.276222	2.465251	0.058077
  78	3.8500e-02	3.0545	12.581251	0.000748	7.478339	2.533730	0.059690
  79	3.9000e-02	3.0994	12.738542	0.000394	3.941287	1.335344	0.031458
  80	3.9500e-02	3.1266	13.198315	0.001152	11.520685	3.903314	0.091955
  81	4.0000e-02	3.1716	13.508864	0.000778	7.781515	2.636449	0.062110
  82	4.0500e-02	3.2165	13.803280	0.000738	7.377281	2.499490	0.058883
  83	4.1000e-02	3.2662	13.871843	0.000172	1.717997	0.582073	0.013713
  84	4.1500e-02	3.2967	14.158193	0.000718	7.175163	2.431011	0.057270
  85	4.2000e-02	3.3352	14.388079	0.000576	5.760342	1.951657	0.045977
  86	4.2500e-02	3.3769	14.577635	0.000475	4.749756	1.609261	0.037911
  87	4.3000e-02	3.4154	14.993044	0.001041	10.409040	3.526678	0.083082
  88	4.3500e-02	3.4459	15.460883	0.001172	11.722802	3.971793	0.093568
  89	4.4000e-02	3.4892	15.690770	0.000576	5.760342	1.951657	0.045977
  90	4.4500e-02	3.5309	15.735134	0.000111	1.111645	0.376636	0.008873
  91	4.5000e-02	3.5774	15.944855	0.000526	5.255049	1.780459	0.041944
  92	4.5500e-02	3.6175	16.356231	0.001031	10.307981	3.492439	0.082275
  93	4.6000e-02	3.6480	16.569986	0.000536	5.356108	1.814698	0.042751
  94	4.6500e-02	3.6913	16.832137	0.000657	6.568812	2.225574	0.052430
  95	4.7000e-02	3.7330	17.215281	0.000960	9.600571	3.252761	0.076629
  96	4.7500e-02	3.7748	17.420969	0.000515	5.153991	1.746219	0.041138
  97	4.8000e-02	3.8117	17.594393	0.000435	4.345521	1.472303	0.034685
  98	4.8500e-02	3.8566	17.812180	0.000546	5.457167	1.848938	0.043557
  99	4.9000e-02	3.8871	18.219523	0.001021	10.206923	3.458199	0.081469
 100	4.9500e-02	3.9304	18.578469	0.000899	8.994219	3.047324	0.071789
 101	5.0000e-02	3.9737	18.856753	0.000697	6.973046	2.362532	0.055657
 102	5.0500e-02	4.0138	19.058407	0.000505	5.052932	1.711980	0.040331
 103	5.1000e-02	4.0491	19.332658	0.000687	6.871987	2.328292	0.054850
 104	5.1500e-02	4.0796	19.667405	0.000839	8.387867	2.841886	0.066949
 105	5.2000e-02	4.1229	19.925524	0.000647	6.467753	2.191334	0.051624
 106	5.2500e-02	4.1694	20.090881	0.000414	4.143404	1.403823	0.033071
 107	5.3000e-02	4.2111	20.474025	0.000960	9.600571	3.252761	0.076629
 108	5.3500e-02	4.2480	20.728110	0.000637	6.366694	2.157094	0.050817
 109	5.4000e-02	4.2897	21.030593	0.000758	7.579398	2.567970	0.060496
 110	5.4500e-02	4.3266	21.296777	0.000667	6.669870	2.259813	0.053237
 111	5.5000e-02	4.3667	21.373406	0.000192	1.920114	0.650552	0.015326
 112	5.5500e-02	4.4229	21.683955	0.000778	7.781515	2.636449	0.062110
 113	5.6000e-02	4.4453	22.014669	0.000829	8.286808	2.807647	0.066143
 114	5.6500e-02	4.4902	22.301019	0.000718	7.175163	2.431011	0.057270
 115	5.7000e-02	4.5352	22.518806	0.000546	5.457167	1.848938	0.043557
 116	5.7500e-02	4.5721	22.784991	0.000667	6.669870	2.259813	0.053237
 117	5.8000e-02	4.6106	23.172168	0.000970	9.701629	3.287001	0.077435
 118	5.8500e-02	4.6619	23.313326	0.000354	3.537052	1.198386	0.028232
 119	5.9000e-02	4.6988	23.640007	0.000819	8.185750	2.773407	0.065336
 120	5.9500e-02	4.7357	23.978788	0.000849	8.488926	2.876126	0.067756
 121	6.0000e-02	4.7758	24.220774	0.000606	6.063518	2.054376	0.048397
 122	6.0500e-02	4.8111	24.587786	0.000920	9.196336	3.115803	0.073402
 123	6.1000e-02	4.8544	24.825738	0.000596	5.962460	2.020136	0.047591
 124	6.1500e-02	4.8993	25.035460	0.000526	5.255049	1.780459	0.041944
 125	6.2000e-02	4.9426	25.362141	0.000819	8.185750	2.773407	0.065336
 126	6.2500e-02	4.9715	25.583961	0.000556	5.558225	1.883178	0.044364
 127	6.3000e-02	5.0180	25.870311	0.000718	7.175163	2.431011	0.057270
 128	6.3500e-02	5.0533	26.067933	0.000495	4.951873	1.677740	0.039524
 129	6.4000e-02	5.0934	26.559971	0.001233	12.329154	4.177230	0.098408
 130	6.4500e-02	5.1319	26.781791	0.000556	5.558225	1.883178	0.044364
 131	6.5000e-02	5.1704	26.874553	0.000232	2.324349	0.787511	0.018552
 132	6.5500e-02	5.2089	27.273829	0.001000	10.004805	3.389720	0.079855
 133	6.6000e-02	5.2474	27.479517	0.000515	5.153991	1.746219	0.041138
 134	6.6500e-02	5.2972	27.834430	0.000889	8.893160	3.013084	0.070983
 135	6.7000e-02	5.3164	27.955423	0.000303	3.031759	1.027188	0.024199
 136	6.7500e-02	5.3726	28.253872	0.000748	7.478339	2.533730	0.059690
 137	6.8000e-02	5.4239	28.572487	0.000798	7.983632	2.704928	0.063723
 138	6.8500e-02	5.4512	28.923367	0.000879	8.792102	2.978845	0.070176
 139	6.9000e-02	5.4897	29.286346	0.000910	9.095278	3.081563	0.072596
 140	6.9500e-02	5.5314	29.423471	0.000344	3.435994	1.164146	0.027425
 141	7.0000e-02	5.5699	29.850979	0.001071	10.712216	3.629397	0.085502
 142	7.0500e-02	5.6052	29.931641	0.000202	2.021173	0.684792	0.016132
 143	7.1000e-02	5.6533	30.326885	0.000990	9.903747	3.355480	0.079049
 144	7.1500e-02	5.6902	30.629367	0.000758	7.579398	2.567970	0.060496
 145	7.2000e-02	5.7207	30.927817	0.000748	7.478339	2.533730	0.059690
 146	7.2500e-02	5.7768	31.282729	0.000889	8.893160	3.013084	0.070983
 147	7.3000e-02	5.8186	31.427921	0.000364	3.638111	1.232625	0.029038
 148	7.3500e-02	5.8458	31.770734	0.000859	8.589984	2.910365	0.068563
 149	7.4000e-02	5.8923	32.198243	0.001071	10.712216	3.629397	0.085502
 150	7.4500e-02	5.9308	32.327302	0.000323	3.233876	1.095667	0.025812
 151	7.5000e-02	5.9790	32.520891	0.000485	4.850815	1.643501	0.038718
 152	7.5500e-02	6.0175	32.779009	0.000647	6.467753	2.191334	0.051624
 153	7.6000e-02	6.0447	33.089557	0.000778	7.781515	2.636449	0.062110
 154	7.6500e-02	6.0945	33.367841	0.000697	6.973046	2.362532	0.055657
 155	7.7000e-02	6.1266	33.746953	0.000950	9.499512	3.218522	0.075822
 156	7.7500e-02	6.1699	34.081700	0.000839	8.387867	2.841886	0.066949
 157	7.8000e-02	6.2148	34.452745	0.000930	9.297395	3.150043	0.074209
 158	7.8500e-02	6.2549	34.614069	0.000404	4.042346	1.369584	0.032265
 159	7.9000e-02	6.2870	34.795558	0.000455	4.547639	1.540782	0.036298
 160	7.9500e-02	6.3319	35.005279	0.000526	5.255049	1.780459	0.041944
 161	8.0000e-02	6.3672	35.323894	0.000798	7.983632	2.704928	0.063723
 162	8.0500e-02	6.4121	35.662674	0.000849	8.488926	2.876126	0.067756
 163	8.1000e-02	6.4602	36.186977	0.001314	13.137623	4.451147	0.104861
 164	8.1500e-02	6.4987	36.186977	0.000000	0.000000	0.000000	0.000000
 165	8.2000e-02	6.5308	36.316036	0.000323	3.233876	1.095667	0.025812
 166	8.2500e-02	6.5822	36.582221	0.000667	6.669870	2.259813	0.053237
 167	8.3000e-02	6.5998	36.969398	0.000970	9.701629	3.287001	0.077435
 168	8.3500e-02	6.6544	37.199285	0.000576	5.760342	1.951657	0.045977
 169	8.4000e-02	6.6913	37.614694	0.001041	10.409040	3.526678	0.083082
 170	8.4500e-02	6.7249	37.747786	0.000333	3.334935	1.129907	0.026618
 171	8.5000e-02	6.7731	38.090600	0.000859	8.589984	2.910365	0.068563
 172	8.5500e-02	6.8036	38.417281	0.000819	8.185750	2.773407	0.065336
 173	8.6000e-02	6.8485	38.675399	0.000647	6.467753	2.191334	0.051624
 174	8.6500e-02	6.8854	38.893186	0.000546	5.457167	1.848938	0.043557
 175	8.7000e-02	6.9287	39.304562	0.001031	10.307981	3.492439	0.082275
 176	8.7500e-02	6.9736	39.554615	0.000627	6.265636	2.122855	0.050010
 177	8.8000e-02	7.0025	39.760303	0.000515	5.153991	1.746219	0.041138
 178	8.8500e-02	7.0506	40.014388	0.000637	6.366694	2.157094	0.050817
 179	8.9000e-02	7.0907	40.288638	0.000687	6.871987	2.328292	0.054850
 180	8.9500e-02	7.1308	40.570955	0.000707	7.074105	2.396772	0.056463
 181	9.0000e-02	7.1773	40.901669	0.000829	8.286808	2.807647	0.066143
 182	9.0500e-02	7.2078	41.071060	0.000424	4.244463	1.438063	0.033878
 183	9.1000e-02	7.2463	41.369509	0.000748	7.478339	2.533730	0.059690
 184	9.1500e-02	7.2896	41.623594	0.000637	6.366694	2.157094	0.050817
 185	9.2000e-02	7.3410	41.990606	0.000920	9.196336	3.115803	0.073402
 186	9.2500e-02	7.3714	42.139831	0.000374	3.739170	1.266865	0.029845
 187	9.3000e-02	7.4116	42.381817	0.000606	6.063518	2.054376	0.048397
 188	9.3500e-02	7.4485	42.926285	0.001364	13.642916	4.622345	0.108894
 189	9.4000e-02	7.4821	43.172304	0.000616	6.164577	2.088615	0.049204
 190	9.4500e-02	7.5255	43.265065	0.000232	2.324349	0.787511	0.018552
 191	9.5000e-02	7.5704	43.591746	0.000819	8.185750	2.773407	0.065336
 192	9.5500e-02	7.6089	43.942626	0.000879	8.792102	2.978845	0.070176
 193	9.6000e-02	7.6506	44.160413	0.000546	5.457167	1.848938	0.043557
 194	9.6500e-02	7.6939	44.495160	0.000839	8.387867	2.841886	0.066949
 195	9.7000e-02	7.7324	44.620186	0.000313	3.132818	1.061427	0.025005
 196	9.7500e-02	7.7741	44.987198	0.000920	9.196336	3.115803	0.073402
 197	9.8000e-02	7.8078	45.196919	0.000526	5.255049	1.780459	0.041944
 198	9.8500e-02	7.8543	45.571998	0.000940	9.398453	3.184282	0.075016
 199	9.9000e-02	7.8944	45.652660	0.000202	2.021173	0.684792	0.016132
 200	9.9500e-02	7.9313	45.999506	0.000869	8.691043	2.944605	0.069369
 201	1.0000e-01	7.9618	46.326187	0.000819	8.185750	2.773407	0.065336
 202	1.0050e-01	8.0019	46.636736	0.000778	7.781515	2.636449	0.062110
 203	1.0100e-01	8.0516	46.975516	0.000849	8.488926	2.876126	0.067756
 204	1.0150e-01	8.0885	47.157005	0.000455	4.547639	1.540782	0.036298
 205	1.0200e-01	8.1335	47.277998	0.000303	3.031759	1.027188	0.024199
 206	1.0250e-01	8.1768	47.874897	0.001496	14.956679	5.067460	0.119380
 207	1.0300e-01	8.2024	48.112850	0.000596	5.962460	2.020136	0.047591
 208	1.0350e-01	8.2458	48.471796	0.000899	8.994219	3.047324	0.071789
 209	1.0400e-01	8.2939	48.504060	0.000081	0.808469	0.273917	0.006453
 210	1.0450e-01	8.3260	48.733947	0.000576	5.760342	1.951657	0.045977
 211	1.0500e-01	8.3693	48.975933	0.000606	6.063518	2.054376	0.048397
 212	1.0550e-01	8.4126	49.467971	0.001233	12.329154	4.177230	0.098408
 213	1.0600e-01	8.4431	49.584931	0.000293	2.930701	0.992948	0.023392
 214	1.0650e-01	8.4880	49.943877	0.000899	8.994219	3.047324	0.071789
 215	1.0700e-01	8.5281	50.153598	0.000526	5.255049	1.780459	0.041944
 216	1.0750e-01	8.5666	50.448014	0.000738	7.377281	2.499490	0.058883
 217	1.0800e-01	8.6051	50.637570	0.000475	4.749756	1.609261	0.037911
 218	1.0850e-01	8.6452	51.105409	0.001172	11.722802	3.971793	0.093568
 219	1.0900e-01	8.6821	51.335296	0.000576	5.760342	1.951657	0.045977
 220	1.0950e-01	8.7334	51.561149	0.000566	5.659284	1.917417	0.045171
 221	1.1000e-01	8.7719	51.871698	0.000778	7.781515	2.636449	0.062110
 222	1.1050e-01	8.8104	52.081419	0.000526	5.255049	1.780459	0.041944
 223	1.1100e-01	8.8425	52.379868	0.000748	7.478339	2.533730	0.059690
 224	1.1150e-01	8.8923	52.750913	0.000930	9.297395	3.150043	0.074209
 225	1.1200e-01	8.9404	52.900138	0.000374	3.739170	1.266865	0.029845
 226	1.1250e-01	8.9757	53.307481	0.001021	10.206923	3.458199	0.081469
 227	1.1300e-01	9.0094	53.428474	0.000303	3.031759	1.027188	0.024199
 228	1.1350e-01	9.0431	53.710791	0.000707	7.074105	2.396772	0.056463
 229	1.1400e-01	9.0992	54.057637	0.000869	8.691043	2.944605	0.069369
 230	1.1450e-01	9.1409	54.339954	0.000707	7.074105	2.396772	0.056463
 231	1.1500e-01	9.1682	54.702933	0.000910	9.095278	3.081563	0.072596
 232	1.1550e-01	9.2099	54.896522	0.000485	4.850815	1.643501	0.038718
 233	1.1600e-01	9.2516	55.098177	0.000505	5.052932	1.711980	0.040331
 234	1.1650e-01	9.2853	55.380493	0.000707	7.074105	2.396772	0.056463
 235	1.1700e-01	9.3382	55.699108	0.000798	7.983632	2.704928	0.063723
 236	1.1750e-01	9.3703	55.937061	0.000596	5.962460	2.020136	0.047591
 237	1.1800e-01	9.4104	56.070153	0.000333	3.334935	1.129907	0.026618
 238	1.1850e-01	9.4505	56.517827	0.001122	11.217509	3.800595	0.089535
 239	1.1900e-01	9.4890	56.796111	0.000697	6.973046	2.362532	0.055657
 240	1.1950e-01	9.5259	57.118759	0.000808	8.084691	2.739168	0.064530
 241	1.2000e-01	9.5757	57.489804	0.000930	9.297395	3.150043	0.074209
 242	1.2050e-01	9.6158	57.626929	0.000344	3.435994	1.164146	0.027425
 243	1.2100e-01	9.6543	57.917312	0.000728	7.276222	2.465251	0.058077
 244	1.2150e-01	9.6928	58.082670	0.000414	4.143404	1.403823	0.033071
 245	1.2200e-01	9.7313	58.324655	0.000606	6.063518	2.054376	0.048397
 246	1.2250e-01	9.7666	58.639237	0.000788	7.882574	2.670688	0.062916
 247	1.2300e-01	9.8131	58.917521	0.000697	6.973046	2.362532	0.055657
 248	1.2350e-01	9.8564	59.123209	0.000515	5.153991	1.746219	0.041138
 249	1.2400e-01	9.8837	59.389393	0.000667	6.669870	2.259813	0.053237
 250	1.2450e-01	9.9238	59.587015	0.000495	4.951873	1.677740	0.039524
 251	1.2500e-01	9.9655	60.107285	0.001304	13.036564	4.416908	0.104054
 252	1.2550e-01	10.0136	60.208112	0.000253	2.526466	0.855990	0.020165
 253	1.2600e-01	10.0505	60.385569	0.000445	4.446580	1.506542	0.035491
 254	1.2650e-01	10.0842	60.889706	0.001263	12.632330	4.279949	0.100827
 255	1.2700e-01	10.1371	61.087328	0.000495	4.951873	1.677740	0.039524
 256	1.2750e-01	10.1708	61.377711	0.000728	7.276222	2.465251	0.058077
 257	1.2800e-01	10.2061	61.599532	0.000556	5.558225	1.883178	0.044364
 258	1.2850e-01	10.2478	61.906047	0.000768	7.680457	2.602209	0.061303
 259	1.2900e-01	10.2895	62.006874	0.000253	2.526466	0.855990	0.020165
 260	1.2950e-01	10.3329	62.357754	0.000879	8.792102	2.978845	0.070176
 261	1.3000e-01	10.3858	62.672336	0.000788	7.882574	2.670688	0.062916
