»»»»»»»»»»»»»»»»»»»»»»»»»»»»»»»»»»»» Hysteresis ««««««««««««««««««««««««««««««««««««
»»»  Executed Version:	5.48.1
»»»  Vision Version:	5.48.4 (R)
»»»  Vision Compiled:	9/18/24
»»»  Driver Version:	5.47.0
»»»  Windows Version:	Windows 8 or 8.1
»»»  Processor Information:	x86 (AMD or Intel) - 32 Processors
»»»  Tester Name:	PMF21124-494 (100V)
»»»  Tester S/N:	PMF21124-494
»»»  Internal Amp Type:	100V RevK 270k
»»»  Internal Amp S/N:	iAB2-596/K     
»»»  Execution Count:	1
»»»»»»»»»»»»»»»»»»»»»»»»»»»»»»»»»»»»»»»»»»««««««««««««««««««««««««««««««««««««««««««

Stored:	6/18/2025 - 12:35:31
Configured:	06/18/25 09:47:30 AM
Executed:	06/18/25 12:35:02 PM

»»»»»»»»»»»»»»»»»»»»»»»»»»»»»»»»»»» Sample Info ««««««««««««««««««««««««««««««««««««
Sample Name:	
Lot Name:	
Wafer Name:	
Die Row/Column:	0/0
Capacitor Number:	0
Sample Area (cm2):	1.00e-04
Sample Thickness (microns):	3.00e-01

Amplifier:	Internal

»»»»»»»»»»»»»»»»»»»»»»»»»»»»»»»»»»» Tester Info «««««««««««««««««««««««««««««««««««
Tester Name:	PMF21124-494 (100V)
Tester Serial Number:	PMF21124-494
Return Signal Amp. Level:	0.19 [Index: 3]

»»»»»»»»»»»»»»»»»»»»»»»»»»»»»»»» Hysteresis Info ««««««««««««««««««««««««««««««««««
Task Name:	Hyst-554
Volts:	20.00
Field:	666.67 (kV/cm)
DCBias:	0.00
DCField:	0.00 (kV/cm)
Hysteresis Period (ms):	1.00e+00
Preset:	Enabled
Preset Delay (ms):	1.00e+03
Profile:	Standard Bipolar

»»»»»»»»»»»»»»»»»»»»»»»»»»»»»»»»»»»»»» Data «««««««««««««««««««««««««««««««««««««««
Points:	2001

Valid Data

Point	Time (ms)	Drive Voltage	Measured Polarization (uC/cm2)	Capacitance (uF)	Normalized Capacitance (uF/cm2)	Dielectric Constant	Instantaneous Current (mA)
   1	0.0000e+00	0.0225	-7.997635	0.001334	13.338668	4.519263	0.106474
   2	5.0000e-04	0.0241	-7.465266	0.001334	13.338668	4.519263	0.106474
   3	1.0000e-03	0.0578	-7.545927	-0.000202	-2.021010	-0.684737	-0.016132
   4	1.5000e-03	0.0930	-7.634656	-0.000222	-2.223111	-0.753211	-0.017746
   5	2.0000e-03	0.1251	-7.307975	0.000819	8.185092	2.773184	0.065336
   6	2.5000e-03	0.1684	-7.186982	0.000303	3.031515	1.027105	0.024199
   7	3.0000e-03	0.2053	-7.078088	0.000273	2.728364	0.924395	0.021779
   8	3.5000e-03	0.2567	-6.880466	0.000495	4.951475	1.677605	0.039524
   9	4.0000e-03	0.2872	-6.408594	0.001182	11.822910	4.005710	0.094375
  10	4.5000e-03	0.3337	-6.392461	0.000040	0.404202	0.136947	0.003226
  11	5.0000e-03	0.3674	-6.255336	0.000344	3.435718	1.164053	0.027425
  12	5.5000e-03	0.4107	-6.041582	0.000536	5.355677	1.814553	0.042751
  13	6.0000e-03	0.4428	-5.811695	0.000576	5.759879	1.951500	0.045977
  14	6.5000e-03	0.4893	-5.489047	0.000808	8.084041	2.738947	0.064530
  15	7.0000e-03	0.5310	-5.323690	0.000414	4.143071	1.403710	0.033071
  16	7.5000e-03	0.5695	-5.073638	0.000627	6.265132	2.122684	0.050010
  17	8.0000e-03	0.6032	-4.920380	0.000384	3.839920	1.301000	0.030652
  18	8.5000e-03	0.6513	-4.581600	0.000849	8.488243	2.875895	0.067756
  19	9.0000e-03	0.6994	-4.444475	0.000344	3.435718	1.164053	0.027425
  20	9.5000e-03	0.7331	-4.206522	0.000596	5.961980	2.019974	0.047591
  21	1.0000e-02	0.7732	-3.976635	0.000576	5.759879	1.951500	0.045977
  22	1.0500e-02	0.8085	-3.621723	0.000889	8.892445	3.012842	0.070983
  23	1.1000e-02	0.8486	-3.516862	0.000263	2.627313	0.890158	0.020972
  24	1.1500e-02	0.8936	-3.456366	0.000152	1.515758	0.513553	0.012099
  25	1.2000e-02	0.9305	-3.420068	0.000091	0.909455	0.308132	0.007260
  26	1.2500e-02	0.9690	-2.895765	0.001314	13.136567	4.450789	0.104861
  27	1.3000e-02	1.0059	-2.536819	0.000899	8.993496	3.047079	0.071789
  28	1.3500e-02	1.0476	-2.492455	0.000111	1.111556	0.376605	0.008873
  29	1.4000e-02	1.0893	-2.246436	0.000616	6.164081	2.088447	0.049204
  30	1.4500e-02	1.1246	-2.032682	0.000536	5.355677	1.814553	0.042751
  31	1.5000e-02	1.1679	-1.855225	0.000445	4.446223	1.506421	0.035491
  32	1.5500e-02	1.2160	-1.657604	0.000495	4.951475	1.677605	0.039524
  33	1.6000e-02	1.2497	-1.484180	0.000435	4.345172	1.472184	0.034685
  34	1.6500e-02	1.2898	-1.326889	0.000394	3.940970	1.335237	0.031458
  35	1.7000e-02	1.3315	-0.955844	0.000930	9.296647	3.149789	0.074209
  36	1.7500e-02	1.3732	-0.734024	0.000556	5.557778	1.883026	0.044364
  37	1.8000e-02	1.4117	-0.621097	0.000283	2.829414	0.958632	0.022585
  38	1.8500e-02	1.4486	-0.354913	0.000667	6.669334	2.259632	0.053237
  39	1.9000e-02	1.4887	-0.250052	0.000263	2.627313	0.890158	0.020972
  40	1.9500e-02	1.5353	-0.064530	0.000465	4.648324	1.574895	0.037105
  41	2.0000e-02	1.5754	0.120993	0.000465	4.648324	1.574895	0.037105
  42	2.0500e-02	1.6155	0.322648	0.000505	5.052526	1.711842	0.040331
  43	2.1000e-02	1.6636	0.508170	0.000465	4.648324	1.574895	0.037105
  44	2.1500e-02	1.6860	0.846951	0.000849	8.488243	2.875895	0.067756
  45	2.2000e-02	1.7246	1.238161	0.000980	9.801900	3.320974	0.078242
  46	2.2500e-02	1.7711	1.383353	0.000364	3.637819	1.232526	0.029038
  47	2.3000e-02	1.8224	1.536611	0.000384	3.839920	1.301000	0.030652
  48	2.3500e-02	1.8481	1.883457	0.000869	8.690344	2.944368	0.069369
  49	2.4000e-02	1.8882	2.044781	0.000404	4.042021	1.369474	0.032265
  50	2.4500e-02	1.9283	2.194006	0.000374	3.738869	1.266763	0.029845
  51	2.5000e-02	1.9700	2.327098	0.000333	3.334667	1.129816	0.026618
  52	2.5500e-02	2.0149	2.621514	0.000738	7.376688	2.499289	0.058883
  53	2.6000e-02	2.0470	2.972394	0.000879	8.791395	2.978605	0.070176
  54	2.6500e-02	2.0951	3.000625	0.000071	0.707354	0.239658	0.005646
  55	2.7000e-02	2.1352	3.137751	0.000344	3.435718	1.164053	0.027425
  56	2.7500e-02	2.1641	3.391836	0.000637	6.366182	2.156921	0.050817
  57	2.8000e-02	2.2090	3.835477	0.001112	11.115557	3.766053	0.088728
  58	2.8500e-02	2.2475	3.847576	0.000030	0.303152	0.102711	0.002420
  59	2.9000e-02	2.2892	4.061330	0.000536	5.355677	1.814553	0.042751
  60	2.9500e-02	2.3245	4.347680	0.000717	7.174587	2.430816	0.057270
  61	3.0000e-02	2.3711	4.670328	0.000808	8.084041	2.738947	0.064530
  62	3.0500e-02	2.4112	4.839718	0.000424	4.244122	1.437947	0.033878
  63	3.1000e-02	2.4641	5.061539	0.000556	5.557778	1.883026	0.044364
  64	3.1500e-02	2.4914	5.162366	0.000253	2.526263	0.855921	0.020165
  65	3.2000e-02	2.5299	5.493080	0.000829	8.286142	2.807421	0.066143
  66	3.2500e-02	2.5748	5.759265	0.000667	6.669334	2.259632	0.053237
  67	3.3000e-02	2.6117	5.872192	0.000283	2.829414	0.958632	0.022585
  68	3.3500e-02	2.6534	6.473123	0.001506	15.056527	5.101289	0.120186
  69	3.4000e-02	2.6919	6.469090	-0.000010	-0.101051	-0.034237	-0.000807
  70	3.4500e-02	2.7288	6.408594	-0.000152	-1.515758	-0.513553	-0.012099
  71	3.5000e-02	2.7705	6.815937	0.001021	10.206102	3.457921	0.081469
  72	3.5500e-02	2.8154	7.009525	0.000485	4.850425	1.643368	0.038718
  73	3.6000e-02	2.8555	7.070022	0.000152	1.515758	0.513553	0.012099
  74	3.6500e-02	2.8924	7.428968	0.000899	8.993496	3.047079	0.071789
  75	3.7000e-02	2.9245	7.755649	0.000819	8.185092	2.773184	0.065336
  76	3.7500e-02	2.9726	8.009734	0.000637	6.366182	2.156921	0.050817
  77	3.8000e-02	3.0127	8.231554	0.000556	5.557778	1.883026	0.044364
  78	3.8500e-02	3.0480	8.271885	0.000101	1.010505	0.342368	0.008066
  79	3.9000e-02	3.0930	8.638897	0.000920	9.195597	3.115553	0.073402
  80	3.9500e-02	3.1379	8.856685	0.000546	5.456728	1.848789	0.043557
  81	4.0000e-02	3.1732	9.106737	0.000627	6.265132	2.122684	0.050010
  82	4.0500e-02	3.2165	9.453583	0.000869	8.690344	2.944368	0.069369
  83	4.1000e-02	3.2550	9.433418	-0.000051	-0.505253	-0.171184	-0.004033
  84	4.1500e-02	3.2903	9.663304	0.000576	5.759879	1.951500	0.045977
  85	4.2000e-02	3.3256	9.780264	0.000293	2.930465	0.992868	0.023392
  86	4.2500e-02	3.3737	9.949654	0.000424	4.244122	1.437947	0.033878
  87	4.3000e-02	3.4074	10.082747	0.000333	3.334667	1.129816	0.026618
  88	4.3500e-02	3.4443	10.369097	0.000717	7.174587	2.430816	0.057270
  89	4.4000e-02	3.4828	10.715943	0.000869	8.690344	2.944368	0.069369
  90	4.4500e-02	3.5357	11.147485	0.001081	10.812405	3.663342	0.086308
  91	4.5000e-02	3.5630	11.449967	0.000758	7.578789	2.567763	0.060496
  92	4.5500e-02	3.6143	11.554827	0.000263	2.627313	0.890158	0.020972
  93	4.6000e-02	3.6577	11.587092	0.000081	0.808404	0.273895	0.006453
  94	4.6500e-02	3.6913	11.909740	0.000808	8.084041	2.738947	0.064530
  95	4.7000e-02	3.7314	12.179958	0.000677	6.770385	2.293868	0.054044
  96	4.7500e-02	3.7716	12.268686	0.000222	2.223111	0.753211	0.017746
  97	4.8000e-02	3.8052	12.514705	0.000616	6.164081	2.088447	0.049204
  98	4.8500e-02	3.8582	12.744592	0.000576	5.759879	1.951500	0.045977
  99	4.9000e-02	3.8871	12.760724	0.000040	0.404202	0.136947	0.003226
 100	4.9500e-02	3.9207	13.272928	0.001283	12.833415	4.348079	0.102441
 101	5.0000e-02	3.9641	13.591542	0.000798	7.982991	2.704710	0.063723
 102	5.0500e-02	4.0154	13.781098	0.000475	4.749374	1.609132	0.037911
 103	5.1000e-02	4.0491	13.885958	0.000263	2.627313	0.890158	0.020972
 104	5.1500e-02	4.0924	13.978720	0.000232	2.324162	0.787447	0.018552
 105	5.2000e-02	4.1341	14.067448	0.000222	2.223111	0.753211	0.017746
 106	5.2500e-02	4.1662	14.450592	0.000960	9.599799	3.252500	0.076629
 107	5.3000e-02	4.2079	14.728876	0.000697	6.972486	2.362342	0.055657
 108	5.3500e-02	4.2480	14.910366	0.000455	4.547273	1.540658	0.036298
 109	5.4000e-02	4.2913	15.103954	0.000485	4.850425	1.643368	0.038718
 110	5.4500e-02	4.3314	15.261245	0.000394	3.940970	1.335237	0.031458
 111	5.5000e-02	4.3731	15.688754	0.001071	10.711355	3.629105	0.085502
 112	5.5500e-02	4.4213	15.846044	0.000394	3.940970	1.335237	0.031458
 113	5.6000e-02	4.4469	16.063832	0.000546	5.456728	1.848789	0.043557
 114	5.6500e-02	4.4886	16.305818	0.000606	6.063031	2.054210	0.048397
 115	5.7000e-02	4.5239	16.628466	0.000808	8.084041	2.738947	0.064530
 116	5.7500e-02	4.5673	16.838187	0.000525	5.254627	1.780316	0.041944
 117	5.8000e-02	4.6138	16.850286	0.000030	0.303152	0.102711	0.002420
 118	5.8500e-02	4.6523	17.136636	0.000717	7.174587	2.430816	0.057270
 119	5.9000e-02	4.6956	17.342324	0.000515	5.153576	1.746079	0.041138
 120	5.9500e-02	4.7261	17.515747	0.000435	4.345172	1.472184	0.034685
 121	6.0000e-02	4.7774	17.826296	0.000778	7.780890	2.636237	0.062110
 122	6.0500e-02	4.8079	18.132811	0.000768	7.679839	2.602000	0.061303
 123	6.1000e-02	4.8528	18.407062	0.000687	6.871435	2.328105	0.054850
 124	6.1500e-02	4.8881	18.479658	0.000182	1.818909	0.616263	0.014519
 125	6.2000e-02	4.9378	18.818438	0.000849	8.488243	2.875895	0.067756
 126	6.2500e-02	4.9699	19.016060	0.000495	4.951475	1.677605	0.039524
 127	6.3000e-02	5.0148	19.270145	0.000637	6.366182	2.156921	0.050817
 128	6.3500e-02	5.0565	19.245947	-0.000061	-0.606303	-0.205421	-0.004840
 129	6.4000e-02	5.0854	19.322575	0.000192	1.919960	0.650500	0.015326
 130	6.4500e-02	5.1319	19.709753	0.000970	9.700849	3.286737	0.077435
 131	6.5000e-02	5.1720	20.036434	0.000819	8.185092	2.773184	0.065336
 132	6.5500e-02	5.2073	20.383280	0.000869	8.690344	2.944368	0.069369
 133	6.6000e-02	5.2555	20.697862	0.000788	7.881940	2.670474	0.062916
 134	6.6500e-02	5.2827	20.613167	-0.000212	-2.122061	-0.718974	-0.016939
 135	6.7000e-02	5.3261	21.068907	0.001142	11.418708	3.868763	0.091148
 136	6.7500e-02	5.3694	21.246363	0.000445	4.446223	1.506421	0.035491
 137	6.8000e-02	5.4063	21.456085	0.000525	5.254627	1.780316	0.041944
 138	6.8500e-02	5.4496	21.726302	0.000677	6.770385	2.293868	0.054044
 139	6.9000e-02	5.4929	21.859394	0.000333	3.334667	1.129816	0.026618
 140	6.9500e-02	5.5298	22.182042	0.000808	8.084041	2.738947	0.064530
 141	7.0000e-02	5.5763	22.343366	0.000404	4.042021	1.369474	0.032265
 142	7.0500e-02	5.6132	22.766842	0.001061	10.610304	3.594868	0.084695
 143	7.1000e-02	5.6469	22.891868	0.000313	3.132566	1.061342	0.025005
 144	7.1500e-02	5.6886	23.101589	0.000525	5.254627	1.780316	0.041944
 145	7.2000e-02	5.7319	23.270979	0.000424	4.244122	1.437947	0.033878
 146	7.2500e-02	5.7640	23.488766	0.000546	5.456728	1.848789	0.043557
 147	7.3000e-02	5.8121	23.682355	0.000485	4.850425	1.643368	0.038718
 148	7.3500e-02	5.8490	23.932407	0.000627	6.265132	2.122684	0.050010
 149	7.4000e-02	5.8907	24.186492	0.000637	6.366182	2.156921	0.050817
 150	7.4500e-02	5.9228	24.372015	0.000465	4.648324	1.574895	0.037105
 151	7.5000e-02	5.9661	24.666431	0.000738	7.376688	2.499289	0.058883
 152	7.5500e-02	6.0111	24.904384	0.000596	5.961980	2.019974	0.047591
 153	7.6000e-02	6.0512	25.380290	0.001192	11.923961	4.039947	0.095181
 154	7.6500e-02	6.0897	25.489183	0.000273	2.728364	0.924395	0.021779
 155	7.7000e-02	6.1314	25.473051	-0.000040	-0.404202	-0.136947	-0.003226
 156	7.7500e-02	6.1667	25.646474	0.000435	4.345172	1.472184	0.034685
 157	7.8000e-02	6.2164	25.848129	0.000505	5.052526	1.711842	0.040331
 158	7.8500e-02	6.2453	26.340167	0.001233	12.328163	4.176895	0.098408
 159	7.9000e-02	6.2934	26.352266	0.000030	0.303152	0.102711	0.002420
 160	7.9500e-02	6.3207	26.501491	0.000374	3.738869	1.266763	0.029845
 161	8.0000e-02	6.3704	26.812040	0.000778	7.780890	2.636237	0.062110
 162	8.0500e-02	6.4121	27.166952	0.000889	8.892445	3.012842	0.070983
 163	8.1000e-02	6.4522	27.663023	0.001243	12.429213	4.211131	0.099214
 164	8.1500e-02	6.4923	27.715454	0.000131	1.313657	0.445079	0.010486
 165	8.2000e-02	6.5228	27.800149	0.000212	2.122061	0.718974	0.016939
 166	8.2500e-02	6.5725	28.001804	0.000505	5.052526	1.711842	0.040331
 167	8.3000e-02	6.6110	28.304286	0.000758	7.578789	2.567763	0.060496
 168	8.3500e-02	6.6495	28.473676	0.000424	4.244122	1.437947	0.033878
 169	8.4000e-02	6.6864	28.755993	0.000707	7.073536	2.396579	0.056463
 170	8.4500e-02	6.7265	28.941516	0.000465	4.648324	1.574895	0.037105
 171	8.5000e-02	6.7747	29.090740	0.000374	3.738869	1.266763	0.029845
 172	8.5500e-02	6.8132	29.308528	0.000546	5.456728	1.848789	0.043557
 173	8.6000e-02	6.8485	29.546480	0.000596	5.961980	2.019974	0.047591
 174	8.6500e-02	6.8950	29.647308	0.000253	2.526263	0.855921	0.020165
 175	8.7000e-02	6.9239	30.010287	0.000909	9.094546	3.081316	0.072596
 176	8.7500e-02	6.9704	30.167578	0.000394	3.940970	1.335237	0.031458
 177	8.8000e-02	7.0153	30.441828	0.000687	6.871435	2.328105	0.054850
 178	8.8500e-02	7.0506	30.453928	0.000030	0.303152	0.102711	0.002420
 179	8.9000e-02	7.0907	30.861271	0.001021	10.206102	3.457921	0.081469
 180	8.9500e-02	7.1212	31.131488	0.000677	6.770385	2.293868	0.054044
 181	9.0000e-02	7.1693	31.373474	0.000606	6.063031	2.054210	0.048397
 182	9.0500e-02	7.1982	31.619493	0.000616	6.164081	2.088447	0.049204
 183	9.1000e-02	7.2559	31.813082	0.000485	4.850425	1.643368	0.038718
 184	9.1500e-02	7.2944	31.966340	0.000384	3.839920	1.301000	0.030652
 185	9.2000e-02	7.3313	32.309153	0.000859	8.589294	2.910132	0.068563
 186	9.2500e-02	7.3731	32.482576	0.000435	4.345172	1.472184	0.034685
 187	9.3000e-02	7.4100	32.692297	0.000525	5.254627	1.780316	0.041944
 188	9.3500e-02	7.4420	32.938316	0.000616	6.164081	2.088447	0.049204
 189	9.4000e-02	7.4934	33.164170	0.000566	5.658829	1.917263	0.045171
 190	9.4500e-02	7.5319	33.555380	0.000980	9.801900	3.320974	0.078242
 191	9.5000e-02	7.5752	33.611844	0.000141	1.414707	0.479316	0.011293
 192	9.5500e-02	7.6041	33.757035	0.000364	3.637819	1.232526	0.029038
 193	9.6000e-02	7.6474	34.007087	0.000627	6.265132	2.122684	0.050010
 194	9.6500e-02	7.6987	34.281338	0.000687	6.871435	2.328105	0.054850
 195	9.7000e-02	7.7356	34.426530	0.000364	3.637819	1.232526	0.029038
 196	9.7500e-02	7.7677	34.729012	0.000758	7.578789	2.567763	0.060496
 197	9.8000e-02	7.8110	34.983097	0.000637	6.366182	2.156921	0.050817
 198	9.8500e-02	7.8543	35.245249	0.000657	6.568283	2.225395	0.052430
 199	9.9000e-02	7.8864	35.333977	0.000222	2.223111	0.753211	0.017746
 200	9.9500e-02	7.9281	35.713088	0.000950	9.498748	3.218263	0.075822
 201	1.0000e-01	7.9698	35.870379	0.000394	3.940970	1.335237	0.031458
 202	1.0050e-01	8.0180	36.043802	0.000435	4.345172	1.472184	0.034685
 203	1.0100e-01	8.0532	36.176894	0.000333	3.334667	1.129816	0.026618
 204	1.0150e-01	8.0934	36.418880	0.000606	6.063031	2.054210	0.048397
 205	1.0200e-01	8.1335	36.551973	0.000333	3.334667	1.129816	0.026618
 206	1.0250e-01	8.1752	36.995613	0.001112	11.115557	3.766053	0.088728
 207	1.0300e-01	8.2185	37.189202	0.000485	4.850425	1.643368	0.038718
 208	1.0350e-01	8.2554	37.443287	0.000637	6.366182	2.156921	0.050817
 209	1.0400e-01	8.2955	37.564280	0.000303	3.031515	1.027105	0.024199
 210	1.0450e-01	8.3324	37.822399	0.000647	6.467233	2.191158	0.051624
 211	1.0500e-01	8.3709	37.991789	0.000424	4.244122	1.437947	0.033878
 212	1.0550e-01	8.4126	38.266040	0.000687	6.871435	2.328105	0.054850
 213	1.0600e-01	8.4527	38.560456	0.000738	7.376688	2.499289	0.058883
 214	1.0650e-01	8.4976	38.790342	0.000576	5.759879	1.951500	0.045977
 215	1.0700e-01	8.5313	38.959732	0.000424	4.244122	1.437947	0.033878
 216	1.0750e-01	8.5730	39.112990	0.000384	3.839920	1.301000	0.030652
 217	1.0800e-01	8.6115	39.500168	0.000970	9.700849	3.286737	0.077435
 218	1.0850e-01	8.6580	39.471936	-0.000071	-0.707354	-0.239658	-0.005646
 219	1.0900e-01	8.6869	39.786518	0.000788	7.881940	2.670474	0.062916
 220	1.0950e-01	8.7383	39.984140	0.000495	4.951475	1.677605	0.039524
 221	1.1000e-01	8.7671	40.209993	0.000566	5.658829	1.917263	0.045171
 222	1.1050e-01	8.8088	40.298721	0.000222	2.223111	0.753211	0.017746
 223	1.1100e-01	8.8554	40.593137	0.000738	7.376688	2.499289	0.058883
 224	1.1150e-01	8.8987	40.855289	0.000657	6.568283	2.225395	0.052430
 225	1.1200e-01	8.9372	41.141639	0.000717	7.174587	2.430816	0.057270
 226	1.1250e-01	8.9741	41.415890	0.000687	6.871435	2.328105	0.054850
 227	1.1300e-01	9.0078	41.665942	0.000627	6.265132	2.122684	0.050010
 228	1.1350e-01	9.0559	41.984556	0.000798	7.982991	2.704710	0.063723
 229	1.1400e-01	9.0912	42.190244	0.000515	5.153576	1.746079	0.041138
 230	1.1450e-01	9.1313	42.105549	-0.000212	-2.122061	-0.718974	-0.016939
 231	1.1500e-01	9.1714	42.436263	0.000829	8.286142	2.807421	0.066143
 232	1.1550e-01	9.2115	42.601621	0.000414	4.143071	1.403710	0.033071
 233	1.1600e-01	9.2548	42.916202	0.000788	7.881940	2.670474	0.062916
 234	1.1650e-01	9.2901	43.347744	0.001081	10.812405	3.663342	0.086308
 235	1.1700e-01	9.3398	43.400174	0.000131	1.313657	0.445079	0.010486
 236	1.1750e-01	9.3751	43.613928	0.000536	5.355677	1.814553	0.042751
 237	1.1800e-01	9.4136	43.779285	0.000414	4.143071	1.403710	0.033071
 238	1.1850e-01	9.4570	44.077735	0.000748	7.477738	2.533526	0.059690
 239	1.1900e-01	9.4971	44.130165	0.000131	1.313657	0.445079	0.010486
 240	1.1950e-01	9.5356	44.408449	0.000697	6.972486	2.362342	0.055657
 241	1.2000e-01	9.5692	44.714964	0.000768	7.679839	2.602000	0.061303
 242	1.2050e-01	9.6126	44.823858	0.000273	2.728364	0.924395	0.021779
 243	1.2100e-01	9.6607	44.973083	0.000374	3.738869	1.266763	0.029845
 244	1.2150e-01	9.6896	45.348161	0.000940	9.397698	3.184026	0.075016
 245	1.2200e-01	9.7313	45.545783	0.000495	4.951475	1.677605	0.039524
 246	1.2250e-01	9.7762	45.545783	0.000000	0.000000	0.000000	0.000000
 247	1.2300e-01	9.8083	45.900695	0.000889	8.892445	3.012842	0.070983
 248	1.2350e-01	9.8516	46.094284	0.000485	4.850425	1.643368	0.038718
 249	1.2400e-01	9.8933	46.247542	0.000384	3.839920	1.301000	0.030652
 250	1.2450e-01	9.9382	46.219310	-0.000071	-0.707354	-0.239658	-0.005646
 251	1.2500e-01	9.9783	46.562123	0.000859	8.589294	2.910132	0.068563
 252	1.2550e-01	10.0104	46.892837	0.000829	8.286142	2.807421	0.066143
 253	1.2600e-01	10.0457	47.401008	0.001273	12.732365	4.313842	0.101634
 254	1.2650e-01	10.0858	47.582497	0.000455	4.547273	1.540658	0.036298
 255	1.2700e-01	10.1323	47.691391	0.000273	2.728364	0.924395	0.021779
 256	1.2750e-01	10.1773	47.848682	0.000394	3.940970	1.335237	0.031458
 257	1.2800e-01	10.2093	48.102767	0.000637	6.366182	2.156921	0.050817
 258	1.2850e-01	10.2575	48.300389	0.000495	4.951475	1.677605	0.039524
 259	1.2900e-01	10.2912	48.510110	0.000525	5.254627	1.780316	0.041944
 260	1.2950e-01	10.3361	48.788394	0.000697	6.972486	2.362342	0.055657
 261	1.3000e-01	10.3698	49.002148	0.000536	5.355677	1.814553	0.042751
