»»»»»»»»»»»»»»»»»»»»»»»»»»»»»»»»»»»» Hysteresis ««««««««««««««««««««««««««««««««««««
»»»  Executed Version:	5.48.1
»»»  Vision Version:	5.48.4 (R)
»»»  Vision Compiled:	9/18/24
»»»  Driver Version:	5.47.0
»»»  Windows Version:	Windows 8 or 8.1
»»»  Processor Information:	x86 (AMD or Intel) - 32 Processors
»»»  Tester Name:	PMF21124-494 (100V)
»»»  Tester S/N:	PMF21124-494
»»»  Internal Amp Type:	100V RevK 270k
»»»  Internal Amp S/N:	iAB2-596/K     
»»»  Execution Count:	1
»»»»»»»»»»»»»»»»»»»»»»»»»»»»»»»»»»»»»»»»»»««««««««««««««««««««««««««««««««««««««««««

Stored:	6/18/2025 - 15:12:51
Configured:	06/18/25 09:47:30 AM
Executed:	06/18/25 03:12:10 PM

»»»»»»»»»»»»»»»»»»»»»»»»»»»»»»»»»»» Sample Info ««««««««««««««««««««««««««««««««««««
Sample Name:	
Lot Name:	
Wafer Name:	
Die Row/Column:	0/0
Capacitor Number:	0
Sample Area (cm2):	1.00e-04
Sample Thickness (microns):	3.00e-01

Amplifier:	Internal

»»»»»»»»»»»»»»»»»»»»»»»»»»»»»»»»»»» Tester Info «««««««««««««««««««««««««««««««««««
Tester Name:	PMF21124-494 (100V)
Tester Serial Number:	PMF21124-494
Return Signal Amp. Level:	0.19 [Index: 3]

»»»»»»»»»»»»»»»»»»»»»»»»»»»»»»»» Hysteresis Info ««««««««««««««««««««««««««««««««««
Task Name:	Hyst-554
Volts:	20.00
Field:	666.67 (kV/cm)
DCBias:	0.00
DCField:	0.00 (kV/cm)
Hysteresis Period (ms):	1.00e+00
Preset:	Enabled
Preset Delay (ms):	1.00e+03
Profile:	Standard Bipolar

»»»»»»»»»»»»»»»»»»»»»»»»»»»»»»»»»»»»»» Data «««««««««««««««««««««««««««««««««««««««
Points:	2001

Valid Data

Point	Time (ms)	Drive Voltage	Measured Polarization (uC/cm2)	Capacitance (uF)	Normalized Capacitance (uF/cm2)	Dielectric Constant	Instantaneous Current (mA)
   1	0.0000e+00	0.0128	-10.619149	0.001162	11.617540	3.936129	0.092761
   2	5.0000e-04	0.0273	-10.155342	0.001162	11.617540	3.936129	0.092761
   3	1.0000e-03	0.0674	-10.211806	-0.000141	-1.414309	-0.479181	-0.011293
   4	1.5000e-03	0.0979	-10.102912	0.000273	2.727596	0.924135	0.021779
   5	2.0000e-03	0.1235	-9.897224	0.000515	5.152127	1.745588	0.041138
   6	2.5000e-03	0.1765	-9.421318	0.001192	11.920607	4.038811	0.095181
   7	3.0000e-03	0.2182	-9.276127	0.000364	3.636795	1.232180	0.029038
   8	3.5000e-03	0.2503	-8.973644	0.000758	7.576657	2.567041	0.060496
   9	4.0000e-03	0.2984	-8.828453	0.000364	3.636795	1.232180	0.029038
  10	4.5000e-03	0.3369	-8.469507	0.000899	8.990966	3.046222	0.071789
  11	5.0000e-03	0.3770	-8.255753	0.000535	5.354171	1.814042	0.042751
  12	5.5000e-03	0.4107	-7.989568	0.000667	6.667458	2.258996	0.053237
  13	6.0000e-03	0.4476	-7.662887	0.000818	8.182789	2.772404	0.065336
  14	6.5000e-03	0.4925	-7.364438	0.000748	7.475635	2.532814	0.059690
  15	7.0000e-03	0.5246	-7.203114	0.000404	4.040884	1.369088	0.032265
  16	7.5000e-03	0.5711	-6.940963	0.000657	6.566436	2.224769	0.052430
  17	8.0000e-03	0.6112	-6.650580	0.000727	7.273591	2.464359	0.058077
  18	8.5000e-03	0.6529	-6.311799	0.000849	8.485856	2.875086	0.067756
  19	9.0000e-03	0.6850	-6.223071	0.000222	2.222486	0.752999	0.017746
  20	9.5000e-03	0.7396	-5.977052	0.000616	6.162348	2.087860	0.049204
  21	1.0000e-02	0.7781	-5.795563	0.000455	4.545994	1.540224	0.036298
  22	1.0500e-02	0.8166	-5.464849	0.000828	8.283811	2.806631	0.066143
  23	1.1000e-02	0.8502	-5.109936	0.000889	8.889944	3.011995	0.070983
  24	1.1500e-02	0.8936	-4.835685	0.000687	6.869502	2.327450	0.054850
  25	1.2000e-02	0.9353	-4.521104	0.000788	7.879723	2.669722	0.062916
  26	1.2500e-02	0.9754	-4.230720	0.000727	7.273591	2.464359	0.058077
  27	1.3000e-02	1.0091	-4.049231	0.000455	4.545994	1.540224	0.036298
  28	1.3500e-02	1.0588	-3.706418	0.000859	8.586878	2.909313	0.068563
  29	1.4000e-02	1.0845	-3.730616	-0.000061	-0.606133	-0.205363	-0.004840
  30	1.4500e-02	1.1438	-3.472498	0.000647	6.465414	2.190542	0.051624
  31	1.5000e-02	1.1615	-2.972394	0.001253	12.526739	4.244174	0.100021
  32	1.5500e-02	1.2192	-2.641680	0.000828	8.283811	2.806631	0.066143
  33	1.6000e-02	1.2465	-2.528753	0.000283	2.828619	0.958362	0.022585
  34	1.6500e-02	1.2930	-2.222237	0.000768	7.677679	2.601268	0.061303
  35	1.7000e-02	1.3395	-2.048814	0.000434	4.343950	1.471770	0.034685
  36	1.7500e-02	1.3764	-1.851192	0.000495	4.950082	1.677133	0.039524
  37	1.8000e-02	1.4117	-1.548710	0.000758	7.576657	2.567041	0.060496
  38	1.8500e-02	1.4502	-1.322856	0.000566	5.657237	1.916724	0.045171
  39	1.9000e-02	1.4807	-0.980043	0.000859	8.586878	2.909313	0.068563
  40	1.9500e-02	1.5336	-0.701759	0.000697	6.970524	2.361678	0.055657
  41	2.0000e-02	1.5705	-0.274251	0.001071	10.708342	3.628084	0.085502
  42	2.0500e-02	1.6139	0.000000	0.000687	6.869502	2.327450	0.054850
  43	2.1000e-02	1.6492	0.153258	0.000384	3.838839	1.300634	0.030652
  44	2.1500e-02	1.6860	0.290383	0.000343	3.434751	1.163725	0.027425
  45	2.2000e-02	1.7278	0.657395	0.000919	9.193010	3.114676	0.073402
  46	2.2500e-02	1.7759	0.980043	0.000808	8.081767	2.738177	0.064530
  47	2.3000e-02	1.8064	1.250261	0.000677	6.768480	2.293223	0.054044
  48	2.3500e-02	1.8593	1.209930	-0.000101	-1.010221	-0.342272	-0.008066
  49	2.4000e-02	1.8930	1.750365	0.001354	13.536960	4.586446	0.108087
  50	2.4500e-02	1.9299	1.822961	0.000182	1.818398	0.616090	0.014519
  51	2.5000e-02	1.9684	2.101244	0.000697	6.970524	2.361678	0.055657
  52	2.5500e-02	2.0069	2.581183	0.001202	12.021629	4.073038	0.095988
  53	2.6000e-02	2.0454	2.940129	0.000899	8.990966	3.046222	0.071789
  54	2.6500e-02	2.0887	3.178082	0.000596	5.960303	2.019405	0.047591
  55	2.7000e-02	2.1336	3.315207	0.000343	3.434751	1.163725	0.027425
  56	2.7500e-02	2.1705	3.698351	0.000960	9.597099	3.251585	0.076629
  57	2.8000e-02	2.2138	3.871775	0.000434	4.343950	1.471770	0.034685
  58	2.8500e-02	2.2507	4.404144	0.001333	13.334916	4.517992	0.106474
  59	2.9000e-02	2.2860	4.569501	0.000414	4.141906	1.403316	0.033071
  60	2.9500e-02	2.3213	4.759056	0.000475	4.748038	1.608679	0.037911
  61	3.0000e-02	2.3695	5.005075	0.000616	6.162348	2.087860	0.049204
  62	3.0500e-02	2.4031	5.432584	0.001071	10.708342	3.628084	0.085502
  63	3.1000e-02	2.4513	5.759265	0.000818	8.182789	2.772404	0.065336
  64	3.1500e-02	2.4850	6.053681	0.000737	7.374613	2.498586	0.058883
  65	3.2000e-02	2.5363	6.178707	0.000313	3.131685	1.061044	0.025005
  66	3.2500e-02	2.5764	6.384395	0.000515	5.152127	1.745588	0.041138
  67	3.3000e-02	2.6197	6.646546	0.000657	6.566436	2.224769	0.052430
  68	3.3500e-02	2.6502	6.811904	0.000414	4.141906	1.403316	0.033071
  69	3.4000e-02	2.6903	7.102287	0.000727	7.273591	2.464359	0.058077
  70	3.4500e-02	2.7240	7.574159	0.001182	11.819585	4.004584	0.094375
  71	3.5000e-02	2.7817	7.848410	0.000687	6.869502	2.327450	0.054850
  72	3.5500e-02	2.8122	8.037966	0.000475	4.748038	1.608679	0.037911
  73	3.6000e-02	2.8443	8.421110	0.000960	9.597099	3.251585	0.076629
  74	3.6500e-02	2.9037	8.417077	-0.000010	-0.101022	-0.034227	-0.000807
  75	3.7000e-02	2.9357	8.840552	0.001061	10.607320	3.593857	0.084695
  76	3.7500e-02	2.9759	9.074472	0.000586	5.859281	1.985178	0.046784
  77	3.8000e-02	3.0031	9.417285	0.000859	8.586878	2.909313	0.068563
  78	3.8500e-02	3.0545	9.804463	0.000970	9.698121	3.285812	0.077435
  79	3.9000e-02	3.0930	9.917389	0.000283	2.828619	0.958362	0.022585
  80	3.9500e-02	3.1283	10.066614	0.000374	3.737817	1.266407	0.029845
  81	4.0000e-02	3.1828	10.417494	0.000879	8.788922	2.977767	0.070176
  82	4.0500e-02	3.2181	10.695777	0.000697	6.970524	2.361678	0.055657
  83	4.1000e-02	3.2470	11.002293	0.000768	7.677679	2.601268	0.061303
  84	4.1500e-02	3.2919	11.199915	0.000495	4.950082	1.677133	0.039524
  85	4.2000e-02	3.3288	11.526596	0.000818	8.182789	2.772404	0.065336
  86	4.2500e-02	3.3689	11.942005	0.001041	10.405275	3.525403	0.083082
  87	4.3000e-02	3.4074	12.284818	0.000859	8.586878	2.909313	0.068563
  88	4.3500e-02	3.4571	12.361447	0.000192	1.919420	0.650317	0.015326
  89	4.4000e-02	3.4940	12.595367	0.000586	5.859281	1.985178	0.046784
  90	4.4500e-02	3.5421	12.865585	0.000677	6.768480	2.293223	0.054044
  91	4.5000e-02	3.5742	13.099504	0.000586	5.859281	1.985178	0.046784
  92	4.5500e-02	3.6095	13.289060	0.000475	4.748038	1.608679	0.037911
  93	4.6000e-02	3.6577	13.547178	0.000647	6.465414	2.190542	0.051624
  94	4.6500e-02	3.6881	14.059382	0.001283	12.829806	4.346856	0.102441
  95	4.7000e-02	3.7411	14.365897	0.000768	7.677679	2.601268	0.061303
  96	4.7500e-02	3.7764	14.515122	0.000374	3.737817	1.266407	0.029845
  97	4.8000e-02	3.8165	14.853902	0.000849	8.485856	2.875086	0.067756
  98	4.8500e-02	3.8534	15.228980	0.000940	9.395054	3.183131	0.075016
  99	4.9000e-02	3.8855	15.507264	0.000697	6.970524	2.361678	0.055657
 100	4.9500e-02	3.9288	15.765382	0.000647	6.465414	2.190542	0.051624
 101	5.0000e-02	3.9769	15.745217	-0.000051	-0.505110	-0.171136	-0.004033
 102	5.0500e-02	4.0106	16.241288	0.001243	12.425717	4.209947	0.099214
 103	5.1000e-02	4.0491	16.418744	0.000444	4.444972	1.505997	0.035491
 104	5.1500e-02	4.0924	16.559903	0.000354	3.535773	1.197952	0.028232
 105	5.2000e-02	4.1293	16.934981	0.000940	9.395054	3.183131	0.075016
 106	5.2500e-02	4.1758	17.548012	0.001536	15.355358	5.202536	0.122606
 107	5.3000e-02	4.2143	17.656906	0.000273	2.727596	0.924135	0.021779
 108	5.3500e-02	4.2624	17.975520	0.000798	7.980745	2.703950	0.063723
 109	5.4000e-02	4.2849	18.132811	0.000394	3.939862	1.334861	0.031458
 110	5.4500e-02	4.3282	18.669213	0.001344	13.435938	4.552219	0.107280
 111	5.5000e-02	4.3651	18.939431	0.000677	6.768480	2.293223	0.054044
 112	5.5500e-02	4.4148	19.020093	0.000202	2.020442	0.684544	0.016132
 113	5.6000e-02	4.4550	19.379039	0.000899	8.990966	3.046222	0.071789
 114	5.6500e-02	4.4967	19.407270	0.000071	0.707155	0.239590	0.005646
 115	5.7000e-02	4.5352	19.834779	0.001071	10.708342	3.628084	0.085502
 116	5.7500e-02	4.5737	20.145328	0.000778	7.778701	2.635495	0.062110
 117	5.8000e-02	4.6186	20.359082	0.000535	5.354171	1.814042	0.042751
 118	5.8500e-02	4.6491	20.641399	0.000707	7.071546	2.395905	0.056463
 119	5.9000e-02	4.6908	20.867252	0.000566	5.657237	1.916724	0.045171
 120	5.9500e-02	4.7277	21.322992	0.001142	11.415496	3.867675	0.091148
 121	6.0000e-02	4.7694	21.625475	0.000758	7.576657	2.567041	0.060496
 122	6.0500e-02	4.8159	22.093314	0.001172	11.718563	3.970356	0.093568
 123	6.1000e-02	4.8560	22.073149	-0.000051	-0.505110	-0.171136	-0.004033
 124	6.1500e-02	4.9009	22.335300	0.000657	6.566436	2.224769	0.052430
 125	6.2000e-02	4.9282	22.561154	0.000566	5.657237	1.916724	0.045171
 126	6.2500e-02	4.9827	22.903967	0.000859	8.586878	2.909313	0.068563
 127	6.3000e-02	5.0068	23.178218	0.000687	6.869502	2.327450	0.054850
 128	6.3500e-02	5.0549	23.319376	0.000354	3.535773	1.197952	0.028232
 129	6.4000e-02	5.0870	23.730752	0.001030	10.304253	3.491176	0.082275
 130	6.4500e-02	5.1335	24.105830	0.000940	9.395054	3.183131	0.075016
 131	6.5000e-02	5.1704	24.436544	0.000828	8.283811	2.806631	0.066143
 132	6.5500e-02	5.2105	24.714828	0.000697	6.970524	2.361678	0.055657
 133	6.6000e-02	5.2651	24.972947	0.000647	6.465414	2.190542	0.051624
 134	6.6500e-02	5.2876	25.287528	0.000788	7.879723	2.669722	0.062916
 135	6.7000e-02	5.3357	25.331892	0.000111	1.111243	0.376499	0.008873
 136	6.7500e-02	5.3726	25.634375	0.000758	7.576657	2.567041	0.060496
 137	6.8000e-02	5.4111	25.985254	0.000879	8.788922	2.977767	0.070176
 138	6.8500e-02	5.4624	26.041718	0.000141	1.414309	0.479181	0.011293
 139	6.9000e-02	5.4881	26.747510	0.001768	17.678866	5.989762	0.141158
 140	6.9500e-02	5.5394	26.884635	0.000343	3.434751	1.163725	0.027425
 141	7.0000e-02	5.5811	27.312144	0.001071	10.708342	3.628084	0.085502
 142	7.0500e-02	5.6116	27.558163	0.000616	6.162348	2.087860	0.049204
 143	7.1000e-02	5.6501	27.775950	0.000546	5.455193	1.848269	0.043557
 144	7.1500e-02	5.6966	28.126830	0.000879	8.788922	2.977767	0.070176
 145	7.2000e-02	5.7271	28.344617	0.000546	5.455193	1.848269	0.043557
 146	7.2500e-02	5.7704	28.566437	0.000556	5.556215	1.882497	0.044364
 147	7.3000e-02	5.8121	28.768092	0.000505	5.051105	1.711361	0.040331
 148	7.3500e-02	5.8506	29.147204	0.000950	9.496077	3.217358	0.075822
 149	7.4000e-02	5.8907	29.562613	0.001041	10.405275	3.525403	0.083082
 150	7.4500e-02	5.9308	29.635209	0.000182	1.818398	0.616090	0.014519
 151	7.5000e-02	5.9726	29.760235	0.000313	3.131685	1.061044	0.025005
 152	7.5500e-02	6.0143	30.244206	0.001212	12.122651	4.107265	0.096794
 153	7.6000e-02	6.0528	30.353100	0.000273	2.727596	0.924135	0.021779
 154	7.6500e-02	6.0961	30.671715	0.000798	7.980745	2.703950	0.063723
 155	7.7000e-02	6.1394	31.095190	0.001061	10.607320	3.593857	0.084695
 156	7.7500e-02	6.1795	31.409772	0.000788	7.879723	2.669722	0.062916
 157	7.8000e-02	6.2116	31.591261	0.000455	4.545994	1.540224	0.036298
 158	7.8500e-02	6.2533	32.006671	0.001041	10.405275	3.525403	0.083082
 159	7.9000e-02	6.2950	32.252690	0.000616	6.162348	2.087860	0.049204
 160	7.9500e-02	6.3255	32.575337	0.000808	8.081767	2.738177	0.064530
 161	8.0000e-02	6.3704	32.724562	0.000374	3.737817	1.266407	0.029845
 162	8.0500e-02	6.4137	33.164170	0.001101	11.011408	3.730766	0.087922
 163	8.1000e-02	6.4602	33.753002	0.001475	14.749225	4.997173	0.117766
 164	8.1500e-02	6.4939	33.833664	0.000202	2.020442	0.684544	0.016132
 165	8.2000e-02	6.5324	33.805432	-0.000071	-0.707155	-0.239590	-0.005646
 166	8.2500e-02	6.5741	34.220842	0.001041	10.405275	3.525403	0.083082
 167	8.3000e-02	6.6062	34.539456	0.000798	7.980745	2.703950	0.063723
 168	8.3500e-02	6.6528	34.793542	0.000636	6.364392	2.156314	0.050817
 169	8.4000e-02	6.6929	34.926634	0.000333	3.333729	1.129498	0.026618
 170	8.4500e-02	6.7282	35.350109	0.001061	10.607320	3.593857	0.084695
 171	8.5000e-02	6.7683	35.628393	0.000697	6.970524	2.361678	0.055657
 172	8.5500e-02	6.8116	35.882478	0.000636	6.364392	2.156314	0.050817
 173	8.6000e-02	6.8581	35.983306	0.000253	2.525552	0.855680	0.020165
 174	8.6500e-02	6.8886	36.430980	0.001121	11.213452	3.799220	0.089535
 175	8.7000e-02	6.9335	36.648767	0.000546	5.455193	1.848269	0.043557
 176	8.7500e-02	6.9656	36.898819	0.000626	6.263370	2.122087	0.050010
 177	8.8000e-02	7.0137	37.136772	0.000596	5.960303	2.019405	0.047591
 178	8.8500e-02	7.0506	37.661075	0.001313	13.132872	4.449537	0.104861
 179	8.9000e-02	7.0843	38.112782	0.001131	11.314474	3.833448	0.090341
 180	8.9500e-02	7.1260	38.245874	0.000333	3.333729	1.129498	0.026618
 181	9.0000e-02	7.1709	38.451562	0.000515	5.152127	1.745588	0.041138
 182	9.0500e-02	7.2110	38.584654	0.000333	3.333729	1.129498	0.026618
 183	9.1000e-02	7.2431	39.036361	0.001131	11.314474	3.833448	0.090341
 184	9.1500e-02	7.2928	39.229950	0.000485	4.849060	1.642906	0.038718
 185	9.2000e-02	7.3394	39.484035	0.000636	6.364392	2.156314	0.050817
 186	9.2500e-02	7.3827	40.012371	0.001323	13.233894	4.483765	0.105667
 187	9.3000e-02	7.4051	40.040603	0.000071	0.707155	0.239590	0.005646
 188	9.3500e-02	7.4517	40.266456	0.000566	5.657237	1.916724	0.045171
 189	9.4000e-02	7.4886	40.673799	0.001020	10.203231	3.456948	0.081469
 190	9.4500e-02	7.5271	40.758494	0.000212	2.121464	0.718771	0.016939
 191	9.5000e-02	7.5640	41.028712	0.000677	6.768480	2.293223	0.054044
 192	9.5500e-02	7.6057	41.573180	0.001364	13.637982	4.620673	0.108894
 193	9.6000e-02	7.6570	41.807100	0.000586	5.859281	1.985178	0.046784
 194	9.6500e-02	7.6955	42.210410	0.001010	10.102209	3.422721	0.080662
 195	9.7000e-02	7.7388	42.331403	0.000303	3.030663	1.026816	0.024199
 196	9.7500e-02	7.7757	42.670183	0.000849	8.485856	2.875086	0.067756
 197	9.8000e-02	7.8062	43.049294	0.000950	9.496077	3.217358	0.075822
 198	9.8500e-02	7.8447	43.428406	0.000950	9.496077	3.217358	0.075822
 199	9.9000e-02	7.8992	43.634094	0.000515	5.152127	1.745588	0.041138
 200	9.9500e-02	7.9217	43.714756	0.000202	2.020442	0.684544	0.016132
 201	1.0000e-01	7.9586	44.097900	0.000960	9.597099	3.251585	0.076629
 202	1.0050e-01	8.0164	44.412482	0.000788	7.879723	2.669722	0.062916
 203	1.0100e-01	8.0581	44.561706	0.000374	3.737817	1.266407	0.029845
 204	1.0150e-01	8.0901	44.819825	0.000647	6.465414	2.190542	0.051624
 205	1.0200e-01	8.1238	45.223135	0.001010	10.102209	3.422721	0.080662
 206	1.0250e-01	8.1688	45.493352	0.000677	6.768480	2.293223	0.054044
 207	1.0300e-01	8.2105	45.590147	0.000242	2.424530	0.821453	0.019359
 208	1.0350e-01	8.2602	45.965225	0.000940	9.395054	3.183131	0.075016
 209	1.0400e-01	8.3003	46.138648	0.000434	4.343950	1.471770	0.034685
 210	1.0450e-01	8.3276	46.505660	0.000919	9.193010	3.114676	0.073402
 211	1.0500e-01	8.3741	46.731514	0.000566	5.657237	1.916724	0.045171
 212	1.0550e-01	8.4142	47.134823	0.001010	10.102209	3.422721	0.080662
 213	1.0600e-01	8.4495	47.267916	0.000333	3.333729	1.129498	0.026618
 214	1.0650e-01	8.4928	47.723656	0.001142	11.415496	3.867675	0.091148
 215	1.0700e-01	8.5297	48.098734	0.000940	9.395054	3.183131	0.075016
 216	1.0750e-01	8.5762	48.139065	0.000101	1.010221	0.342272	0.008066
 217	1.0800e-01	8.6099	48.614971	0.001192	11.920607	4.038811	0.095181
 218	1.0850e-01	8.6580	48.986016	0.000929	9.294032	3.148903	0.074209
 219	1.0900e-01	8.6885	49.111042	0.000313	3.131685	1.061044	0.025005
 220	1.0950e-01	8.7302	49.453855	0.000859	8.586878	2.909313	0.068563
 221	1.1000e-01	8.7671	49.776503	0.000808	8.081767	2.738177	0.064530
 222	1.1050e-01	8.8233	50.006390	0.000576	5.758259	1.950951	0.045977
 223	1.1100e-01	8.8554	50.228210	0.000556	5.556215	1.882497	0.044364
 224	1.1150e-01	8.8955	50.437931	0.000525	5.253149	1.779815	0.041944
 225	1.1200e-01	8.9356	50.788811	0.000879	8.788922	2.977767	0.070176
 226	1.1250e-01	8.9677	50.913837	0.000313	3.131685	1.061044	0.025005
 227	1.1300e-01	9.0142	51.337312	0.001061	10.607320	3.593857	0.084695
 228	1.1350e-01	9.0479	51.736589	0.001000	10.001187	3.388494	0.079855
 229	1.1400e-01	9.0912	52.031005	0.000737	7.374613	2.498586	0.058883
 230	1.1450e-01	9.1425	52.184263	0.000384	3.838839	1.300634	0.030652
 231	1.1500e-01	9.1778	52.196362	0.000030	0.303066	0.102682	0.002420
 232	1.1550e-01	9.2163	52.635970	0.001101	11.011408	3.730766	0.087922
 233	1.1600e-01	9.2612	52.918287	0.000707	7.071546	2.395905	0.056463
 234	1.1650e-01	9.2885	53.184471	0.000667	6.667458	2.258996	0.053237
 235	1.1700e-01	9.3350	53.547450	0.000909	9.091988	3.080449	0.072596
 236	1.1750e-01	9.3735	53.765237	0.000546	5.455193	1.848269	0.043557
 237	1.1800e-01	9.4152	54.075786	0.000778	7.778701	2.635495	0.062110
 238	1.1850e-01	9.4521	54.350037	0.000687	6.869502	2.327450	0.054850
 239	1.1900e-01	9.4762	54.527493	0.000444	4.444972	1.505997	0.035491
 240	1.1950e-01	9.5243	54.858207	0.000828	8.283811	2.806631	0.066143
 241	1.2000e-01	9.5644	55.108259	0.000626	6.263370	2.122087	0.050010
 242	1.2050e-01	9.6110	55.640628	0.001333	13.334916	4.517992	0.106474
 243	1.2100e-01	9.6527	55.870515	0.000576	5.758259	1.950951	0.045977
 244	1.2150e-01	9.7024	56.056037	0.000465	4.647016	1.574452	0.037105
 245	1.2200e-01	9.7329	56.221395	0.000414	4.141906	1.403316	0.033071
 246	1.2250e-01	9.7746	56.616638	0.000990	9.900165	3.354267	0.079049
 247	1.2300e-01	9.8115	56.886856	0.000677	6.768480	2.293223	0.054044
 248	1.2350e-01	9.8468	57.128842	0.000606	6.061325	2.053633	0.048397
 249	1.2400e-01	9.8869	57.524085	0.000990	9.900165	3.354267	0.079049
 250	1.2450e-01	9.9334	57.616847	0.000232	2.323508	0.787226	0.018552
 251	1.2500e-01	9.9719	57.854799	0.000596	5.960303	2.019405	0.047591
 252	1.2550e-01	10.0104	58.040322	0.000465	4.647016	1.574452	0.037105
 253	1.2600e-01	10.0425	58.375069	0.000838	8.384834	2.840859	0.066949
 254	1.2650e-01	10.0954	58.588823	0.000535	5.354171	1.814042	0.042751
 255	1.2700e-01	10.1323	58.814677	0.000566	5.657237	1.916724	0.045171
 256	1.2750e-01	10.1724	59.201854	0.000970	9.698121	3.285812	0.077435
 257	1.2800e-01	10.2174	59.387377	0.000465	4.647016	1.574452	0.037105
 258	1.2850e-01	10.2462	59.798753	0.001030	10.304253	3.491176	0.082275
 259	1.2900e-01	10.2928	60.060904	0.000657	6.566436	2.224769	0.052430
 260	1.2950e-01	10.3297	60.314990	0.000636	6.364392	2.156314	0.050817
