»»»»»»»»»»»»»»»»»»»»»»»»»»»»»»»»»»»» Hysteresis ««««««««««««««««««««««««««««««««««««
»»»  Executed Version:	5.48.1
»»»  Vision Version:	5.48.4 (R)
»»»  Vision Compiled:	9/18/24
»»»  Driver Version:	5.47.0
»»»  Windows Version:	Windows 8 or 8.1
»»»  Processor Information:	x86 (AMD or Intel) - 32 Processors
»»»  Tester Name:	PMF21124-494 (100V)
»»»  Tester S/N:	PMF21124-494
»»»  Internal Amp Type:	100V RevK 270k
»»»  Internal Amp S/N:	iAB2-596/K     
»»»  Execution Count:	1
»»»»»»»»»»»»»»»»»»»»»»»»»»»»»»»»»»»»»»»»»»««««««««««««««««««««««««««««««««««««««««««

Stored:	6/18/2025 - 15:30:30
Configured:	06/18/25 09:47:30 AM
Executed:	06/18/25 03:29:54 PM

»»»»»»»»»»»»»»»»»»»»»»»»»»»»»»»»»»» Sample Info ««««««««««««««««««««««««««««««««««««
Sample Name:	
Lot Name:	
Wafer Name:	
Die Row/Column:	0/0
Capacitor Number:	0
Sample Area (cm2):	1.00e-04
Sample Thickness (microns):	3.00e-01

Amplifier:	Internal

»»»»»»»»»»»»»»»»»»»»»»»»»»»»»»»»»»» Tester Info «««««««««««««««««««««««««««««««««««
Tester Name:	PMF21124-494 (100V)
Tester Serial Number:	PMF21124-494
Return Signal Amp. Level:	0.19 [Index: 3]

»»»»»»»»»»»»»»»»»»»»»»»»»»»»»»»» Hysteresis Info ««««««««««««««««««««««««««««««««««
Task Name:	Hyst-554
Volts:	20.00
Field:	666.67 (kV/cm)
DCBias:	0.00
DCField:	0.00 (kV/cm)
Hysteresis Period (ms):	2.00e+02
Preset:	Enabled
Preset Delay (ms):	1.00e+03
Profile:	Standard Bipolar

»»»»»»»»»»»»»»»»»»»»»»»»»»»»»»»»»»»»»» Data «««««««««««««««««««««««««««««««««««««««
Points:	2009

Valid Data

Point	Time (ms)	Drive Voltage	Measured Polarization (uC/cm2)	Capacitance (uF)	Normalized Capacitance (uF/cm2)	Dielectric Constant	Instantaneous Current (mA)
   1	0.0000e+00	0.0016	-22.363713	0.000375	3.749444	1.270346	0.000150
   2	9.9500e-02	0.0273	-22.214339	0.000375	3.749444	1.270346	0.000150
   3	1.9900e-01	0.0706	-22.008445	0.000517	5.168152	1.751017	0.000207
   4	2.9850e-01	0.1219	-21.838886	0.000426	4.256126	1.442014	0.000170
   5	3.9800e-01	0.1492	-21.653178	0.000466	4.661471	1.579349	0.000187
   6	4.9750e-01	0.1941	-21.447284	0.000517	5.168152	1.751017	0.000207
   7	5.9700e-01	0.2358	-21.237353	0.000527	5.269489	1.785351	0.000211
   8	6.9650e-01	0.2759	-21.059719	0.000446	4.458798	1.510682	0.000179
   9	7.9600e-01	0.3144	-20.817490	0.000608	6.080179	2.060021	0.000243
  10	8.9550e-01	0.3593	-20.656005	0.000405	4.053453	1.373347	0.000162
  11	9.9500e-01	0.3962	-20.438000	0.000547	5.472161	1.854018	0.000219
  12	1.0945e+00	0.4315	-20.264403	0.000436	4.357462	1.476348	0.000174
  13	1.1940e+00	0.4700	-20.050435	0.000537	5.370825	1.819685	0.000215
  14	1.2935e+00	0.5150	-19.872801	0.000446	4.458798	1.510682	0.000179
  15	1.3930e+00	0.5679	-19.679018	0.000486	4.864143	1.648016	0.000195
  16	1.4925e+00	0.5888	-19.505421	0.000436	4.357462	1.476348	0.000174
  17	1.5920e+00	0.6337	-19.319713	0.000466	4.661471	1.579349	0.000187
  18	1.6915e+00	0.6802	-19.105745	0.000537	5.370825	1.819685	0.000215
  19	1.7910e+00	0.7139	-18.940222	0.000415	4.154789	1.407681	0.000166
  20	1.8905e+00	0.7508	-18.770663	0.000426	4.256126	1.442014	0.000170
  21	1.9900e+00	0.7957	-18.580917	0.000476	4.762807	1.613683	0.000191
  22	2.0895e+00	0.8326	-18.403283	0.000446	4.458798	1.510682	0.000179
  23	2.1890e+00	0.8775	-18.173167	0.000578	5.776170	1.957020	0.000231
  24	2.2885e+00	0.9160	-17.967273	0.000517	5.168152	1.751017	0.000207
  25	2.3880e+00	0.9529	-17.797713	0.000426	4.256126	1.442014	0.000170
  26	2.4875e+00	0.9930	-17.539336	0.000649	6.485525	2.197355	0.000260
  27	2.5870e+00	1.0331	-17.398036	0.000355	3.546771	1.201679	0.000142
  28	2.6865e+00	1.0684	-17.204254	0.000486	4.864143	1.648016	0.000195
  29	2.7860e+00	1.1037	-16.990286	0.000537	5.370825	1.819685	0.000215
  30	2.8855e+00	1.1470	-16.808615	0.000456	4.560135	1.545015	0.000183
  31	2.9850e+00	1.1952	-16.570424	0.000598	5.978843	2.025687	0.000239
  32	3.0845e+00	1.2208	-16.388753	0.000456	4.560135	1.545015	0.000183
  33	3.1840e+00	1.2689	-16.194970	0.000486	4.864143	1.648016	0.000195
  34	3.2835e+00	1.3123	-15.993113	0.000507	5.066816	1.716684	0.000203
  35	3.3830e+00	1.3588	-15.819516	0.000436	4.357462	1.476348	0.000174
  36	3.4825e+00	1.3893	-15.601511	0.000547	5.472161	1.854018	0.000219
  37	3.5820e+00	1.4310	-15.423877	0.000446	4.458798	1.510682	0.000179
  38	3.6815e+00	1.4855	-15.246243	0.000446	4.458798	1.510682	0.000179
  39	3.7810e+00	1.5144	-15.072646	0.000436	4.357462	1.476348	0.000174
  40	3.8805e+00	1.5529	-14.842530	0.000578	5.776170	1.957020	0.000231
  41	3.9800e+00	1.5946	-14.677007	0.000415	4.154789	1.407681	0.000166
  42	4.0795e+00	1.6315	-14.491299	0.000466	4.661471	1.579349	0.000187
  43	4.1790e+00	1.6700	-14.277331	0.000537	5.370825	1.819685	0.000215
  44	4.2785e+00	1.7133	-14.079511	0.000497	4.965480	1.682350	0.000199
  45	4.3780e+00	1.7550	-13.853431	0.000567	5.674834	1.922686	0.000227
  46	4.4775e+00	1.7855	-13.663686	0.000476	4.762807	1.613683	0.000191
  47	4.5770e+00	1.8336	-13.429532	0.000588	5.877507	1.991353	0.000235
  48	4.6765e+00	1.8753	-13.272084	0.000395	3.952117	1.339013	0.000158
  49	4.7760e+00	1.9058	-13.046004	0.000567	5.674834	1.922686	0.000227
  50	4.8755e+00	1.9556	-12.864333	0.000456	4.560135	1.545015	0.000183
  51	4.9750e+00	1.9892	-12.634216	0.000578	5.776170	1.957020	0.000231
  52	5.0745e+00	2.0310	-12.416211	0.000547	5.472161	1.854018	0.000219
  53	5.1740e+00	2.0759	-12.254726	0.000405	4.053453	1.373347	0.000162
  54	5.2735e+00	2.1031	-12.056906	0.000497	4.965480	1.682350	0.000199
  55	5.3730e+00	2.1513	-11.842938	0.000537	5.370825	1.819685	0.000215
  56	5.4725e+00	2.1946	-11.641081	0.000507	5.066816	1.716684	0.000203
  57	5.5720e+00	2.2251	-11.515930	0.000314	3.141426	1.064344	0.000126
  58	5.6715e+00	2.2716	-11.281776	0.000588	5.877507	1.991353	0.000235
  59	5.7710e+00	2.3053	-11.144513	0.000345	3.445435	1.167345	0.000138
  60	5.8705e+00	2.3470	-10.894211	0.000628	6.282852	2.128688	0.000252
  61	5.9700e+00	2.3919	-10.700428	0.000486	4.864143	1.648016	0.000195
  62	6.0695e+00	2.4288	-10.502609	0.000497	4.965480	1.682350	0.000199
  63	6.1690e+00	2.4641	-10.312863	0.000476	4.762807	1.613683	0.000191
  64	6.2685e+00	2.5090	-10.054487	0.000649	6.485525	2.197355	0.000260
  65	6.3680e+00	2.5411	-9.836481	0.000547	5.472161	1.854018	0.000219
  66	6.4675e+00	2.5908	-9.638662	0.000497	4.965480	1.682350	0.000199
  67	6.5670e+00	2.6245	-9.444879	0.000486	4.864143	1.648016	0.000195
  68	6.6665e+00	2.6646	-9.271282	0.000436	4.357462	1.476348	0.000174
  69	6.7660e+00	2.6999	-9.053277	0.000547	5.472161	1.854018	0.000219
  70	6.8655e+00	2.7513	-8.835272	0.000547	5.472161	1.854018	0.000219
  71	6.9650e+00	2.7785	-8.625341	0.000527	5.269489	1.785351	0.000211
  72	7.0645e+00	2.8299	-8.480004	0.000365	3.648108	1.236012	0.000146
  73	7.1640e+00	2.8684	-8.245850	0.000588	5.877507	1.991353	0.000235
  74	7.2635e+00	2.9021	-8.043993	0.000507	5.066816	1.716684	0.000203
  75	7.3630e+00	2.9470	-7.906730	0.000345	3.445435	1.167345	0.000138
  76	7.4625e+00	2.9855	-7.704874	0.000507	5.066816	1.716684	0.000203
  77	7.5620e+00	3.0320	-7.539351	0.000415	4.154789	1.407681	0.000166
  78	7.6615e+00	3.0705	-7.297123	0.000608	6.080179	2.060021	0.000243
  79	7.7610e+00	3.1122	-7.111415	0.000466	4.661471	1.579349	0.000187
  80	7.8605e+00	3.1475	-6.861112	0.000628	6.282852	2.128688	0.000252
  81	7.9600e+00	3.1860	-6.671367	0.000476	4.762807	1.613683	0.000191
  82	8.0595e+00	3.2165	-6.457399	0.000537	5.370825	1.819685	0.000215
  83	8.1590e+00	3.2662	-6.231319	0.000567	5.674834	1.922686	0.000227
  84	8.2585e+00	3.2951	-6.005239	0.000567	5.674834	1.922686	0.000227
  85	8.3580e+00	3.3432	-5.807420	0.000497	4.965480	1.682350	0.000199
  86	8.4575e+00	3.3769	-5.637860	0.000426	4.256126	1.442014	0.000170
  87	8.5570e+00	3.4122	-5.383521	0.000638	6.384188	2.163022	0.000256
  88	8.6565e+00	3.4667	-5.185701	0.000497	4.965480	1.682350	0.000199
  89	8.7560e+00	3.5117	-4.983844	0.000507	5.066816	1.716684	0.000203
  90	8.8555e+00	3.5438	-4.786024	0.000497	4.965480	1.682350	0.000199
  91	8.9550e+00	3.5774	-4.576093	0.000527	5.269489	1.785351	0.000211
  92	9.0545e+00	3.6240	-4.398459	0.000446	4.458798	1.510682	0.000179
  93	9.1540e+00	3.6625	-4.200640	0.000497	4.965480	1.682350	0.000199
  94	9.2535e+00	3.6978	-4.043191	0.000395	3.952117	1.339013	0.000158
  95	9.3530e+00	3.7363	-3.796926	0.000618	6.181516	2.094354	0.000248
  96	9.4525e+00	3.7764	-3.603144	0.000486	4.864143	1.648016	0.000195
  97	9.5520e+00	3.8309	-3.405324	0.000497	4.965480	1.682350	0.000199
  98	9.6515e+00	3.8582	-3.187319	0.000547	5.472161	1.854018	0.000219
  99	9.7510e+00	3.9063	-2.949128	0.000598	5.978843	2.025687	0.000239
 100	9.8505e+00	3.9384	-2.771494	0.000446	4.458798	1.510682	0.000179
 101	9.9500e+00	3.9865	-2.505043	0.000669	6.688197	2.266023	0.000268
 102	1.0050e+01	4.0266	-2.274926	0.000578	5.776170	1.957020	0.000231
 103	1.0149e+01	4.0699	-2.089218	0.000466	4.661471	1.579349	0.000187
 104	1.0248e+01	4.0988	-1.867175	0.000557	5.573498	1.888352	0.000223
 105	1.0348e+01	4.1357	-1.665318	0.000507	5.066816	1.716684	0.000203
 106	1.0447e+01	4.1790	-1.463462	0.000507	5.066816	1.716684	0.000203
 107	1.0547e+01	4.2191	-1.273716	0.000476	4.762807	1.613683	0.000191
 108	1.0646e+01	4.2608	-1.051674	0.000557	5.573498	1.888352	0.000223
 109	1.0746e+01	4.3042	-0.829631	0.000557	5.573498	1.888352	0.000223
 110	1.0845e+01	4.3443	-0.627775	0.000507	5.066816	1.716684	0.000203
 111	1.0945e+01	4.3844	-0.474363	0.000385	3.850780	1.304680	0.000154
 112	1.1044e+01	4.4229	-0.272507	0.000507	5.066816	1.716684	0.000203
 113	1.1144e+01	4.4598	-0.034316	0.000598	5.978843	2.025687	0.000239
 114	1.1243e+01	4.5079	0.159467	0.000486	4.864143	1.648016	0.000195
 115	1.1343e+01	4.5336	0.353249	0.000486	4.864143	1.648016	0.000195
 116	1.1443e+01	4.5753	0.571255	0.000547	5.472161	1.854018	0.000219
 117	1.1542e+01	4.6298	0.805409	0.000588	5.877507	1.991353	0.000235
 118	1.1642e+01	4.6619	1.031488	0.000567	5.674834	1.922686	0.000227
 119	1.1741e+01	4.6908	1.289865	0.000649	6.485525	2.197355	0.000260
 120	1.1841e+01	4.7405	1.439239	0.000375	3.749444	1.270346	0.000150
 121	1.1940e+01	4.7774	1.709727	0.000679	6.789534	2.300356	0.000272
 122	1.2040e+01	4.8175	1.931769	0.000557	5.573498	1.888352	0.000223
 123	1.2139e+01	4.8544	2.113441	0.000456	4.560135	1.545015	0.000183
 124	1.2239e+01	4.8977	2.339520	0.000567	5.674834	1.922686	0.000227
 125	1.2338e+01	4.9346	2.492931	0.000385	3.850780	1.304680	0.000154
 126	1.2438e+01	4.9683	2.763419	0.000679	6.789534	2.300356	0.000272
 127	1.2537e+01	5.0180	2.932979	0.000426	4.256126	1.442014	0.000170
 128	1.2636e+01	5.0565	3.163096	0.000578	5.776170	1.957020	0.000231
 129	1.2736e+01	5.0950	3.332656	0.000426	4.256126	1.442014	0.000170
 130	1.2835e+01	5.1255	3.514327	0.000456	4.560135	1.545015	0.000183
 131	1.2935e+01	5.1817	3.716183	0.000507	5.066816	1.716684	0.000203
 132	1.3034e+01	5.2170	3.958412	0.000608	6.080179	2.060021	0.000243
 133	1.3134e+01	5.2603	4.160268	0.000507	5.066816	1.716684	0.000203
 134	1.3233e+01	5.2972	4.350014	0.000476	4.762807	1.613683	0.000191
 135	1.3333e+01	5.3421	4.616465	0.000669	6.688197	2.266023	0.000268
 136	1.3432e+01	5.3742	4.810247	0.000486	4.864143	1.648016	0.000195
 137	1.3532e+01	5.4223	5.068624	0.000649	6.485525	2.197355	0.000260
 138	1.3632e+01	5.4576	5.250295	0.000456	4.560135	1.545015	0.000183
 139	1.3731e+01	5.4929	5.524820	0.000689	6.890870	2.334690	0.000276
 140	1.3831e+01	5.5506	5.726677	0.000507	5.066816	1.716684	0.000203
 141	1.3930e+01	5.5699	5.912385	0.000466	4.661471	1.579349	0.000187
 142	1.4030e+01	5.6164	6.130391	0.000547	5.472161	1.854018	0.000219
 143	1.4129e+01	5.6565	6.340322	0.000527	5.269489	1.785351	0.000211
 144	1.4229e+01	5.6950	6.558327	0.000547	5.472161	1.854018	0.000219
 145	1.4328e+01	5.7367	6.788444	0.000578	5.776170	1.957020	0.000231
 146	1.4428e+01	5.7801	6.978189	0.000476	4.762807	1.613683	0.000191
 147	1.4527e+01	5.8202	7.167935	0.000476	4.762807	1.613683	0.000191
 148	1.4627e+01	5.8538	7.341531	0.000436	4.357462	1.476348	0.000174
 149	1.4726e+01	5.9036	7.575685	0.000588	5.877507	1.991353	0.000235
 150	1.4825e+01	5.9453	7.813876	0.000598	5.978843	2.025687	0.000239
 151	1.4925e+01	5.9758	7.987473	0.000436	4.357462	1.476348	0.000174
 152	1.5024e+01	6.0191	8.177218	0.000476	4.762807	1.613683	0.000191
 153	1.5124e+01	6.0544	8.423484	0.000618	6.181516	2.094354	0.000248
 154	1.5223e+01	6.0945	8.661675	0.000598	5.978843	2.025687	0.000239
 155	1.5323e+01	6.1282	8.899866	0.000598	5.978843	2.025687	0.000239
 156	1.5422e+01	6.1715	9.085574	0.000466	4.661471	1.579349	0.000187
 157	1.5522e+01	6.2148	9.352025	0.000669	6.688197	2.266023	0.000268
 158	1.5621e+01	6.2565	9.561956	0.000527	5.269489	1.785351	0.000211
 159	1.5721e+01	6.2998	9.792073	0.000578	5.776170	1.957020	0.000231
 160	1.5820e+01	6.3383	9.965670	0.000436	4.357462	1.476348	0.000174
 161	1.5920e+01	6.3752	10.175601	0.000527	5.269489	1.785351	0.000211
 162	1.6020e+01	6.4137	10.385532	0.000527	5.269489	1.785351	0.000211
 163	1.6119e+01	6.4426	10.599500	0.000537	5.370825	1.819685	0.000215
 164	1.6218e+01	6.4891	10.837691	0.000598	5.978843	2.025687	0.000239
 165	1.6318e+01	6.5292	11.007251	0.000426	4.256126	1.442014	0.000170
 166	1.6418e+01	6.5661	11.201033	0.000486	4.864143	1.648016	0.000195
 167	1.6517e+01	6.6110	11.374630	0.000436	4.357462	1.476348	0.000174
 168	1.6616e+01	6.6495	11.608784	0.000588	5.877507	1.991353	0.000235
 169	1.6716e+01	6.6864	11.838901	0.000578	5.776170	1.957020	0.000231
 170	1.6816e+01	6.7394	12.016535	0.000446	4.458798	1.510682	0.000179
 171	1.6915e+01	6.7731	12.226466	0.000527	5.269489	1.785351	0.000211
 172	1.7015e+01	6.8036	12.420248	0.000486	4.864143	1.648016	0.000195
 173	1.7114e+01	6.8517	12.674588	0.000638	6.384188	2.163022	0.000256
 174	1.7213e+01	6.8790	12.888556	0.000537	5.370825	1.819685	0.000215
 175	1.7313e+01	6.9271	13.155007	0.000669	6.688197	2.266023	0.000268
 176	1.7413e+01	6.9656	13.344752	0.000476	4.762807	1.613683	0.000191
 177	1.7512e+01	7.0041	13.546609	0.000507	5.066816	1.716684	0.000203
 178	1.7611e+01	7.0538	13.756540	0.000527	5.269489	1.785351	0.000211
 179	1.7711e+01	7.0923	13.994731	0.000598	5.978843	2.025687	0.000239
 180	1.7811e+01	7.1228	14.228885	0.000588	5.877507	1.991353	0.000235
 181	1.7910e+01	7.1645	14.390370	0.000405	4.053453	1.373347	0.000162
 182	1.8009e+01	7.2126	14.592227	0.000507	5.066816	1.716684	0.000203
 183	1.8109e+01	7.2559	14.814270	0.000557	5.573498	1.888352	0.000223
 184	1.8209e+01	7.2864	14.975755	0.000405	4.053453	1.373347	0.000162
 185	1.8308e+01	7.3281	15.169538	0.000486	4.864143	1.648016	0.000195
 186	1.8407e+01	7.3650	15.411766	0.000608	6.080179	2.060021	0.000243
 187	1.8507e+01	7.4019	15.565177	0.000385	3.850780	1.304680	0.000154
 188	1.8607e+01	7.4452	15.811442	0.000618	6.181516	2.094354	0.000248
 189	1.8706e+01	7.4902	16.013299	0.000507	5.066816	1.716684	0.000203
 190	1.8805e+01	7.5271	16.239379	0.000567	5.674834	1.922686	0.000227
 191	1.8905e+01	7.5688	16.445272	0.000517	5.168152	1.751017	0.000207
 192	1.9005e+01	7.6025	16.711723	0.000669	6.688197	2.266023	0.000268
 193	1.9104e+01	7.6442	16.921654	0.000527	5.269489	1.785351	0.000211
 194	1.9203e+01	7.6795	17.091214	0.000426	4.256126	1.442014	0.000170
 195	1.9303e+01	7.7260	17.289034	0.000497	4.965480	1.682350	0.000199
 196	1.9402e+01	7.7645	17.519151	0.000578	5.776170	1.957020	0.000231
 197	1.9502e+01	7.8062	17.729082	0.000527	5.269489	1.785351	0.000211
 198	1.9602e+01	7.8415	17.959198	0.000578	5.776170	1.957020	0.000231
 199	1.9701e+01	7.8928	18.136832	0.000446	4.458798	1.510682	0.000179
 200	1.9800e+01	7.9313	18.358875	0.000557	5.573498	1.888352	0.000223
 201	1.9900e+01	7.9634	18.576880	0.000547	5.472161	1.854018	0.000219
 202	2.0000e+01	8.0003	18.734328	0.000395	3.952117	1.339013	0.000158
 203	2.0099e+01	8.0468	18.911962	0.000446	4.458798	1.510682	0.000179
 204	2.0198e+01	8.0837	19.117856	0.000517	5.168152	1.751017	0.000207
 205	2.0298e+01	8.1270	19.311639	0.000486	4.864143	1.648016	0.000195
 206	2.0398e+01	8.1688	19.541756	0.000578	5.776170	1.957020	0.000231
 207	2.0497e+01	8.1960	19.771872	0.000578	5.776170	1.957020	0.000231
 208	2.0596e+01	8.2474	19.953543	0.000456	4.560135	1.545015	0.000183
 209	2.0696e+01	8.2810	20.175586	0.000557	5.573498	1.888352	0.000223
 210	2.0796e+01	8.3228	20.413777	0.000598	5.978843	2.025687	0.000239
 211	2.0895e+01	8.3661	20.611597	0.000497	4.965480	1.682350	0.000199
 212	2.0994e+01	8.3998	20.837676	0.000567	5.674834	1.922686	0.000227
 213	2.1094e+01	8.4431	21.051644	0.000537	5.370825	1.819685	0.000215
 214	2.1194e+01	8.4752	21.233315	0.000456	4.560135	1.545015	0.000183
 215	2.1293e+01	8.5233	21.487655	0.000638	6.384188	2.163022	0.000256
 216	2.1392e+01	8.5602	21.673363	0.000466	4.661471	1.579349	0.000187
 217	2.1492e+01	8.6051	21.867146	0.000486	4.864143	1.648016	0.000195
 218	2.1591e+01	8.6356	22.060928	0.000486	4.864143	1.648016	0.000195
 219	2.1691e+01	8.6837	22.254711	0.000486	4.864143	1.648016	0.000195
 220	2.1791e+01	8.7286	22.480790	0.000567	5.674834	1.922686	0.000227
 221	2.1890e+01	8.7655	22.650350	0.000426	4.256126	1.442014	0.000170
 222	2.1989e+01	8.7976	22.823947	0.000436	4.357462	1.476348	0.000174
 223	2.2089e+01	8.8441	23.009655	0.000466	4.661471	1.579349	0.000187
 224	2.2189e+01	8.8891	23.219586	0.000527	5.269489	1.785351	0.000211
 225	2.2288e+01	8.9211	23.405294	0.000466	4.661471	1.579349	0.000187
 226	2.2387e+01	8.9645	23.667708	0.000659	6.586861	2.231689	0.000264
 227	2.2487e+01	8.9997	23.837268	0.000426	4.256126	1.442014	0.000170
 228	2.2587e+01	9.0415	24.103719	0.000669	6.688197	2.266023	0.000268
 229	2.2686e+01	9.0735	24.317687	0.000537	5.370825	1.819685	0.000215
 230	2.2785e+01	9.1120	24.519544	0.000507	5.066816	1.716684	0.000203
 231	2.2885e+01	9.1666	24.745624	0.000567	5.674834	1.922686	0.000227
 232	2.2985e+01	9.1939	24.911146	0.000415	4.154789	1.407681	0.000166
 233	2.3084e+01	9.2452	25.161448	0.000628	6.282852	2.128688	0.000252
 234	2.3183e+01	9.2821	25.322934	0.000405	4.053453	1.373347	0.000162
 235	2.3283e+01	9.3158	25.544976	0.000557	5.573498	1.888352	0.000223
 236	2.3383e+01	9.3575	25.754907	0.000527	5.269489	1.785351	0.000211
 237	2.3482e+01	9.4072	25.880059	0.000314	3.141426	1.064344	0.000126
 238	2.3581e+01	9.4457	26.126324	0.000618	6.181516	2.094354	0.000248
 239	2.3681e+01	9.4874	26.328181	0.000507	5.066816	1.716684	0.000203
 240	2.3780e+01	9.5243	26.550223	0.000557	5.573498	1.888352	0.000223
 241	2.3880e+01	9.5596	26.695560	0.000365	3.648108	1.236012	0.000146
 242	2.3980e+01	9.6061	26.889343	0.000486	4.864143	1.648016	0.000195
 243	2.4079e+01	9.6398	27.107348	0.000547	5.472161	1.854018	0.000219
 244	2.4178e+01	9.6799	27.284982	0.000446	4.458798	1.510682	0.000179
 245	2.4278e+01	9.7104	27.490876	0.000517	5.168152	1.751017	0.000207
 246	2.4378e+01	9.7585	27.733104	0.000608	6.080179	2.060021	0.000243
 247	2.4477e+01	9.7987	27.963221	0.000578	5.776170	1.957020	0.000231
 248	2.4576e+01	9.8372	28.128743	0.000415	4.154789	1.407681	0.000166
 249	2.4676e+01	9.8741	28.362897	0.000588	5.877507	1.991353	0.000235
 250	2.4776e+01	9.9206	28.597051	0.000588	5.877507	1.991353	0.000235
 251	2.4875e+01	9.9639	28.786796	0.000476	4.762807	1.613683	0.000191
 252	2.4974e+01	10.0024	28.944245	0.000395	3.952117	1.339013	0.000158
 253	2.5074e+01	10.0361	29.162250	0.000547	5.472161	1.854018	0.000219
 254	2.5174e+01	10.0842	29.360070	0.000497	4.965480	1.682350	0.000199
 255	2.5273e+01	10.1195	29.586149	0.000567	5.674834	1.922686	0.000227
 256	2.5372e+01	10.1500	29.779932	0.000486	4.864143	1.648016	0.000195
 257	2.5472e+01	10.1965	29.969677	0.000476	4.762807	1.613683	0.000191
 258	2.5572e+01	10.2334	30.155385	0.000466	4.661471	1.579349	0.000187
 259	2.5671e+01	10.2847	30.345131	0.000476	4.762807	1.613683	0.000191
 260	2.5770e+01	10.3216	30.530839	0.000466	4.661471	1.579349	0.000187
 261	2.5870e+01	10.3537	30.720584	0.000476	4.762807	1.613683	0.000191
