»»»»»»»»»»»»»»»»»»»»»»»»»»»»»»»»»»»» Hysteresis ««««««««««««««««««««««««««««««««««««
»»»  Executed Version:	5.48.1
»»»  Vision Version:	5.48.4 (R)
»»»  Vision Compiled:	9/18/24
»»»  Driver Version:	5.47.0
»»»  Windows Version:	Windows 8 or 8.1
»»»  Processor Information:	x86 (AMD or Intel) - 32 Processors
»»»  Tester Name:	PMF21124-494 (100V)
»»»  Tester S/N:	PMF21124-494
»»»  Internal Amp Type:	100V RevK 270k
»»»  Internal Amp S/N:	iAB2-596/K     
»»»  Execution Count:	1
»»»»»»»»»»»»»»»»»»»»»»»»»»»»»»»»»»»»»»»»»»««««««««««««««««««««««««««««««««««««««««««

Stored:	6/18/2025 - 16:14:26
Configured:	06/18/25 09:47:30 AM
Executed:	06/18/25 04:13:50 PM

»»»»»»»»»»»»»»»»»»»»»»»»»»»»»»»»»»» Sample Info ««««««««««««««««««««««««««««««««««««
Sample Name:	
Lot Name:	
Wafer Name:	
Die Row/Column:	0/0
Capacitor Number:	0
Sample Area (cm2):	1.00e-04
Sample Thickness (microns):	3.00e-01

Amplifier:	Internal

»»»»»»»»»»»»»»»»»»»»»»»»»»»»»»»»»»» Tester Info «««««««««««««««««««««««««««««««««««
Tester Name:	PMF21124-494 (100V)
Tester Serial Number:	PMF21124-494
Return Signal Amp. Level:	0.19 [Index: 3]

»»»»»»»»»»»»»»»»»»»»»»»»»»»»»»»» Hysteresis Info ««««««««««««««««««««««««««««««««««
Task Name:	Hyst-554
Volts:	20.00
Field:	666.67 (kV/cm)
DCBias:	0.00
DCField:	0.00 (kV/cm)
Hysteresis Period (ms):	2.00e+02
Preset:	Enabled
Preset Delay (ms):	1.00e+03
Profile:	Standard Bipolar

»»»»»»»»»»»»»»»»»»»»»»»»»»»»»»»»»»»»»» Data «««««««««««««««««««««««««««««««««««««««
Points:	2009

Valid Data

Point	Time (ms)	Drive Voltage	Measured Polarization (uC/cm2)	Capacitance (uF)	Normalized Capacitance (uF/cm2)	Dielectric Constant	Instantaneous Current (mA)
   1	0.0000e+00	0.0080	-63.158970	0.000730	7.297093	2.472322	0.000292
   2	9.9500e-02	0.0273	-62.868296	0.000730	7.297093	2.472322	0.000292
   3	1.9900e-01	0.0802	-62.492843	0.000943	9.425412	3.193416	0.000377
   4	2.9850e-01	0.1171	-62.109315	0.000963	9.628109	3.262092	0.000385
   5	3.9800e-01	0.1540	-61.721750	0.000973	9.729458	3.296429	0.000390
   6	4.9750e-01	0.1941	-61.370519	0.000882	8.817321	2.987389	0.000353
   7	5.9700e-01	0.2294	-61.003140	0.000922	9.222715	3.124740	0.000369
   8	6.9650e-01	0.2775	-60.635760	0.000922	9.222715	3.124740	0.000369
   9	7.9600e-01	0.3208	-60.308752	0.000821	8.209230	2.781362	0.000329
  10	8.9550e-01	0.3449	-59.905039	0.001013	10.134852	3.433781	0.000406
  11	9.9500e-01	0.3978	-59.569956	0.000841	8.411927	2.850038	0.000337
  12	1.0945e+00	0.4444	-59.154131	0.001044	10.438897	3.536794	0.000418
  13	1.1940e+00	0.4749	-58.774641	0.000953	9.526761	3.227754	0.000381
  14	1.2935e+00	0.5118	-58.403224	0.000932	9.324064	3.159078	0.000373
  15	1.3930e+00	0.5470	-58.035845	0.000922	9.222715	3.124740	0.000369
  16	1.4925e+00	0.6000	-57.640205	0.000993	9.932155	3.365105	0.000398
  17	1.5920e+00	0.6337	-57.256678	0.000963	9.628109	3.262092	0.000385
  18	1.6915e+00	0.6770	-56.840853	0.001044	10.438897	3.536794	0.000418
  19	1.7910e+00	0.7075	-56.485585	0.000892	8.918669	3.021727	0.000357
  20	1.8905e+00	0.7540	-56.110131	0.000943	9.425412	3.193416	0.000377
  21	1.9900e+00	0.8005	-55.706417	0.001013	10.134852	3.433781	0.000406
  22	2.0895e+00	0.8326	-55.286555	0.001054	10.540246	3.571132	0.000422
  23	2.1890e+00	0.8775	-54.882842	0.001013	10.134852	3.433781	0.000406
  24	2.2885e+00	0.9128	-54.531611	0.000882	8.817321	2.987389	0.000353
  25	2.3880e+00	0.9545	-54.071378	0.001155	11.553731	3.914510	0.000463
  26	2.4875e+00	0.9930	-53.748407	0.000811	8.107881	2.747025	0.000325
  27	2.5870e+00	1.0315	-53.344693	0.001013	10.134852	3.433781	0.000406
  28	2.6865e+00	1.0636	-52.981351	0.000912	9.121367	3.090403	0.000365
  29	2.7860e+00	1.1133	-52.597823	0.000963	9.628109	3.262092	0.000385
  30	2.8855e+00	1.1550	-52.194109	0.001013	10.134852	3.433781	0.000406
  31	2.9850e+00	1.1855	-51.798470	0.000993	9.932155	3.365105	0.000398
  32	3.0845e+00	1.2304	-51.435128	0.000912	9.121367	3.090403	0.000365
  33	3.1840e+00	1.2722	-51.039489	0.000993	9.932155	3.365105	0.000398
  34	3.2835e+00	1.3171	-50.619626	0.001054	10.540246	3.571132	0.000422
  35	3.3830e+00	1.3540	-50.187653	0.001084	10.844291	3.674145	0.000434
  36	3.4825e+00	1.3909	-49.844496	0.000861	8.614624	2.918714	0.000345
  37	3.5820e+00	1.4262	-49.416560	0.001074	10.742943	3.639808	0.000430
  38	3.6815e+00	1.4759	-49.033032	0.000963	9.628109	3.262092	0.000385
  39	3.7810e+00	1.5128	-48.641430	0.000983	9.830806	3.330767	0.000394
  40	3.8805e+00	1.5513	-48.229642	0.001034	10.337549	3.502456	0.000414
  41	3.9800e+00	1.5834	-47.805743	0.001064	10.641594	3.605470	0.000426
  42	4.0795e+00	1.6251	-47.381844	0.001064	10.641594	3.605470	0.000426
  43	4.1790e+00	1.6716	-46.974093	0.001024	10.236200	3.468119	0.000410
  44	4.2785e+00	1.7149	-46.594602	0.000953	9.526761	3.227754	0.000381
  45	4.3780e+00	1.7534	-46.219148	0.000943	9.425412	3.193416	0.000377
  46	4.4775e+00	1.7855	-45.807361	0.001034	10.337549	3.502456	0.000414
  47	4.5770e+00	1.8320	-45.415758	0.000983	9.830806	3.330767	0.000394
  48	4.6765e+00	1.8673	-45.040305	0.000943	9.425412	3.193416	0.000377
  49	4.7760e+00	1.9122	-44.624480	0.001044	10.438897	3.536794	0.000418
  50	4.8755e+00	1.9507	-44.196543	0.001074	10.742943	3.639808	0.000430
  51	4.9750e+00	1.9860	-43.813016	0.000963	9.628109	3.262092	0.000385
  52	5.0745e+00	2.0197	-43.413339	0.001003	10.033503	3.399443	0.000402
  53	5.1740e+00	2.0727	-43.001551	0.001034	10.337549	3.502456	0.000414
  54	5.2735e+00	2.1144	-42.609949	0.000983	9.830806	3.330767	0.000394
  55	5.3730e+00	2.1577	-42.165864	0.001115	11.148337	3.777159	0.000446
  56	5.4725e+00	2.1834	-41.794448	0.000932	9.324064	3.159078	0.000373
  57	5.5720e+00	2.2331	-41.350363	0.001115	11.148337	3.777159	0.000446
  58	5.6715e+00	2.2716	-40.902241	0.001125	11.249685	3.811497	0.000450
  59	5.7710e+00	2.3037	-40.498527	0.001013	10.134852	3.433781	0.000406
  60	5.8705e+00	2.3406	-40.038294	0.001155	11.553731	3.914510	0.000463
  61	5.9700e+00	2.3759	-39.650729	0.000973	9.729458	3.296429	0.000390
  62	6.0695e+00	2.4192	-39.226829	0.001064	10.641594	3.605470	0.000426
  63	6.1690e+00	2.4641	-38.843302	0.000963	9.628109	3.262092	0.000385
  64	6.2685e+00	2.5042	-38.431514	0.001034	10.337549	3.502456	0.000414
  65	6.3680e+00	2.5475	-38.052023	0.000953	9.526761	3.227754	0.000381
  66	6.4675e+00	2.5973	-37.636198	0.001044	10.438897	3.536794	0.000418
  67	6.5670e+00	2.6277	-37.208262	0.001074	10.742943	3.639808	0.000430
  68	6.6665e+00	2.6791	-36.804548	0.001013	10.134852	3.433781	0.000406
  69	6.7660e+00	2.7128	-36.400834	0.001013	10.134852	3.433781	0.000406
  70	6.8655e+00	2.7593	-35.980972	0.001054	10.540246	3.571132	0.000422
  71	6.9650e+00	2.7833	-35.561110	0.001054	10.540246	3.571132	0.000422
  72	7.0645e+00	2.8251	-35.141248	0.001054	10.540246	3.571132	0.000422
  73	7.1640e+00	2.8716	-34.717349	0.001064	10.641594	3.605470	0.000426
  74	7.2635e+00	2.9165	-34.301524	0.001044	10.438897	3.536794	0.000418
  75	7.3630e+00	2.9502	-33.861476	0.001105	11.046988	3.742821	0.000442
  76	7.4625e+00	2.9903	-33.425465	0.001095	10.945640	3.708483	0.000438
  77	7.5620e+00	3.0320	-33.070197	0.000892	8.918669	3.021727	0.000357
  78	7.6615e+00	3.0721	-32.545370	0.001318	13.175307	4.463915	0.000527
  79	7.7610e+00	3.1074	-32.145693	0.001003	10.033503	3.399443	0.000402
  80	7.8605e+00	3.1443	-31.697571	0.001125	11.249685	3.811497	0.000450
  81	7.9600e+00	3.1828	-31.305969	0.000983	9.830806	3.330767	0.000394
  82	8.0595e+00	3.2309	-30.962813	0.000861	8.614624	2.918714	0.000345
  83	8.1590e+00	3.2598	-30.510653	0.001135	11.351034	3.845834	0.000454
  84	8.2585e+00	3.3047	-30.090791	0.001054	10.540246	3.571132	0.000422
  85	8.3580e+00	3.3464	-29.658818	0.001084	10.844291	3.674145	0.000434
  86	8.4575e+00	3.3865	-29.234918	0.001064	10.641594	3.605470	0.000426
  87	8.5570e+00	3.4298	-28.798908	0.001095	10.945640	3.708483	0.000438
  88	8.6565e+00	3.4748	-28.366934	0.001084	10.844291	3.674145	0.000434
  89	8.7560e+00	3.5036	-27.938998	0.001074	10.742943	3.639808	0.000430
  90	8.8555e+00	3.5389	-27.539321	0.001003	10.033503	3.399443	0.000402
  91	8.9550e+00	3.5855	-27.095237	0.001115	11.148337	3.777159	0.000446
  92	9.0545e+00	3.6320	-26.675374	0.001054	10.540246	3.571132	0.000422
  93	9.1540e+00	3.6609	-26.239364	0.001095	10.945640	3.708483	0.000438
  94	9.2535e+00	3.7042	-25.819502	0.001054	10.540246	3.571132	0.000422
  95	9.3530e+00	3.7475	-25.375417	0.001115	11.148337	3.777159	0.000446
  96	9.4525e+00	3.7748	-24.915183	0.001155	11.553731	3.914510	0.000463
  97	9.5520e+00	3.8293	-24.471098	0.001115	11.148337	3.777159	0.000446
  98	9.6515e+00	3.8534	-24.119867	0.000882	8.817321	2.987389	0.000353
  99	9.7510e+00	3.9063	-23.659634	0.001155	11.553731	3.914510	0.000463
 100	9.8505e+00	3.9384	-23.211512	0.001125	11.249685	3.811497	0.000450
 101	9.9500e+00	3.9785	-22.848170	0.000912	9.121367	3.090403	0.000365
 102	1.0050e+01	4.0218	-22.396011	0.001135	11.351034	3.845834	0.000454
 103	1.0149e+01	4.0587	-21.980186	0.001044	10.438897	3.536794	0.000418
 104	1.0248e+01	4.0972	-21.584546	0.000993	9.932155	3.365105	0.000398
 105	1.0348e+01	4.1373	-21.140461	0.001115	11.148337	3.777159	0.000446
 106	1.0447e+01	4.1774	-20.712525	0.001074	10.742943	3.639808	0.000430
 107	1.0547e+01	4.2272	-20.280551	0.001084	10.844291	3.674145	0.000434
 108	1.0646e+01	4.2592	-19.836466	0.001115	11.148337	3.777159	0.000446
 109	1.0746e+01	4.3058	-19.424679	0.001034	10.337549	3.502456	0.000414
 110	1.0845e+01	4.3475	-19.008854	0.001044	10.438897	3.536794	0.000418
 111	1.0945e+01	4.3812	-18.552657	0.001145	11.452382	3.880172	0.000458
 112	1.1044e+01	4.4213	-18.148944	0.001013	10.134852	3.433781	0.000406
 113	1.1144e+01	4.4598	-17.680636	0.001176	11.756428	3.983186	0.000471
 114	1.1243e+01	4.5015	-17.208291	0.001186	11.857776	4.017523	0.000475
 115	1.1343e+01	4.5400	-16.768243	0.001105	11.046988	3.742821	0.000442
 116	1.1443e+01	4.5897	-16.356455	0.001034	10.337549	3.502456	0.000414
 117	1.1542e+01	4.6154	-15.920445	0.001095	10.945640	3.708483	0.000438
 118	1.1642e+01	4.6683	-15.500583	0.001054	10.540246	3.571132	0.000422
 119	1.1741e+01	4.7004	-15.076683	0.001064	10.641594	3.605470	0.000426
 120	1.1841e+01	4.7421	-14.624524	0.001135	11.351034	3.845834	0.000454
 121	1.1940e+01	4.7822	-14.208699	0.001044	10.438897	3.536794	0.000418
 122	1.2040e+01	4.8143	-13.800949	0.001024	10.236200	3.468119	0.000410
 123	1.2139e+01	4.8608	-13.385124	0.001044	10.438897	3.536794	0.000418
 124	1.2239e+01	4.9057	-12.957187	0.001074	10.742943	3.639808	0.000430
 125	1.2338e+01	4.9394	-12.553474	0.001013	10.134852	3.433781	0.000406
 126	1.2438e+01	4.9731	-12.085166	0.001176	11.756428	3.983186	0.000471
 127	1.2537e+01	5.0164	-11.641081	0.001115	11.148337	3.777159	0.000446
 128	1.2636e+01	5.0614	-11.205070	0.001095	10.945640	3.708483	0.000438
 129	1.2736e+01	5.0854	-10.756948	0.001125	11.249685	3.811497	0.000450
 130	1.2835e+01	5.1416	-10.324975	0.001084	10.844291	3.674145	0.000434
 131	1.2935e+01	5.1737	-9.872815	0.001135	11.351034	3.845834	0.000454
 132	1.3034e+01	5.2089	-9.400471	0.001186	11.857776	4.017523	0.000475
 133	1.3134e+01	5.2683	-8.964460	0.001095	10.945640	3.708483	0.000438
 134	1.3233e+01	5.2859	-8.536524	0.001074	10.742943	3.639808	0.000430
 135	1.3333e+01	5.3405	-8.080327	0.001145	11.452382	3.880172	0.000458
 136	1.3432e+01	5.3806	-7.696799	0.000963	9.628109	3.262092	0.000385
 137	1.3532e+01	5.4207	-7.196194	0.001257	12.567216	4.257888	0.000503
 138	1.3632e+01	5.4624	-6.840927	0.000892	8.918669	3.021727	0.000357
 139	1.3731e+01	5.4929	-6.408953	0.001084	10.844291	3.674145	0.000434
 140	1.3831e+01	5.5298	-5.964868	0.001115	11.148337	3.777159	0.000446
 141	1.3930e+01	5.5875	-5.565192	0.001003	10.033503	3.399443	0.000402
 142	1.4030e+01	5.6148	-5.129181	0.001095	10.945640	3.708483	0.000438
 143	1.4129e+01	5.6533	-4.656836	0.001186	11.857776	4.017523	0.000475
 144	1.4229e+01	5.6982	-4.249085	0.001024	10.236200	3.468119	0.000410
 145	1.4328e+01	5.7432	-3.805000	0.001115	11.148337	3.777159	0.000446
 146	1.4428e+01	5.7784	-3.385138	0.001054	10.540246	3.571132	0.000422
 147	1.4527e+01	5.8137	-2.957202	0.001074	10.742943	3.639808	0.000430
 148	1.4627e+01	5.8587	-2.521191	0.001095	10.945640	3.708483	0.000438
 149	1.4726e+01	5.8972	-2.020586	0.001257	12.567216	4.257888	0.000503
 150	1.4825e+01	5.9389	-1.580539	0.001105	11.046988	3.742821	0.000442
 151	1.4925e+01	5.9806	-1.160677	0.001054	10.540246	3.571132	0.000422
 152	1.5024e+01	6.0062	-0.724666	0.001095	10.945640	3.708483	0.000438
 153	1.5124e+01	6.0544	-0.268470	0.001145	11.452382	3.880172	0.000458
 154	1.5223e+01	6.0865	0.179653	0.001125	11.249685	3.811497	0.000450
 155	1.5323e+01	6.1298	0.595478	0.001044	10.438897	3.536794	0.000418
 156	1.5422e+01	6.1715	1.015340	0.001054	10.540246	3.571132	0.000422
 157	1.5522e+01	6.2068	1.423090	0.001024	10.236200	3.468119	0.000410
 158	1.5621e+01	6.2437	1.859101	0.001095	10.945640	3.708483	0.000438
 159	1.5721e+01	6.2934	2.270889	0.001034	10.337549	3.502456	0.000414
 160	1.5820e+01	6.3255	2.702862	0.001084	10.844291	3.674145	0.000434
 161	1.5920e+01	6.3704	3.110613	0.001024	10.236200	3.468119	0.000410
 162	1.6020e+01	6.4137	3.615255	0.001267	12.668565	4.292226	0.000507
 163	1.6119e+01	6.4506	3.998783	0.000963	9.628109	3.262092	0.000385
 164	1.6218e+01	6.4875	4.454979	0.001145	11.452382	3.880172	0.000458
 165	1.6318e+01	6.5389	4.886953	0.001084	10.844291	3.674145	0.000434
 166	1.6418e+01	6.5677	5.335075	0.001125	11.249685	3.811497	0.000450
 167	1.6517e+01	6.6046	5.775123	0.001105	11.046988	3.742821	0.000442
 168	1.6616e+01	6.6608	6.219208	0.001115	11.148337	3.777159	0.000446
 169	1.6716e+01	6.6897	6.647144	0.001074	10.742943	3.639808	0.000430
 170	1.6816e+01	6.7249	7.083155	0.001095	10.945640	3.708483	0.000438
 171	1.6915e+01	6.7747	7.511091	0.001074	10.742943	3.639808	0.000430
 172	1.7015e+01	6.8116	7.975362	0.001166	11.655079	3.948848	0.000467
 173	1.7114e+01	6.8469	8.395224	0.001054	10.540246	3.571132	0.000422
 174	1.7213e+01	6.8870	8.802974	0.001024	10.236200	3.468119	0.000410
 175	1.7313e+01	6.9367	9.226874	0.001064	10.641594	3.605470	0.000426
 176	1.7413e+01	6.9784	9.594253	0.000922	9.222715	3.124740	0.000369
 177	1.7512e+01	7.0121	10.090821	0.001247	12.465868	4.223550	0.000499
 178	1.7611e+01	7.0474	10.478386	0.000973	9.729458	3.296429	0.000390
 179	1.7711e+01	7.1051	10.886137	0.001024	10.236200	3.468119	0.000410
 180	1.7811e+01	7.1244	11.322147	0.001095	10.945640	3.708483	0.000438
 181	1.7910e+01	7.1693	11.810641	0.001226	12.263171	4.154875	0.000491
 182	1.8009e+01	7.2110	12.238577	0.001074	10.742943	3.639808	0.000430
 183	1.8109e+01	7.2479	12.678625	0.001105	11.046988	3.742821	0.000442
 184	1.8209e+01	7.2896	13.155007	0.001196	11.959125	4.051861	0.000479
 185	1.8308e+01	7.3297	13.603129	0.001125	11.249685	3.811497	0.000450
 186	1.8407e+01	7.3602	13.990694	0.000973	9.729458	3.296429	0.000390
 187	1.8507e+01	7.4083	14.450927	0.001155	11.553731	3.914510	0.000463
 188	1.8607e+01	7.4501	14.899049	0.001125	11.249685	3.811497	0.000450
 189	1.8706e+01	7.4934	15.326986	0.001074	10.742943	3.639808	0.000430
 190	1.8805e+01	7.5319	15.791256	0.001166	11.655079	3.948848	0.000467
 191	1.8905e+01	7.5688	16.166710	0.000943	9.425412	3.193416	0.000377
 192	1.9005e+01	7.6025	16.614832	0.001125	11.249685	3.811497	0.000450
 193	1.9104e+01	7.6394	17.022583	0.001024	10.236200	3.468119	0.000410
 194	1.9203e+01	7.6859	17.438408	0.001044	10.438897	3.536794	0.000418
 195	1.9303e+01	7.7292	17.866344	0.001074	10.742943	3.639808	0.000430
 196	1.9402e+01	7.7645	18.253909	0.000973	9.729458	3.296429	0.000390
 197	1.9502e+01	7.8078	18.790848	0.001348	13.479353	4.566928	0.000540
 198	1.9602e+01	7.8479	19.125931	0.000841	8.411927	2.850038	0.000337
 199	1.9701e+01	7.8864	19.578090	0.001135	11.351034	3.845834	0.000454
 200	1.9800e+01	7.9249	20.022175	0.001115	11.148337	3.777159	0.000446
 201	1.9900e+01	7.9618	20.458185	0.001095	10.945640	3.708483	0.000438
 202	2.0000e+01	8.0035	20.869973	0.001034	10.337549	3.502456	0.000414
 203	2.0099e+01	8.0404	21.354429	0.001216	12.161822	4.120537	0.000487
 204	2.0198e+01	8.0950	21.758143	0.001013	10.134852	3.433781	0.000406
 205	2.0298e+01	8.1254	22.218377	0.001155	11.553731	3.914510	0.000463
 206	2.0398e+01	8.1655	22.634202	0.001044	10.438897	3.536794	0.000418
 207	2.0497e+01	8.2008	23.086361	0.001135	11.351034	3.845834	0.000454
 208	2.0596e+01	8.2345	23.445666	0.000902	9.020018	3.056065	0.000361
 209	2.0696e+01	8.2810	23.918011	0.001186	11.857776	4.017523	0.000475
 210	2.0796e+01	8.3292	24.341910	0.001064	10.641594	3.605470	0.000426
 211	2.0895e+01	8.3693	24.741586	0.001003	10.033503	3.399443	0.000402
 212	2.0994e+01	8.4014	25.193746	0.001135	11.351034	3.845834	0.000454
 213	2.1094e+01	8.4463	25.577273	0.000963	9.628109	3.262092	0.000385
 214	2.1194e+01	8.4816	26.021358	0.001115	11.148337	3.777159	0.000446
 215	2.1293e+01	8.5281	26.449295	0.001074	10.742943	3.639808	0.000430
 216	2.1392e+01	8.5666	26.873194	0.001064	10.641594	3.605470	0.000426
 217	2.1492e+01	8.6099	27.301130	0.001074	10.742943	3.639808	0.000430
 218	2.1591e+01	8.6516	27.725030	0.001064	10.641594	3.605470	0.000426
 219	2.1691e+01	8.6869	28.148929	0.001064	10.641594	3.605470	0.000426
 220	2.1791e+01	8.7190	28.568791	0.001054	10.540246	3.571132	0.000422
 221	2.1890e+01	8.7623	29.020950	0.001135	11.351034	3.845834	0.000454
 222	2.1989e+01	8.8024	29.481184	0.001155	11.553731	3.914510	0.000463
 223	2.2089e+01	8.8441	29.892972	0.001034	10.337549	3.502456	0.000414
 224	2.2189e+01	8.8746	30.365316	0.001186	11.857776	4.017523	0.000475
 225	2.2288e+01	8.9308	30.781141	0.001044	10.438897	3.536794	0.000418
 226	2.2387e+01	8.9596	31.217152	0.001095	10.945640	3.708483	0.000438
 227	2.2487e+01	9.0094	31.620866	0.001013	10.134852	3.433781	0.000406
 228	2.2587e+01	9.0399	32.020542	0.001003	10.033503	3.399443	0.000402
 229	2.2686e+01	9.0800	32.412144	0.000983	9.830806	3.330767	0.000394
 230	2.2785e+01	9.1297	32.848155	0.001095	10.945640	3.708483	0.000438
 231	2.2885e+01	9.1554	33.280128	0.001084	10.844291	3.674145	0.000434
 232	2.2985e+01	9.1971	33.695953	0.001044	10.438897	3.536794	0.000418
 233	2.3084e+01	9.2420	34.127927	0.001084	10.844291	3.674145	0.000434
 234	2.3183e+01	9.2853	34.572012	0.001115	11.148337	3.777159	0.000446
 235	2.3283e+01	9.3190	34.979763	0.001024	10.236200	3.468119	0.000410
 236	2.3383e+01	9.3607	35.387513	0.001024	10.236200	3.468119	0.000410
 237	2.3482e+01	9.3960	35.851784	0.001166	11.655079	3.948848	0.000467
 238	2.3581e+01	9.4489	36.263572	0.001034	10.337549	3.502456	0.000414
 239	2.3681e+01	9.4874	36.663248	0.001003	10.033503	3.399443	0.000402
 240	2.3780e+01	9.5179	37.123482	0.001155	11.553731	3.914510	0.000463
 241	2.3880e+01	9.5660	37.535270	0.001034	10.337549	3.502456	0.000414
 242	2.3980e+01	9.5965	37.999540	0.001166	11.655079	3.948848	0.000467
 243	2.4079e+01	9.6430	38.439588	0.001105	11.046988	3.742821	0.000442
 244	2.4178e+01	9.6783	38.855413	0.001044	10.438897	3.536794	0.000418
 245	2.4278e+01	9.7168	39.255089	0.001003	10.033503	3.399443	0.000402
 246	2.4378e+01	9.7585	39.666877	0.001034	10.337549	3.502456	0.000414
 247	2.4477e+01	9.8003	40.062516	0.000993	9.932155	3.365105	0.000398
 248	2.4576e+01	9.8420	40.478341	0.001044	10.438897	3.536794	0.000418
 249	2.4676e+01	9.8789	40.902241	0.001064	10.641594	3.605470	0.000426
 250	2.4776e+01	9.9222	41.297880	0.000993	9.932155	3.365105	0.000398
 251	2.4875e+01	9.9639	41.737928	0.001105	11.046988	3.742821	0.000442
 252	2.4974e+01	9.9944	42.137604	0.001003	10.033503	3.399443	0.000402
 253	2.5074e+01	10.0361	42.609949	0.001186	11.857776	4.017523	0.000475
 254	2.5174e+01	10.0794	43.029811	0.001054	10.540246	3.571132	0.000422
 255	2.5273e+01	10.1147	43.445636	0.001044	10.438897	3.536794	0.000418
 256	2.5372e+01	10.1548	43.857424	0.001034	10.337549	3.502456	0.000414
 257	2.5472e+01	10.1917	44.321695	0.001166	11.655079	3.948848	0.000467
