»»»»»»»»»»»»»»»»»»»»»»»»»»»»»»»»»»»» Hysteresis ««««««««««««««««««««««««««««««««««««
»»»  Executed Version:	5.48.1
»»»  Vision Version:	5.48.4 (R)
»»»  Vision Compiled:	9/18/24
»»»  Driver Version:	5.47.0
»»»  Windows Version:	Windows 8 or 8.1
»»»  Processor Information:	x86 (AMD or Intel) - 32 Processors
»»»  Tester Name:	PMF21124-494 (100V)
»»»  Tester S/N:	PMF21124-494
»»»  Internal Amp Type:	100V RevK 270k
»»»  Internal Amp S/N:	iAB2-596/K     
»»»  Execution Count:	1
»»»»»»»»»»»»»»»»»»»»»»»»»»»»»»»»»»»»»»»»»»««««««««««««««««««««««««««««««««««««««««««

Stored:	6/18/2025 - 16:49:54
Configured:	06/18/25 09:47:30 AM
Executed:	06/18/25 04:49:20 PM

»»»»»»»»»»»»»»»»»»»»»»»»»»»»»»»»»»» Sample Info ««««««««««««««««««««««««««««««««««««
Sample Name:	
Lot Name:	
Wafer Name:	
Die Row/Column:	0/0
Capacitor Number:	0
Sample Area (cm2):	1.00e-04
Sample Thickness (microns):	3.00e-01

Amplifier:	Internal

»»»»»»»»»»»»»»»»»»»»»»»»»»»»»»»»»»» Tester Info «««««««««««««««««««««««««««««««««««
Tester Name:	PMF21124-494 (100V)
Tester Serial Number:	PMF21124-494
Return Signal Amp. Level:	0.19 [Index: 3]

»»»»»»»»»»»»»»»»»»»»»»»»»»»»»»»» Hysteresis Info ««««««««««««««««««««««««««««««««««
Task Name:	Hyst-554
Volts:	20.00
Field:	666.67 (kV/cm)
DCBias:	0.00
DCField:	0.00 (kV/cm)
Hysteresis Period (ms):	2.00e+02
Preset:	Enabled
Preset Delay (ms):	1.00e+03
Profile:	Standard Bipolar

»»»»»»»»»»»»»»»»»»»»»»»»»»»»»»»»»»»»»» Data «««««««««««««««««««««««««««««««««««««««
Points:	2009

Valid Data

Point	Time (ms)	Drive Voltage	Measured Polarization (uC/cm2)	Capacitance (uF)	Normalized Capacitance (uF/cm2)	Dielectric Constant	Instantaneous Current (mA)
   1	0.0000e+00	0.0064	-12.139667	0.000466	4.663715	1.580110	0.000187
   2	9.9500e-02	0.0353	-11.953959	0.000466	4.663715	1.580110	0.000187
   3	1.9900e-01	0.0706	-11.675397	0.000700	6.995573	2.370164	0.000280
   4	2.9850e-01	0.1171	-11.388760	0.000720	7.198343	2.438865	0.000288
   5	3.9800e-01	0.1540	-11.130383	0.000649	6.488648	2.198413	0.000260
   6	4.9750e-01	0.1989	-10.855858	0.000689	6.894188	2.335814	0.000276
   7	5.9700e-01	0.2326	-10.532887	0.000811	8.110809	2.748017	0.000325
   8	6.9650e-01	0.2775	-10.222028	0.000781	7.806654	2.644966	0.000312
   9	7.9600e-01	0.3096	-9.959614	0.000659	6.590033	2.232764	0.000264
  10	8.9550e-01	0.3642	-9.644717	0.000791	7.908039	2.679316	0.000316
  11	9.9500e-01	0.3914	-9.398452	0.000618	6.184492	2.095363	0.000248
  12	1.0945e+00	0.4428	-9.067407	0.000831	8.313580	2.816717	0.000333
  13	1.1940e+00	0.4732	-8.728287	0.000852	8.516350	2.885417	0.000341
  14	1.2935e+00	0.5085	-8.465874	0.000659	6.590033	2.232764	0.000264
  15	1.3930e+00	0.5519	-8.130791	0.000841	8.414965	2.851067	0.000337
  16	1.4925e+00	0.5936	-7.848192	0.000710	7.096958	2.404515	0.000284
  17	1.5920e+00	0.6353	-7.525221	0.000811	8.110809	2.748017	0.000325
  18	1.6915e+00	0.6722	-7.198213	0.000821	8.212195	2.782367	0.000329
  19	1.7910e+00	0.7139	-6.943873	0.000639	6.387262	2.164063	0.000256
  20	1.8905e+00	0.7524	-6.637051	0.000771	7.705269	2.610616	0.000308
  21	1.9900e+00	0.8005	-6.310043	0.000821	8.212195	2.782367	0.000329
  22	2.0895e+00	0.8310	-6.011295	0.000750	7.502499	2.541915	0.000300
  23	2.1890e+00	0.8759	-5.704473	0.000771	7.705269	2.610616	0.000308
  24	2.2885e+00	0.9096	-5.377465	0.000821	8.212195	2.782367	0.000329
  25	2.3880e+00	0.9465	-5.066605	0.000781	7.806654	2.644966	0.000312
  26	2.4875e+00	0.9994	-4.751709	0.000791	7.908039	2.679316	0.000316
  27	2.5870e+00	1.0315	-4.440849	0.000781	7.806654	2.644966	0.000312
  28	2.6865e+00	1.0716	-4.134027	0.000771	7.705269	2.610616	0.000308
  29	2.7860e+00	1.1101	-3.778759	0.000892	8.921890	3.022818	0.000357
  30	2.8855e+00	1.1567	-3.484048	0.000740	7.401114	2.507565	0.000296
  31	2.9850e+00	1.1935	-3.173189	0.000781	7.806654	2.644966	0.000312
  32	3.0845e+00	1.2353	-2.850218	0.000811	8.110809	2.748017	0.000325
  33	3.1840e+00	1.2657	-2.503024	0.000872	8.719120	2.954118	0.000349
  34	3.2835e+00	1.3091	-2.176016	0.000821	8.212195	2.782367	0.000329
  35	3.3830e+00	1.3524	-1.844971	0.000831	8.313580	2.816717	0.000333
  36	3.4825e+00	1.3925	-1.538149	0.000771	7.705269	2.610616	0.000308
  37	3.5820e+00	1.4358	-1.231326	0.000771	7.705269	2.610616	0.000308
  38	3.6815e+00	1.4647	-0.924504	0.000771	7.705269	2.610616	0.000308
  39	3.7810e+00	1.5176	-0.577310	0.000872	8.719120	2.954118	0.000349
  40	3.8805e+00	1.5657	-0.234154	0.000862	8.617735	2.919768	0.000345
  41	3.9800e+00	1.5946	0.044408	0.000700	6.995573	2.370164	0.000280
  42	4.0795e+00	1.6315	0.395639	0.000882	8.820505	2.988468	0.000353
  43	4.1790e+00	1.6668	0.758982	0.000912	9.124661	3.091519	0.000365
  44	4.2785e+00	1.7069	1.073878	0.000791	7.908039	2.679316	0.000316
  45	4.3780e+00	1.7550	1.417035	0.000862	8.617735	2.919768	0.000345
  46	4.4775e+00	1.7855	1.703671	0.000720	7.198343	2.438865	0.000288
  47	4.5770e+00	1.8368	2.067013	0.000912	9.124661	3.091519	0.000365
  48	4.6765e+00	1.8705	2.389984	0.000811	8.110809	2.748017	0.000325
  49	4.7760e+00	1.9106	2.716992	0.000821	8.212195	2.782367	0.000329
  50	4.8755e+00	1.9507	3.027852	0.000781	7.806654	2.644966	0.000312
  51	4.9750e+00	1.9828	3.379083	0.000882	8.820505	2.988468	0.000353
  52	5.0745e+00	2.0358	3.754536	0.000943	9.428816	3.194569	0.000377
  53	5.1740e+00	2.0743	4.077507	0.000811	8.110809	2.748017	0.000325
  54	5.2735e+00	2.1176	4.376255	0.000750	7.502499	2.541915	0.000300
  55	5.3730e+00	2.1561	4.691152	0.000791	7.908039	2.679316	0.000316
  56	5.4725e+00	2.1769	5.022197	0.000831	8.313580	2.816717	0.000333
  57	5.5720e+00	2.2251	5.377465	0.000892	8.921890	3.022818	0.000357
  58	5.6715e+00	2.2732	5.728696	0.000882	8.820505	2.988468	0.000353
  59	5.7710e+00	2.3005	6.031481	0.000760	7.603884	2.576266	0.000304
  60	5.8705e+00	2.3454	6.346377	0.000791	7.908039	2.679316	0.000316
  61	5.9700e+00	2.3871	6.733942	0.000973	9.732971	3.297620	0.000390
  62	6.0695e+00	2.4272	7.101322	0.000923	9.226046	3.125869	0.000369
  63	6.1690e+00	2.4657	7.412181	0.000781	7.806654	2.644966	0.000312
  64	6.2685e+00	2.5090	7.735152	0.000811	8.110809	2.748017	0.000325
  65	6.3680e+00	2.5475	8.106569	0.000933	9.327431	3.160219	0.000373
  66	6.4675e+00	2.5860	8.437614	0.000831	8.313580	2.816717	0.000333
  67	6.5670e+00	2.6245	8.776733	0.000852	8.516350	2.885417	0.000341
  68	6.6665e+00	2.6678	9.127964	0.000882	8.820505	2.988468	0.000353
  69	6.7660e+00	2.7079	9.507455	0.000953	9.530201	3.228920	0.000381
  70	6.8655e+00	2.7432	9.862723	0.000892	8.921890	3.022818	0.000357
  71	6.9650e+00	2.7914	10.197805	0.000841	8.414965	2.851067	0.000337
  72	7.0645e+00	2.8170	10.488479	0.000730	7.299728	2.473215	0.000292
  73	7.1640e+00	2.8571	10.851821	0.000912	9.124661	3.091519	0.000365
  74	7.2635e+00	2.9133	11.194977	0.000862	8.617735	2.919768	0.000345
  75	7.3630e+00	2.9438	11.517948	0.000811	8.110809	2.748017	0.000325
  76	7.4625e+00	2.9903	11.897439	0.000953	9.530201	3.228920	0.000381
  77	7.5620e+00	3.0160	12.240596	0.000862	8.617735	2.919768	0.000345
  78	7.6615e+00	3.0673	12.616049	0.000943	9.428816	3.194569	0.000377
  79	7.7610e+00	3.1058	12.955169	0.000852	8.516350	2.885417	0.000341
  80	7.8605e+00	3.1475	13.318511	0.000912	9.124661	3.091519	0.000365
  81	7.9600e+00	3.1844	13.657630	0.000852	8.516350	2.885417	0.000341
  82	8.0595e+00	3.2229	14.041158	0.000963	9.631586	3.263270	0.000385
  83	8.1590e+00	3.2598	14.356055	0.000791	7.908039	2.679316	0.000316
  84	8.2585e+00	3.2935	14.719397	0.000912	9.124661	3.091519	0.000365
  85	8.3580e+00	3.3416	15.070628	0.000882	8.820505	2.988468	0.000353
  86	8.4575e+00	3.3849	15.442044	0.000933	9.327431	3.160219	0.000373
  87	8.5570e+00	3.4266	15.833646	0.000983	9.834356	3.331970	0.000394
  88	8.6565e+00	3.4571	16.164691	0.000831	8.313580	2.816717	0.000333
  89	8.7560e+00	3.5052	16.519959	0.000892	8.921890	3.022818	0.000357
  90	8.8555e+00	3.5502	16.846967	0.000821	8.212195	2.782367	0.000329
  91	8.9550e+00	3.5839	17.246644	0.001004	10.037127	3.400671	0.000402
  92	9.0545e+00	3.6240	17.553466	0.000771	7.705269	2.610616	0.000308
  93	9.1540e+00	3.6625	17.928920	0.000943	9.428816	3.194569	0.000377
  94	9.2535e+00	3.7010	18.259965	0.000831	8.313580	2.816717	0.000333
  95	9.3530e+00	3.7314	18.639456	0.000953	9.530201	3.228920	0.000381
  96	9.4525e+00	3.7812	19.002798	0.000912	9.124661	3.091519	0.000365
  97	9.5520e+00	3.8213	19.390363	0.000973	9.732971	3.297620	0.000390
  98	9.6515e+00	3.8630	19.709297	0.000801	8.009424	2.713666	0.000321
  99	9.7510e+00	3.9015	20.100899	0.000983	9.834356	3.331970	0.000394
 100	9.8505e+00	3.9416	20.468278	0.000923	9.226046	3.125869	0.000369
 101	9.9500e+00	3.9753	20.819509	0.000882	8.820505	2.988468	0.000353
 102	1.0050e+01	4.0154	21.199000	0.000953	9.530201	3.228920	0.000381
 103	1.0149e+01	4.0539	21.554268	0.000892	8.921890	3.022818	0.000357
 104	1.0248e+01	4.0956	21.957981	0.001014	10.138512	3.435021	0.000406
 105	1.0348e+01	4.1485	22.301138	0.000862	8.617735	2.919768	0.000345
 106	1.0447e+01	4.1774	22.664480	0.000912	9.124661	3.091519	0.000365
 107	1.0547e+01	4.2143	22.983414	0.000801	8.009424	2.713666	0.000321
 108	1.0646e+01	4.2657	23.379053	0.000994	9.935742	3.366320	0.000398
 109	1.0746e+01	4.3009	23.766618	0.000973	9.732971	3.297620	0.000390
 110	1.0845e+01	4.3378	24.105737	0.000852	8.516350	2.885417	0.000341
 111	1.0945e+01	4.3812	24.497340	0.000983	9.834356	3.331970	0.000394
 112	1.1044e+01	4.4213	24.836459	0.000852	8.516350	2.885417	0.000341
 113	1.1144e+01	4.4630	25.228061	0.000983	9.834356	3.331970	0.000394
 114	1.1243e+01	4.4983	25.583329	0.000892	8.921890	3.022818	0.000357
 115	1.1343e+01	4.5464	25.954746	0.000933	9.327431	3.160219	0.000373
 116	1.1443e+01	4.5865	26.338274	0.000963	9.631586	3.263270	0.000385
 117	1.1542e+01	4.6106	26.689504	0.000882	8.820505	2.988468	0.000353
 118	1.1642e+01	4.6571	27.056884	0.000923	9.226046	3.125869	0.000369
 119	1.1741e+01	4.6956	27.396003	0.000852	8.516350	2.885417	0.000341
 120	1.1841e+01	4.7389	27.767420	0.000933	9.327431	3.160219	0.000373
 121	1.1940e+01	4.7774	28.187282	0.001054	10.544052	3.572422	0.000422
 122	1.2040e+01	4.8207	28.595032	0.001024	10.239897	3.469371	0.000410
 123	1.2139e+01	4.8624	28.909929	0.000791	7.908039	2.679316	0.000316
 124	1.2239e+01	4.9009	29.265197	0.000892	8.921890	3.022818	0.000357
 125	1.2338e+01	4.9330	29.608354	0.000862	8.617735	2.919768	0.000345
 126	1.2438e+01	4.9811	29.995919	0.000973	9.732971	3.297620	0.000390
 127	1.2537e+01	5.0116	30.351186	0.000892	8.921890	3.022818	0.000357
 128	1.2636e+01	5.0678	30.738752	0.000973	9.732971	3.297620	0.000390
 129	1.2736e+01	5.0918	31.138428	0.001004	10.037127	3.400671	0.000402
 130	1.2835e+01	5.1400	31.465436	0.000821	8.212195	2.782367	0.000329
 131	1.2935e+01	5.1753	31.861075	0.000994	9.935742	3.366320	0.000398
 132	1.3034e+01	5.2234	32.220380	0.000902	9.023276	3.057168	0.000361
 133	1.3134e+01	5.2683	32.603908	0.000963	9.631586	3.263270	0.000385
 134	1.3233e+01	5.2972	32.934953	0.000831	8.313580	2.816717	0.000333
 135	1.3333e+01	5.3309	33.379038	0.001115	11.152363	3.778523	0.000446
 136	1.3432e+01	5.3774	33.726232	0.000872	8.719120	2.954118	0.000349
 137	1.3532e+01	5.4079	34.138020	0.001034	10.341282	3.503721	0.000414
 138	1.3632e+01	5.4624	34.501362	0.000912	9.124661	3.091519	0.000365
 139	1.3731e+01	5.4993	34.897001	0.000994	9.935742	3.366320	0.000398
 140	1.3831e+01	5.5298	35.228046	0.000831	8.313580	2.816717	0.000333
 141	1.3930e+01	5.5731	35.635797	0.001024	10.239897	3.469371	0.000410
 142	1.4030e+01	5.6036	36.003177	0.000923	9.226046	3.125869	0.000369
 143	1.4129e+01	5.6597	36.346333	0.000862	8.617735	2.919768	0.000345
 144	1.4229e+01	5.6934	36.741972	0.000994	9.935742	3.366320	0.000398
 145	1.4328e+01	5.7335	37.133575	0.000983	9.834356	3.331970	0.000394
 146	1.4428e+01	5.7784	37.521140	0.000973	9.732971	3.297620	0.000390
 147	1.4527e+01	5.8186	37.852185	0.000831	8.313580	2.816717	0.000333
 148	1.4627e+01	5.8522	38.243787	0.000983	9.834356	3.331970	0.000394
 149	1.4726e+01	5.8956	38.659612	0.001044	10.442667	3.538071	0.000418
 150	1.4825e+01	5.9405	39.014880	0.000892	8.921890	3.022818	0.000357
 151	1.4925e+01	5.9710	39.370148	0.000892	8.921890	3.022818	0.000357
 152	1.5024e+01	6.0175	39.753676	0.000963	9.631586	3.263270	0.000385
 153	1.5124e+01	6.0592	40.104906	0.000882	8.820505	2.988468	0.000353
 154	1.5223e+01	6.0913	40.516694	0.001034	10.341282	3.503721	0.000414
 155	1.5323e+01	6.1282	40.908296	0.000983	9.834356	3.331970	0.000394
 156	1.5422e+01	6.1763	41.271639	0.000912	9.124661	3.091519	0.000365
 157	1.5522e+01	6.2148	41.655167	0.000963	9.631586	3.263270	0.000385
 158	1.5621e+01	6.2565	42.038694	0.000963	9.631586	3.263270	0.000385
 159	1.5721e+01	6.3030	42.377814	0.000852	8.516350	2.885417	0.000341
 160	1.5820e+01	6.3319	42.733082	0.000892	8.921890	3.022818	0.000357
 161	1.5920e+01	6.3656	43.165055	0.001085	10.848208	3.675472	0.000434
 162	1.6020e+01	6.4169	43.492063	0.000821	8.212195	2.782367	0.000329
 163	1.6119e+01	6.4506	43.907888	0.001044	10.442667	3.538071	0.000418
 164	1.6218e+01	6.4747	44.198562	0.000730	7.299728	2.473215	0.000292
 165	1.6318e+01	6.5340	44.634573	0.001095	10.949593	3.709822	0.000438
 166	1.6418e+01	6.5693	45.005989	0.000933	9.327431	3.160219	0.000373
 167	1.6517e+01	6.6014	45.413740	0.001024	10.239897	3.469371	0.000410
 168	1.6616e+01	6.6479	45.712488	0.000750	7.502499	2.541915	0.000300
 169	1.6716e+01	6.6832	46.132350	0.001054	10.544052	3.572422	0.000422
 170	1.6816e+01	6.7314	46.491655	0.000902	9.023276	3.057168	0.000361
 171	1.6915e+01	6.7699	46.818663	0.000821	8.212195	2.782367	0.000329
 172	1.7015e+01	6.8132	47.254674	0.001095	10.949593	3.709822	0.000438
 173	1.7114e+01	6.8404	47.646276	0.000983	9.834356	3.331970	0.000394
 174	1.7213e+01	6.8950	48.005581	0.000902	9.023276	3.057168	0.000361
 175	1.7313e+01	6.9287	48.425443	0.001054	10.544052	3.572422	0.000422
 176	1.7413e+01	6.9640	48.728228	0.000760	7.603884	2.576266	0.000304
 177	1.7512e+01	7.0089	49.135979	0.001024	10.239897	3.469371	0.000410
 178	1.7611e+01	7.0490	49.491247	0.000892	8.921890	3.022818	0.000357
 179	1.7711e+01	7.0811	49.850552	0.000902	9.023276	3.057168	0.000361
 180	1.7811e+01	7.1356	50.250229	0.001004	10.037127	3.400671	0.000402
 181	1.7910e+01	7.1597	50.637794	0.000973	9.732971	3.297620	0.000390
 182	1.8009e+01	7.2062	50.972876	0.000841	8.414965	2.851067	0.000337
 183	1.8109e+01	7.2511	51.376589	0.001014	10.138512	3.435021	0.000406
 184	1.8209e+01	7.2928	51.748006	0.000933	9.327431	3.160219	0.000373
 185	1.8308e+01	7.3265	52.123460	0.000943	9.428816	3.194569	0.000377
 186	1.8407e+01	7.3618	52.458542	0.000841	8.414965	2.851067	0.000337
 187	1.8507e+01	7.4019	52.874367	0.001044	10.442667	3.538071	0.000418
 188	1.8607e+01	7.4501	53.249820	0.000943	9.428816	3.194569	0.000377
 189	1.8706e+01	7.4837	53.613163	0.000912	9.124661	3.091519	0.000365
 190	1.8805e+01	7.5335	54.024950	0.001034	10.341282	3.503721	0.000414
 191	1.8905e+01	7.5688	54.343884	0.000801	8.009424	2.713666	0.000321
 192	1.9005e+01	7.6057	54.787969	0.001115	11.152363	3.778523	0.000446
 193	1.9104e+01	7.6426	55.187646	0.001004	10.037127	3.400671	0.000402
 194	1.9203e+01	7.6923	55.522728	0.000841	8.414965	2.851067	0.000337
 195	1.9303e+01	7.7196	55.894144	0.000933	9.327431	3.160219	0.000373
 196	1.9402e+01	7.7709	56.261524	0.000923	9.226046	3.125869	0.000369
 197	1.9502e+01	7.7966	56.632940	0.000933	9.327431	3.160219	0.000373
 198	1.9602e+01	7.8495	57.024542	0.000983	9.834356	3.331970	0.000394
 199	1.9701e+01	7.8944	57.359625	0.000841	8.414965	2.851067	0.000337
 200	1.9800e+01	7.9185	57.731041	0.000933	9.327431	3.160219	0.000373
 201	1.9900e+01	7.9602	58.154940	0.001065	10.645437	3.606772	0.000426
 202	2.0000e+01	8.0035	58.502134	0.000872	8.719120	2.954118	0.000349
 203	2.0099e+01	8.0532	58.873550	0.000933	9.327431	3.160219	0.000373
 204	2.0198e+01	8.0789	59.224781	0.000882	8.820505	2.988468	0.000353
 205	2.0298e+01	8.1238	59.632532	0.001024	10.239897	3.469371	0.000410
 206	2.0398e+01	8.1607	59.999911	0.000923	9.226046	3.125869	0.000369
 207	2.0497e+01	8.2008	60.391514	0.000983	9.834356	3.331970	0.000394
 208	2.0596e+01	8.2522	60.734670	0.000862	8.617735	2.919768	0.000345
 209	2.0696e+01	8.2698	61.162606	0.001075	10.746823	3.641122	0.000430
 210	2.0796e+01	8.3292	61.566320	0.001014	10.138512	3.435021	0.000406
 211	2.0895e+01	8.3661	61.937736	0.000933	9.327431	3.160219	0.000373
 212	2.0994e+01	8.4126	62.284930	0.000872	8.719120	2.954118	0.000349
 213	2.1094e+01	8.4415	62.648272	0.000912	9.124661	3.091519	0.000365
 214	2.1194e+01	8.4800	63.019689	0.000933	9.327431	3.160219	0.000373
 215	2.1293e+01	8.5169	63.399180	0.000953	9.530201	3.228920	0.000381
 216	2.1392e+01	8.5682	63.782708	0.000963	9.631586	3.263270	0.000385
 217	2.1492e+01	8.6003	64.154124	0.000933	9.327431	3.160219	0.000373
 218	2.1591e+01	8.6404	64.505355	0.000882	8.820505	2.988468	0.000353
 219	2.1691e+01	8.6789	64.876771	0.000933	9.327431	3.160219	0.000373
 220	2.1791e+01	8.7222	65.236076	0.000902	9.023276	3.057168	0.000361
 221	2.1890e+01	8.7575	65.643827	0.001024	10.239897	3.469371	0.000410
 222	2.1989e+01	8.7960	65.978909	0.000841	8.414965	2.851067	0.000337
 223	2.2089e+01	8.8393	66.366474	0.000973	9.732971	3.297620	0.000390
 224	2.2189e+01	8.8826	66.766151	0.001004	10.037127	3.400671	0.000402
 225	2.2288e+01	8.9147	67.121419	0.000892	8.921890	3.022818	0.000357
 226	2.2387e+01	8.9596	67.513021	0.000983	9.834356	3.331970	0.000394
 227	2.2487e+01	9.0030	67.896549	0.000963	9.631586	3.263270	0.000385
 228	2.2587e+01	9.0382	68.296225	0.001004	10.037127	3.400671	0.000402
 229	2.2686e+01	9.0784	68.619196	0.000811	8.110809	2.748017	0.000325
 230	2.2785e+01	9.1217	68.982538	0.000912	9.124661	3.091519	0.000365
 231	2.2885e+01	9.1618	69.349918	0.000923	9.226046	3.125869	0.000369
 232	2.2985e+01	9.2083	69.725371	0.000943	9.428816	3.194569	0.000377
 233	2.3084e+01	9.2420	70.133122	0.001024	10.239897	3.469371	0.000410
 234	2.3183e+01	9.2773	70.460130	0.000821	8.212195	2.782367	0.000329
 235	2.3283e+01	9.3238	70.847695	0.000973	9.732971	3.297620	0.000390
 236	2.3383e+01	9.3495	71.186814	0.000852	8.516350	2.885417	0.000341
 237	2.3482e+01	9.4040	71.602639	0.001044	10.442667	3.538071	0.000418
 238	2.3581e+01	9.4489	71.961945	0.000902	9.023276	3.057168	0.000361
 239	2.3681e+01	9.5003	72.361621	0.001004	10.037127	3.400671	0.000402
 240	2.3780e+01	9.5243	72.765335	0.001014	10.138512	3.435021	0.000406
 241	2.3880e+01	9.5660	73.132714	0.000923	9.226046	3.125869	0.000369
 242	2.3980e+01	9.5917	73.479908	0.000872	8.719120	2.954118	0.000349
 243	2.4079e+01	9.6414	73.855361	0.000943	9.428816	3.194569	0.000377
 244	2.4178e+01	9.6864	74.226778	0.000933	9.327431	3.160219	0.000373
 245	2.4278e+01	9.7217	74.638566	0.001034	10.341282	3.503721	0.000414
 246	2.4378e+01	9.7553	75.014019	0.000943	9.428816	3.194569	0.000377
 247	2.4477e+01	9.7970	75.341027	0.000821	8.212195	2.782367	0.000329
 248	2.4576e+01	9.8388	75.740704	0.001004	10.037127	3.400671	0.000402
 249	2.4676e+01	9.8692	76.095972	0.000892	8.921890	3.022818	0.000357
 250	2.4776e+01	9.9126	76.475462	0.000953	9.530201	3.228920	0.000381
 251	2.4875e+01	9.9591	76.838805	0.000912	9.124661	3.091519	0.000365
 252	2.4974e+01	9.9896	77.222332	0.000963	9.631586	3.263270	0.000385
 253	2.5074e+01	10.0377	77.597786	0.000943	9.428816	3.194569	0.000377
 254	2.5174e+01	10.0778	77.949017	0.000882	8.820505	2.988468	0.000353
 255	2.5273e+01	10.1131	78.360805	0.001034	10.341282	3.503721	0.000414
 256	2.5372e+01	10.1516	78.728184	0.000923	9.226046	3.125869	0.000369
 257	2.5472e+01	10.1901	79.111712	0.000963	9.631586	3.263270	0.000385
 258	2.5572e+01	10.2334	79.499277	0.000973	9.732971	3.297620	0.000390
 259	2.5671e+01	10.2751	79.866656	0.000923	9.226046	3.125869	0.000369
 260	2.5770e+01	10.3152	80.294593	0.001075	10.746823	3.641122	0.000430
 261	2.5870e+01	10.3505	80.597378	0.000760	7.603884	2.576266	0.000304
