»»»»»»»»»»»»»»»»»»»»»»»»»»»»»»»»»»»» Hysteresis ««««««««««««««««««««««««««««««««««««
»»»  Executed Version:	5.48.1
»»»  Vision Version:	5.48.4 (R)
»»»  Vision Compiled:	9/18/24
»»»  Driver Version:	5.47.0
»»»  Windows Version:	Windows 8 or 8.1
»»»  Processor Information:	x86 (AMD or Intel) - 32 Processors
»»»  Tester Name:	PMF21124-494 (100V)
»»»  Tester S/N:	PMF21124-494
»»»  Internal Amp Type:	100V RevK 270k
»»»  Internal Amp S/N:	iAB2-596/K     
»»»  Execution Count:	1
»»»»»»»»»»»»»»»»»»»»»»»»»»»»»»»»»»»»»»»»»»««««««««««««««««««««««««««««««««««««««««««

Stored:	6/6/2025 - 14:4:0
Configured:	06/06/25 01:57:07 PM
Executed:	06/06/25 02:02:39 PM

»»»»»»»»»»»»»»»»»»»»»»»»»»»»»»»»»»» Sample Info ««««««««««««««««««««««««««««««««««««
Sample Name:	
Lot Name:	
Wafer Name:	
Die Row/Column:	0/0
Capacitor Number:	0
Sample Area (cm2):	1.00e-04
Sample Thickness (microns):	3.00e-01

Amplifier:	Internal

»»»»»»»»»»»»»»»»»»»»»»»»»»»»»»»»»»» Tester Info «««««««««««««««««««««««««««««««««««
Tester Name:	PMF21124-494 (100V)
Tester Serial Number:	PMF21124-494
Return Signal Amp. Level:	1.9 [Index: 2]

»»»»»»»»»»»»»»»»»»»»»»»»»»»»»»»» Hysteresis Info ««««««««««««««««««««««««««««««««««
Task Name:	Hyst-501
Volts:	20.00
Field:	666.67 (kV/cm)
DCBias:	0.00
DCField:	0.00 (kV/cm)
Hysteresis Period (ms):	2.00e+02
Preset:	Enabled
Preset Delay (ms):	1.00e+03
Profile:	Standard Bipolar

»»»»»»»»»»»»»»»»»»»»»»»»»»»»»»»»»»»»»» Data «««««««««««««««««««««««««««««««««««««««
Points:	2009

Valid Data

Point	Time (ms)	Drive Voltage	Measured Polarization (uC/cm2)	Capacitance (uF)	Normalized Capacitance (uF/cm2)	Dielectric Constant	Instantaneous Current (mA)
   1	0.0000e+00	0.0064	-3.403143	0.000160	1.598556	0.541605	0.000064
   2	9.9500e-02	0.0353	-3.339191	0.000160	1.598556	0.541605	0.000064
   3	1.9900e-01	0.0818	-3.244280	0.000237	2.372379	0.803784	0.000095
   4	2.9850e-01	0.1123	-3.149369	0.000237	2.372379	0.803784	0.000095
   5	3.9800e-01	0.1492	-3.052829	0.000241	2.413106	0.817582	0.000097
   6	4.9750e-01	0.2037	-2.963213	0.000224	2.240014	0.758937	0.000090
   7	5.9700e-01	0.2246	-2.861378	0.000255	2.545471	0.862429	0.000102
   8	6.9650e-01	0.2711	-2.760764	0.000251	2.514925	0.852080	0.000101
   9	7.9600e-01	0.3208	-2.667483	0.000233	2.331651	0.789985	0.000094
  10	8.9550e-01	0.3674	-2.574609	0.000232	2.321469	0.786535	0.000093
  11	9.9500e-01	0.3786	-2.473180	0.000254	2.535289	0.858979	0.000102
  12	1.0945e+00	0.4428	-2.373381	0.000249	2.494561	0.845180	0.000100
  13	1.1940e+00	0.4925	-2.275212	0.000245	2.453834	0.831381	0.000099
  14	1.2935e+00	0.5166	-2.168895	0.000266	2.657471	0.900376	0.000107
  15	1.3930e+00	0.5679	-2.075614	0.000233	2.331651	0.789985	0.000094
  16	1.4925e+00	0.5839	-1.970112	0.000264	2.637108	0.893476	0.000106
  17	1.5920e+00	0.6433	-1.873165	0.000242	2.423288	0.821032	0.000097
  18	1.6915e+00	0.6674	-1.774995	0.000245	2.453834	0.831381	0.000099
  19	1.7910e+00	0.7010	-1.673160	0.000255	2.545471	0.862429	0.000102
  20	1.8905e+00	0.7572	-1.573768	0.000248	2.484379	0.841730	0.000100
  21	1.9900e+00	0.7748	-1.465822	0.000270	2.698199	0.914175	0.000108
  22	2.0895e+00	0.8390	-1.359913	0.000265	2.647289	0.896926	0.000106
  23	2.1890e+00	0.8567	-1.265410	0.000236	2.362197	0.800334	0.000095
  24	2.2885e+00	0.9272	-1.163981	0.000254	2.535289	0.858979	0.000102
  25	2.3880e+00	0.9481	-1.058887	0.000263	2.626926	0.890027	0.000106
  26	2.4875e+00	0.9850	-0.950534	0.000271	2.708381	0.917624	0.000109
  27	2.5870e+00	1.0331	-0.853586	0.000242	2.423288	0.821032	0.000097
  28	2.6865e+00	1.0476	-0.749307	0.000261	2.606562	0.883127	0.000105
  29	2.7860e+00	1.1101	-0.646656	0.000257	2.565834	0.869328	0.000103
  30	2.8855e+00	1.1486	-0.543191	0.000259	2.586198	0.876228	0.000104
  31	2.9850e+00	1.1871	-0.434838	0.000271	2.708381	0.917624	0.000109
  32	3.0845e+00	1.2128	-0.337076	0.000244	2.443652	0.827932	0.000098
  33	3.1840e+00	1.2689	-0.228723	0.000271	2.708381	0.917624	0.000109
  34	3.2835e+00	1.3123	-0.125258	0.000259	2.586198	0.876228	0.000104
  35	3.3830e+00	1.3636	-0.021793	0.000259	2.586198	0.876228	0.000104
  36	3.4825e+00	1.3828	0.079228	0.000253	2.525107	0.855529	0.000102
  37	3.5820e+00	1.4342	0.183915	0.000262	2.616744	0.886577	0.000105
  38	3.6815e+00	1.4759	0.287788	0.000260	2.596380	0.879677	0.000104
  39	3.7810e+00	1.5192	0.388401	0.000251	2.514925	0.852080	0.000101
  40	3.8805e+00	1.5433	0.493496	0.000263	2.626926	0.890027	0.000106
  41	3.9800e+00	1.5882	0.595738	0.000256	2.555652	0.865879	0.000103
  42	4.0795e+00	1.6556	0.703277	0.000269	2.688017	0.910725	0.000108
  43	4.1790e+00	1.6812	0.807557	0.000261	2.606562	0.883127	0.000105
  44	4.2785e+00	1.7101	0.915095	0.000269	2.688017	0.910725	0.000108
  45	4.3780e+00	1.7454	1.018967	0.000260	2.596380	0.879677	0.000104
  46	4.4775e+00	1.7791	1.119988	0.000253	2.525107	0.855529	0.000102
  47	4.5770e+00	1.8240	1.226712	0.000267	2.667653	0.903825	0.000107
  48	4.6765e+00	1.8545	1.331806	0.000263	2.626926	0.890027	0.000106
  49	4.7760e+00	1.8866	1.440567	0.000272	2.718563	0.921074	0.000109
  50	4.8755e+00	1.9315	1.541995	0.000254	2.535289	0.858979	0.000102
  51	4.9750e+00	1.9812	1.648312	0.000266	2.657471	0.900376	0.000107
  52	5.0745e+00	2.0342	1.753406	0.000263	2.626926	0.890027	0.000106
  53	5.1740e+00	2.0727	1.860537	0.000268	2.677835	0.907275	0.000108
  54	5.2735e+00	2.0951	1.969298	0.000272	2.718563	0.921074	0.000109
  55	5.3730e+00	2.1513	2.077651	0.000271	2.708381	0.917624	0.000109
  56	5.4725e+00	2.1978	2.185189	0.000269	2.688017	0.910725	0.000108
  57	5.5720e+00	2.2331	2.291506	0.000266	2.657471	0.900376	0.000107
  58	5.6715e+00	2.2748	2.398637	0.000268	2.677835	0.907275	0.000108
  59	5.7710e+00	2.3053	2.496399	0.000244	2.443652	0.827932	0.000098
  60	5.8705e+00	2.3438	2.612084	0.000289	2.891655	0.979719	0.000116
  61	5.9700e+00	2.3598	2.712290	0.000250	2.504743	0.848630	0.000101
  62	6.0695e+00	2.4352	2.826754	0.000286	2.861109	0.969370	0.000115
  63	6.1690e+00	2.4769	2.931441	0.000262	2.616744	0.886577	0.000105
  64	6.2685e+00	2.4882	3.046719	0.000288	2.881473	0.976269	0.000116
  65	6.3680e+00	2.5523	3.148554	0.000255	2.545471	0.862429	0.000102
  66	6.4675e+00	2.5812	3.261388	0.000282	2.820381	0.955571	0.000113
  67	6.5670e+00	2.6486	3.364853	0.000259	2.586198	0.876228	0.000104
  68	6.6665e+00	2.6598	3.471577	0.000267	2.667653	0.903825	0.000107
  69	6.7660e+00	2.7256	3.577079	0.000264	2.637108	0.893476	0.000106
  70	6.8655e+00	2.7464	3.691542	0.000286	2.861109	0.969370	0.000115
  71	6.9650e+00	2.7785	3.801117	0.000274	2.738926	0.927973	0.000110
  72	7.0645e+00	2.8218	3.903360	0.000256	2.555652	0.865879	0.000103
  73	7.1640e+00	2.8636	4.015787	0.000281	2.810200	0.952121	0.000113
  74	7.2635e+00	2.8988	4.128620	0.000282	2.820381	0.955571	0.000113
  75	7.3630e+00	2.9566	4.232900	0.000261	2.606562	0.883127	0.000105
  76	7.4625e+00	2.9935	4.345327	0.000281	2.810200	0.952121	0.000113
  77	7.5620e+00	3.0368	4.452865	0.000269	2.688017	0.910725	0.000108
  78	7.6615e+00	3.0705	4.570180	0.000293	2.932382	0.993518	0.000118
  79	7.7610e+00	3.0962	4.683014	0.000282	2.820381	0.955571	0.000113
  80	7.8605e+00	3.1507	4.794626	0.000279	2.789836	0.945222	0.000112
  81	7.9600e+00	3.1988	4.905423	0.000277	2.769472	0.938323	0.000111
  82	8.0595e+00	3.2454	5.014590	0.000273	2.728744	0.924524	0.000110
  83	8.1590e+00	3.2598	5.128239	0.000284	2.840745	0.962471	0.000114
  84	8.2585e+00	3.2983	5.232111	0.000260	2.596380	0.879677	0.000104
  85	8.3580e+00	3.3336	5.346575	0.000286	2.861109	0.969370	0.000115
  86	8.4575e+00	3.3817	5.456964	0.000276	2.759290	0.934873	0.000111
  87	8.5570e+00	3.4218	5.571020	0.000285	2.850927	0.965920	0.000115
  88	8.6565e+00	3.4619	5.682225	0.000278	2.779654	0.941772	0.000112
  89	8.7560e+00	3.4988	5.797503	0.000288	2.881473	0.976269	0.000116
  90	8.8555e+00	3.5582	5.907078	0.000274	2.738926	0.927973	0.000110
  91	8.9550e+00	3.5678	6.018690	0.000279	2.789836	0.945222	0.000112
  92	9.0545e+00	3.6272	6.129487	0.000277	2.769472	0.938323	0.000111
  93	9.1540e+00	3.6673	6.243950	0.000286	2.861109	0.969370	0.000115
  94	9.2535e+00	3.6962	6.353118	0.000273	2.728744	0.924524	0.000110
  95	9.3530e+00	3.7411	6.462286	0.000273	2.728744	0.924524	0.000110
  96	9.4525e+00	3.7732	6.571861	0.000274	2.738926	0.927973	0.000110
  97	9.5520e+00	3.8052	6.690805	0.000297	2.973110	1.007317	0.000120
  98	9.6515e+00	3.8678	6.793455	0.000257	2.565834	0.869328	0.000103
  99	9.7510e+00	3.8855	6.909548	0.000290	2.901836	0.983169	0.000117
 100	9.8505e+00	3.9496	7.021975	0.000281	2.810200	0.952121	0.000113
 101	9.9500e+00	3.9801	7.133994	0.000280	2.800018	0.948672	0.000113
 102	1.0050e+01	4.0154	7.246420	0.000281	2.810200	0.952121	0.000113
 103	1.0149e+01	4.0411	7.355588	0.000273	2.728744	0.924524	0.000110
 104	1.0248e+01	4.0972	7.464349	0.000272	2.718563	0.921074	0.000109
 105	1.0348e+01	4.1213	7.580441	0.000290	2.901836	0.983169	0.000117
 106	1.0447e+01	4.1887	7.687572	0.000268	2.677835	0.907275	0.000108
 107	1.0547e+01	4.2063	7.799184	0.000279	2.789836	0.945222	0.000112
 108	1.0646e+01	4.2592	7.913647	0.000286	2.861109	0.969370	0.000115
 109	1.0746e+01	4.2993	8.021186	0.000269	2.688017	0.910725	0.000108
 110	1.0845e+01	4.3282	8.135242	0.000285	2.850927	0.965920	0.000115
 111	1.0945e+01	4.3828	8.248483	0.000283	2.830563	0.959021	0.000114
 112	1.1044e+01	4.4197	8.356429	0.000270	2.698199	0.914175	0.000108
 113	1.1144e+01	4.4341	8.466411	0.000275	2.749108	0.931423	0.000111
 114	1.1243e+01	4.4967	8.577616	0.000278	2.779654	0.941772	0.000112
 115	1.1343e+01	4.5352	8.686784	0.000273	2.728744	0.924524	0.000110
 116	1.1443e+01	4.5833	8.798395	0.000279	2.789836	0.945222	0.000112
 117	1.1542e+01	4.6346	8.911229	0.000282	2.820381	0.955571	0.000113
 118	1.1642e+01	4.6715	9.021212	0.000275	2.749108	0.931423	0.000111
 119	1.1741e+01	4.7100	9.132009	0.000277	2.769472	0.938323	0.000111
 120	1.1841e+01	4.7405	9.246065	0.000285	2.850927	0.965920	0.000115
 121	1.1940e+01	4.7614	9.360121	0.000285	2.850927	0.965920	0.000115
 122	1.2040e+01	4.8111	9.470103	0.000275	2.749108	0.931423	0.000111
 123	1.2139e+01	4.8528	9.583752	0.000284	2.840745	0.962471	0.000114
 124	1.2239e+01	4.9073	9.694142	0.000276	2.759290	0.934873	0.000111
 125	1.2338e+01	4.9603	9.802087	0.000270	2.698199	0.914175	0.000108
 126	1.2438e+01	4.9876	9.915329	0.000283	2.830563	0.959021	0.000114
 127	1.2537e+01	5.0020	10.024497	0.000273	2.728744	0.924524	0.000110
 128	1.2636e+01	5.0710	10.140182	0.000289	2.891655	0.979719	0.000116
 129	1.2736e+01	5.1095	10.248535	0.000271	2.708381	0.917624	0.000109
 130	1.2835e+01	5.1496	10.357703	0.000273	2.728744	0.924524	0.000110
 131	1.2935e+01	5.1720	10.472573	0.000287	2.871291	0.972820	0.000115
 132	1.3034e+01	5.2105	10.582148	0.000274	2.738926	0.927973	0.000110
 133	1.3134e+01	5.2571	10.696612	0.000286	2.861109	0.969370	0.000115
 134	1.3233e+01	5.3004	10.800484	0.000260	2.596380	0.879677	0.000104
 135	1.3333e+01	5.3485	10.912911	0.000281	2.810200	0.952121	0.000113
 136	1.3432e+01	5.3678	11.023708	0.000277	2.769472	0.938323	0.000111
 137	1.3532e+01	5.4271	11.133690	0.000275	2.749108	0.931423	0.000111
 138	1.3632e+01	5.4512	11.239599	0.000265	2.647289	0.896926	0.000106
 139	1.3731e+01	5.4977	11.352841	0.000283	2.830563	0.959021	0.000114
 140	1.3831e+01	5.5426	11.463230	0.000276	2.759290	0.934873	0.000111
 141	1.3930e+01	5.6020	11.574435	0.000278	2.779654	0.941772	0.000112
 142	1.4030e+01	5.6132	11.676271	0.000255	2.545471	0.862429	0.000102
 143	1.4129e+01	5.6517	11.791956	0.000289	2.891655	0.979719	0.000116
 144	1.4229e+01	5.6966	11.897050	0.000263	2.626926	0.890027	0.000106
 145	1.4328e+01	5.7030	12.009884	0.000282	2.820381	0.955571	0.000113
 146	1.4428e+01	5.7817	12.112942	0.000258	2.576016	0.872778	0.000104
 147	1.4527e+01	5.7945	12.218036	0.000263	2.626926	0.890027	0.000106
 148	1.4627e+01	5.8378	12.326797	0.000272	2.718563	0.921074	0.000109
 149	1.4726e+01	5.8972	12.440038	0.000283	2.830563	0.959021	0.000114
 150	1.4825e+01	5.9308	12.545947	0.000265	2.647289	0.896926	0.000106
 151	1.4925e+01	5.9870	12.652671	0.000267	2.667653	0.903825	0.000107
 152	1.5024e+01	6.0175	12.758172	0.000264	2.637108	0.893476	0.000106
 153	1.5124e+01	6.0512	12.869377	0.000278	2.779654	0.941772	0.000112
 154	1.5223e+01	6.0961	12.973249	0.000260	2.596380	0.879677	0.000104
 155	1.5323e+01	6.1282	13.083639	0.000276	2.759290	0.934873	0.000111
 156	1.5422e+01	6.1651	13.180587	0.000242	2.423288	0.821032	0.000097
 157	1.5522e+01	6.2148	13.291384	0.000277	2.769472	0.938323	0.000111
 158	1.5621e+01	6.2437	13.398922	0.000269	2.688017	0.910725	0.000108
 159	1.5721e+01	6.2838	13.498721	0.000249	2.494561	0.845180	0.000100
 160	1.5820e+01	6.3175	13.607889	0.000273	2.728744	0.924524	0.000110
 161	1.5920e+01	6.3656	13.711354	0.000259	2.586198	0.876228	0.000104
 162	1.6020e+01	6.4185	13.815226	0.000260	2.596380	0.879677	0.000104
 163	1.6119e+01	6.4554	13.916655	0.000254	2.535289	0.858979	0.000102
 164	1.6218e+01	6.4907	14.012380	0.000239	2.392742	0.810683	0.000096
 165	1.6318e+01	6.5324	14.111772	0.000248	2.484379	0.841730	0.000100
 166	1.6418e+01	6.5629	14.220125	0.000271	2.708381	0.917624	0.000109
 167	1.6517e+01	6.6143	14.320331	0.000250	2.504743	0.848630	0.000101
 168	1.6616e+01	6.6624	14.419315	0.000247	2.474197	0.838281	0.000099
 169	1.6716e+01	6.6640	14.521151	0.000255	2.545471	0.862429	0.000102
 170	1.6816e+01	6.7265	14.623394	0.000256	2.555652	0.865879	0.000103
 171	1.6915e+01	6.7634	14.724415	0.000253	2.525107	0.855529	0.000102
 172	1.7015e+01	6.8052	14.827473	0.000258	2.576016	0.872778	0.000104
 173	1.7114e+01	6.8260	14.926049	0.000246	2.464016	0.834831	0.000099
 174	1.7213e+01	6.8934	15.023812	0.000244	2.443652	0.827932	0.000098
 175	1.7313e+01	6.9142	15.122796	0.000247	2.474197	0.838281	0.000099
 176	1.7413e+01	6.9736	15.225854	0.000258	2.576016	0.872778	0.000104
 177	1.7512e+01	7.0057	15.328097	0.000256	2.555652	0.865879	0.000103
 178	1.7611e+01	7.0554	15.425451	0.000243	2.433470	0.824482	0.000098
 179	1.7711e+01	7.0859	15.526880	0.000254	2.535289	0.858979	0.000102
 180	1.7811e+01	7.1308	15.623420	0.000241	2.413106	0.817582	0.000097
 181	1.7910e+01	7.1757	15.722811	0.000248	2.484379	0.841730	0.000100
 182	1.8009e+01	7.1998	15.821796	0.000247	2.474197	0.838281	0.000099
 183	1.8109e+01	7.2223	15.924446	0.000257	2.565834	0.869328	0.000103
 184	1.8209e+01	7.2784	16.022208	0.000244	2.443652	0.827932	0.000098
 185	1.8308e+01	7.3490	16.126488	0.000261	2.606562	0.883127	0.000105
 186	1.8407e+01	7.3538	16.220177	0.000234	2.341833	0.793434	0.000094
 187	1.8507e+01	7.4019	16.322012	0.000255	2.545471	0.862429	0.000102
 188	1.8607e+01	7.4902	16.416923	0.000237	2.372379	0.803784	0.000095
 189	1.8706e+01	7.4950	16.519574	0.000257	2.565834	0.869328	0.000103
 190	1.8805e+01	7.5110	16.613262	0.000234	2.341833	0.793434	0.000094
 191	1.8905e+01	7.5688	16.713876	0.000251	2.514925	0.852080	0.000101
 192	1.9005e+01	7.6009	16.802677	0.000222	2.219650	0.752038	0.000089
 193	1.9104e+01	7.6378	16.908993	0.000266	2.657471	0.900376	0.000107
 194	1.9203e+01	7.6763	17.007977	0.000247	2.474197	0.838281	0.000099
 195	1.9303e+01	7.7196	17.105332	0.000243	2.433470	0.824482	0.000098
 196	1.9402e+01	7.7581	17.199836	0.000236	2.362197	0.800334	0.000095
 197	1.9502e+01	7.8126	17.301264	0.000254	2.535289	0.858979	0.000102
 198	1.9602e+01	7.8591	17.390472	0.000223	2.229832	0.755488	0.000090
 199	1.9701e+01	7.8896	17.491493	0.000253	2.525107	0.855529	0.000102
 200	1.9800e+01	7.9297	17.584367	0.000232	2.321469	0.786535	0.000093
 201	1.9900e+01	7.9618	17.681314	0.000242	2.423288	0.821032	0.000097
 202	2.0000e+01	8.0067	17.779891	0.000246	2.464016	0.834831	0.000099
 203	2.0099e+01	8.0372	17.872765	0.000232	2.321469	0.786535	0.000093
 204	2.0198e+01	8.0709	17.961973	0.000223	2.229832	0.755488	0.000090
 205	2.0298e+01	8.1174	18.058514	0.000241	2.413106	0.817582	0.000097
 206	2.0398e+01	8.1848	18.150573	0.000230	2.301105	0.779636	0.000093
 207	2.0497e+01	8.2024	18.246299	0.000239	2.392742	0.810683	0.000096
 208	2.0596e+01	8.2377	18.337136	0.000227	2.270560	0.769286	0.000091
 209	2.0696e+01	8.2794	18.432861	0.000239	2.392742	0.810683	0.000096
 210	2.0796e+01	8.3420	18.530216	0.000243	2.433470	0.824482	0.000098
 211	2.0895e+01	8.3645	18.625127	0.000237	2.372379	0.803784	0.000095
 212	2.0994e+01	8.4046	18.720853	0.000239	2.392742	0.810683	0.000096
 213	2.1094e+01	8.4254	18.814541	0.000234	2.341833	0.793434	0.000094
 214	2.1194e+01	8.4896	18.905379	0.000227	2.270560	0.769286	0.000091
 215	2.1293e+01	8.5297	18.997846	0.000231	2.311287	0.783085	0.000093
 216	2.1392e+01	8.5714	19.093164	0.000238	2.382560	0.807233	0.000096
 217	2.1492e+01	8.5859	19.184001	0.000227	2.270560	0.769286	0.000091
 218	2.1591e+01	8.6548	19.276468	0.000231	2.311287	0.783085	0.000093
 219	2.1691e+01	8.6821	19.370971	0.000236	2.362197	0.800334	0.000095
 220	2.1791e+01	8.7158	19.466290	0.000238	2.382560	0.807233	0.000096
 221	2.1890e+01	8.7591	19.559164	0.000232	2.321469	0.786535	0.000093
 222	2.1989e+01	8.7896	19.654889	0.000239	2.392742	0.810683	0.000096
 223	2.2089e+01	8.8249	19.742875	0.000220	2.199287	0.745138	0.000088
 224	2.2189e+01	8.8907	19.836971	0.000235	2.352015	0.796884	0.000095
 225	2.2288e+01	8.9195	19.927401	0.000226	2.260378	0.765837	0.000091
 226	2.2387e+01	8.9757	20.023941	0.000241	2.413106	0.817582	0.000097
 227	2.2487e+01	9.0110	20.111520	0.000219	2.189105	0.741689	0.000088
 228	2.2587e+01	9.0318	20.213356	0.000255	2.545471	0.862429	0.000102
 229	2.2686e+01	9.0944	20.298898	0.000214	2.138195	0.724440	0.000086
 230	2.2785e+01	9.1265	20.394216	0.000238	2.382560	0.807233	0.000096
 231	2.2885e+01	9.1794	20.488312	0.000235	2.352015	0.796884	0.000095
 232	2.2985e+01	9.2051	20.581593	0.000233	2.331651	0.789985	0.000094
 233	2.3084e+01	9.2372	20.672838	0.000228	2.280742	0.772736	0.000092
 234	2.3183e+01	9.2821	20.768564	0.000239	2.392742	0.810683	0.000096
 235	2.3283e+01	9.3094	20.860623	0.000230	2.301105	0.779636	0.000093
 236	2.3383e+01	9.3735	20.952682	0.000230	2.301105	0.779636	0.000093
 237	2.3482e+01	9.4136	21.046779	0.000235	2.352015	0.796884	0.000095
 238	2.3581e+01	9.4634	21.137616	0.000227	2.270560	0.769286	0.000091
 239	2.3681e+01	9.4906	21.230897	0.000233	2.331651	0.789985	0.000094
 240	2.3780e+01	9.5163	21.323772	0.000232	2.321469	0.786535	0.000093
 241	2.3880e+01	9.5580	21.417868	0.000235	2.352015	0.796884	0.000095
 242	2.3980e+01	9.5917	21.510742	0.000232	2.321469	0.786535	0.000093
 243	2.4079e+01	9.6350	21.605653	0.000237	2.372379	0.803784	0.000095
 244	2.4178e+01	9.6559	21.697712	0.000230	2.301105	0.779636	0.000093
 245	2.4278e+01	9.7297	21.796289	0.000246	2.464016	0.834831	0.000099
 246	2.4378e+01	9.7762	21.887534	0.000228	2.280742	0.772736	0.000092
 247	2.4477e+01	9.7890	21.986111	0.000246	2.464016	0.834831	0.000099
 248	2.4576e+01	9.8548	22.074911	0.000222	2.219650	0.752038	0.000089
 249	2.4676e+01	9.8757	22.171859	0.000242	2.423288	0.821032	0.000097
 250	2.4776e+01	9.9190	22.266770	0.000237	2.372379	0.803784	0.000095
 251	2.4875e+01	9.9623	22.364939	0.000245	2.453834	0.831381	0.000099
 252	2.4974e+01	10.0168	22.454962	0.000225	2.250196	0.762387	0.000090
 253	2.5074e+01	10.0136	22.552724	-0.000244	-2.443652	-0.827932	0.000098
 254	2.5174e+01	10.0682	22.643154	0.000226	2.260378	0.765837	0.000091
 255	2.5273e+01	10.1275	22.744175	0.000253	2.525107	0.855529	0.000102
 256	2.5372e+01	10.1404	22.836642	0.000231	2.311287	0.783085	0.000093
 257	2.5472e+01	10.1789	22.932367	0.000239	2.392742	0.810683	0.000096
 258	2.5572e+01	10.2334	23.022797	0.000226	2.260378	0.765837	0.000091
 259	2.5671e+01	10.2895	23.125448	0.000257	2.565834	0.869328	0.000103
 260	2.5770e+01	10.3120	23.219544	0.000235	2.352015	0.796884	0.000095
 261	2.5870e+01	10.3569	23.310789	0.000228	2.280742	0.772736	0.000092
 262	2.5970e+01	10.3970	23.406107	0.000238	2.382560	0.807233	0.000096
 263	2.6069e+01	10.4436	23.501017	0.000237	2.372379	0.803784	0.000095
 264	2.6169e+01	10.4660	23.597965	0.000242	2.423288	0.821032	0.000097
 265	2.6268e+01	10.5350	23.692468	0.000236	2.362197	0.800334	0.000095
 266	2.6367e+01	10.5510	23.784121	0.000229	2.290924	0.776186	0.000092
 267	2.6467e+01	10.5767	23.880253	0.000240	2.402924	0.814133	0.000097
