»»»»»»»»»»»»»»»»»»»»»»»»»»»»»»»»»»»» Hysteresis ««««««««««««««««««««««««««««««««««««
»»»  Executed Version:	5.48.1
»»»  Vision Version:	5.48.4 (R)
»»»  Vision Compiled:	9/18/24
»»»  Driver Version:	5.47.0
»»»  Windows Version:	Windows 8 or 8.1
»»»  Processor Information:	x86 (AMD or Intel) - 32 Processors
»»»  Tester Name:	PMF21124-494 (100V)
»»»  Tester S/N:	PMF21124-494
»»»  Internal Amp Type:	100V RevK 270k
»»»  Internal Amp S/N:	iAB2-596/K     
»»»  Execution Count:	1
»»»»»»»»»»»»»»»»»»»»»»»»»»»»»»»»»»»»»»»»»»««««««««««««««««««««««««««««««««««««««««««

Stored:	6/6/2025 - 16:14:40
Configured:	06/06/25 01:57:07 PM
Executed:	06/06/25 04:14:02 PM

»»»»»»»»»»»»»»»»»»»»»»»»»»»»»»»»»»» Sample Info ««««««««««««««««««««««««««««««««««««
Sample Name:	
Lot Name:	
Wafer Name:	
Die Row/Column:	0/0
Capacitor Number:	0
Sample Area (cm2):	1.00e-04
Sample Thickness (microns):	3.00e-01

Amplifier:	Internal

»»»»»»»»»»»»»»»»»»»»»»»»»»»»»»»»»»» Tester Info «««««««««««««««««««««««««««««««««««
Tester Name:	PMF21124-494 (100V)
Tester Serial Number:	PMF21124-494
Return Signal Amp. Level:	1.9 [Index: 2]

»»»»»»»»»»»»»»»»»»»»»»»»»»»»»»»» Hysteresis Info ««««««««««««««««««««««««««««««««««
Task Name:	Hyst-501
Volts:	20.00
Field:	666.67 (kV/cm)
DCBias:	0.00
DCField:	0.00 (kV/cm)
Hysteresis Period (ms):	2.00e+02
Preset:	Enabled
Preset Delay (ms):	1.00e+03
Profile:	Standard Bipolar

»»»»»»»»»»»»»»»»»»»»»»»»»»»»»»»»»»»»»» Data «««««««««««««««««««««««««««««««««««««««
Points:	2009

Valid Data

Point	Time (ms)	Drive Voltage	Measured Polarization (uC/cm2)	Capacitance (uF)	Normalized Capacitance (uF/cm2)	Dielectric Constant	Instantaneous Current (mA)
   1	0.0000e+00	0.0305	-1.748722	0.000176	1.763778	0.597584	0.000072
   2	9.9500e-02	0.0465	-1.677437	0.000176	1.763778	0.597584	0.000072
   3	1.9900e-01	0.1283	-1.582933	0.000234	2.338265	0.792226	0.000095
   4	2.9850e-01	0.1508	-1.486393	0.000239	2.388659	0.809300	0.000097
   5	3.9800e-01	0.1845	-1.376818	0.000271	2.711179	0.918572	0.000110
   6	4.9750e-01	0.2390	-1.280278	0.000239	2.388659	0.809300	0.000097
   7	5.9700e-01	0.2599	-1.181701	0.000244	2.439053	0.826373	0.000099
   8	6.9650e-01	0.2839	-1.078643	0.000255	2.549919	0.863936	0.000104
   9	7.9600e-01	0.3192	-0.975585	0.000255	2.549919	0.863936	0.000104
  10	8.9550e-01	0.3850	-0.874972	0.000249	2.489446	0.843447	0.000101
  11	9.9500e-01	0.4315	-0.777617	0.000241	2.408817	0.816129	0.000098
  12	1.0945e+00	0.4572	-0.665190	0.000278	2.781730	0.942476	0.000113
  13	1.1940e+00	0.4909	-0.565391	0.000247	2.469289	0.836618	0.000100
  14	1.2935e+00	0.5053	-0.461519	0.000257	2.570076	0.870765	0.000104
  15	1.3930e+00	0.5663	-0.363350	0.000243	2.428974	0.822959	0.000099
  16	1.4925e+00	0.6257	-0.260292	0.000255	2.549919	0.863936	0.000104
  17	1.5920e+00	0.6577	-0.156420	0.000257	2.570076	0.870765	0.000104
  18	1.6915e+00	0.7043	-0.056621	0.000247	2.469289	0.836618	0.000100
  19	1.7910e+00	0.7508	0.036253	0.000230	2.297951	0.778567	0.000093
  20	1.8905e+00	0.7748	0.141755	0.000261	2.610391	0.884424	0.000106
  21	1.9900e+00	0.8117	0.239110	0.000241	2.408817	0.816129	0.000098
  22	2.0895e+00	0.8887	0.342168	0.000255	2.549919	0.863936	0.000104
  23	2.1890e+00	0.8839	0.436264	-0.000233	-2.328187	-0.788811	0.000095
  24	2.2885e+00	0.9224	0.536877	0.000249	2.489446	0.843447	0.000101
  25	2.3880e+00	0.9609	0.636676	0.000247	2.469289	0.836618	0.000100
  26	2.4875e+00	1.0347	0.740956	0.000258	2.580155	0.874180	0.000105
  27	2.5870e+00	1.0395	0.839940	0.000245	2.449132	0.829788	0.000099
  28	2.6865e+00	1.0957	0.935258	0.000236	2.358423	0.799055	0.000096
  29	2.7860e+00	1.1326	1.035057	0.000247	2.469289	0.836618	0.000100
  30	2.8855e+00	1.1599	1.142189	0.000265	2.650706	0.898084	0.000108
  31	2.9850e+00	1.2497	1.240358	0.000243	2.428974	0.822959	0.000099
  32	3.0845e+00	1.2657	1.337713	0.000241	2.408817	0.816129	0.000098
  33	3.1840e+00	1.3331	1.438327	0.000249	2.489446	0.843447	0.000101
  34	3.2835e+00	1.3427	1.537718	0.000246	2.459210	0.833203	0.000100
  35	3.3830e+00	1.3427	1.636295	-0.000244	-2.439053	-0.826373	0.000099
  36	3.4825e+00	1.3973	1.741389	0.000260	2.600312	0.881010	0.000106
  37	3.5820e+00	1.4342	1.843225	0.000252	2.519683	0.853692	0.000102
  38	3.6815e+00	1.4727	1.947097	0.000257	2.570076	0.870765	0.000104
  39	3.7810e+00	1.5353	2.050155	0.000255	2.549919	0.863936	0.000104
  40	3.8805e+00	1.5818	2.156471	0.000263	2.630549	0.891254	0.000107
  41	3.9800e+00	1.5946	2.261566	0.000260	2.600312	0.881010	0.000106
  42	4.0795e+00	1.6540	2.361365	0.000247	2.469289	0.836618	0.000100
  43	4.1790e+00	1.6925	2.470533	0.000270	2.701100	0.915157	0.000110
  44	4.2785e+00	1.7422	2.572368	0.000252	2.519683	0.853692	0.000102
  45	4.3780e+00	1.7711	2.683165	0.000274	2.741415	0.928816	0.000111
  46	4.4775e+00	1.8096	2.786223	0.000255	2.549919	0.863936	0.000104
  47	4.5770e+00	1.8272	2.891317	0.000260	2.600312	0.881010	0.000106
  48	4.6765e+00	1.8994	2.995190	0.000257	2.570076	0.870765	0.000104
  49	4.7760e+00	1.9411	3.105987	0.000274	2.741415	0.928816	0.000111
  50	4.8755e+00	1.9475	3.206193	0.000248	2.479368	0.840033	0.000101
  51	4.9750e+00	1.9860	3.306807	0.000249	2.489446	0.843447	0.000101
  52	5.0745e+00	2.0358	3.422085	0.000285	2.852281	0.966379	0.000116
  53	5.1740e+00	2.0695	3.523106	0.000250	2.499525	0.846862	0.000102
  54	5.2735e+00	2.1304	3.625756	0.000254	2.539840	0.860521	0.000103
  55	5.3730e+00	2.1962	3.735739	0.000272	2.721257	0.921987	0.000111
  56	5.4725e+00	2.2203	3.844906	0.000270	2.701100	0.915157	0.000110
  57	5.5720e+00	2.2732	3.953667	0.000269	2.691021	0.911743	0.000109
  58	5.6715e+00	2.3005	4.055095	0.000251	2.509604	0.850277	0.000102
  59	5.7710e+00	2.3261	4.162634	0.000266	2.660785	0.901498	0.000108
  60	5.8705e+00	2.3358	4.268543	0.000262	2.620470	0.887839	0.000106
  61	5.9700e+00	2.4031	4.367119	0.000244	2.439053	0.826373	0.000099
  62	6.0695e+00	2.4529	4.478731	0.000276	2.761572	0.935646	0.000112
  63	6.1690e+00	2.4898	4.583011	0.000258	2.580155	0.874180	0.000105
  64	6.2685e+00	2.5235	4.690549	0.000266	2.660785	0.901498	0.000108
  65	6.3680e+00	2.5652	4.791570	0.000250	2.499525	0.846862	0.000102
  66	6.4675e+00	2.6133	4.898294	0.000264	2.640627	0.894669	0.000107
  67	6.5670e+00	2.6438	5.004611	0.000263	2.630549	0.891254	0.000107
  68	6.6665e+00	2.6550	5.105632	0.000250	2.499525	0.846862	0.000102
  69	6.7660e+00	2.7128	5.216021	0.000273	2.731336	0.925402	0.000111
  70	6.8655e+00	2.7914	5.320301	0.000258	2.580155	0.874180	0.000105
  71	6.9650e+00	2.8138	5.424581	0.000258	2.580155	0.874180	0.000105
  72	7.0645e+00	2.8267	5.532527	0.000267	2.670864	0.904913	0.000108
  73	7.1640e+00	2.8892	5.640065	0.000266	2.660785	0.901498	0.000108
  74	7.2635e+00	2.9438	5.748011	0.000267	2.670864	0.904913	0.000108
  75	7.3630e+00	2.9678	5.852290	0.000258	2.580155	0.874180	0.000105
  76	7.4625e+00	3.0079	5.959829	0.000266	2.660785	0.901498	0.000108
  77	7.5620e+00	3.0561	6.060850	0.000250	2.499525	0.846862	0.000102
  78	7.6615e+00	3.0930	6.167166	0.000263	2.630549	0.891254	0.000107
  79	7.7610e+00	3.1315	6.273890	0.000264	2.640627	0.894669	0.000107
  80	7.8605e+00	3.1668	6.382243	0.000268	2.680942	0.908328	0.000109
  81	7.9600e+00	3.1988	6.486115	0.000257	2.570076	0.870765	0.000104
  82	8.0595e+00	3.1988	6.586729	-0.000249	-2.489446	-0.843447	0.000101
  83	8.1590e+00	3.2887	6.693453	0.000264	2.640627	0.894669	0.000107
  84	8.2585e+00	3.3352	6.795696	0.000253	2.529761	0.857106	0.000103
  85	8.3580e+00	3.3737	6.898753	0.000255	2.549919	0.863936	0.000104
  86	8.4575e+00	3.3930	7.004663	0.000262	2.620470	0.887839	0.000106
  87	8.5570e+00	3.4523	7.107720	0.000255	2.549919	0.863936	0.000104
  88	8.6565e+00	3.4844	7.211185	0.000256	2.559998	0.867351	0.000104
  89	8.7560e+00	3.5101	7.324426	0.000280	2.801887	0.949305	0.000114
  90	8.8555e+00	3.5293	7.420967	0.000239	2.388659	0.809300	0.000097
  91	8.9550e+00	3.5935	7.529320	0.000268	2.680942	0.908328	0.000109
  92	9.0545e+00	3.6544	7.632377	0.000255	2.549919	0.863936	0.000104
  93	9.1540e+00	3.6994	7.732176	0.000247	2.469289	0.836618	0.000100
  94	9.2535e+00	3.7330	7.835641	0.000256	2.559998	0.867351	0.000104
  95	9.3530e+00	3.7603	7.942365	0.000264	2.640627	0.894669	0.000107
  96	9.4525e+00	3.7796	8.043793	0.000251	2.509604	0.850277	0.000102
  97	9.5520e+00	3.9095	8.146036	0.000253	2.529761	0.857106	0.000103
  98	9.6515e+00	3.8903	8.247057	-0.000250	-2.499525	-0.846862	0.000102
  99	9.7510e+00	3.9191	8.350522	0.000256	2.559998	0.867351	0.000104
 100	9.8505e+00	3.9721	8.454802	0.000258	2.580155	0.874180	0.000105
 101	9.9500e+00	4.0010	8.561526	0.000264	2.640627	0.894669	0.000107
 102	1.0050e+01	4.0362	8.667027	0.000261	2.610391	0.884424	0.000106
 103	1.0149e+01	4.0715	8.774159	0.000265	2.650706	0.898084	0.000108
 104	1.0248e+01	4.1197	8.876809	0.000254	2.539840	0.860521	0.000103
 105	1.0348e+01	4.1437	8.988828	0.000277	2.771651	0.939061	0.000113
 106	1.0447e+01	4.2063	9.097589	0.000269	2.691021	0.911743	0.000109
 107	1.0547e+01	4.2576	9.196573	0.000245	2.449132	0.829788	0.000099
 108	1.0646e+01	4.2865	9.307777	0.000275	2.751493	0.932231	0.000112
 109	1.0746e+01	4.3314	9.413279	0.000261	2.610391	0.884424	0.000106
 110	1.0845e+01	4.3603	9.517151	0.000257	2.570076	0.870765	0.000104
 111	1.0945e+01	4.3972	9.621024	0.000257	2.570076	0.870765	0.000104
 112	1.1044e+01	4.4341	9.722859	0.000252	2.519683	0.853692	0.000102
 113	1.1144e+01	4.4902	9.831212	0.000268	2.680942	0.908328	0.000109
 114	1.1243e+01	4.5191	9.935492	0.000258	2.580155	0.874180	0.000105
 115	1.1343e+01	4.5416	10.043031	0.000266	2.660785	0.901498	0.000108
 116	1.1443e+01	4.6074	10.150976	0.000267	2.670864	0.904913	0.000108
 117	1.1542e+01	4.6635	10.251183	0.000248	2.479368	0.840033	0.000101
 118	1.1642e+01	4.6731	10.361165	0.000272	2.721257	0.921987	0.000111
 119	1.1741e+01	4.7164	10.461371	0.000248	2.479368	0.840033	0.000101
 120	1.1841e+01	4.7822	10.564022	0.000254	2.539840	0.860521	0.000103
 121	1.1940e+01	4.7918	10.660562	0.000239	2.388659	0.809300	0.000097
 122	1.2040e+01	4.8624	10.769730	0.000270	2.701100	0.915157	0.000110
 123	1.2139e+01	4.9009	10.865048	0.000236	2.358423	0.799055	0.000096
 124	1.2239e+01	4.9170	10.970142	0.000260	2.600312	0.881010	0.000106
 125	1.2338e+01	4.9555	11.065868	0.000237	2.368502	0.802470	0.000096
 126	1.2438e+01	4.9924	11.166481	0.000249	2.489446	0.843447	0.000101
 127	1.2537e+01	5.0485	11.263836	0.000241	2.408817	0.816129	0.000098
 128	1.2636e+01	5.0662	11.366079	0.000253	2.529761	0.857106	0.000103
 129	1.2736e+01	5.1159	11.456509	0.000224	2.237478	0.758078	0.000091
 130	1.2835e+01	5.1400	11.559160	0.000254	2.539840	0.860521	0.000103
 131	1.2935e+01	5.1945	11.656922	0.000242	2.418895	0.819544	0.000098
 132	1.3034e+01	5.2346	11.751018	0.000233	2.328187	0.788811	0.000095
 133	1.3134e+01	5.2972	11.856520	0.000261	2.610391	0.884424	0.000106
 134	1.3233e+01	5.3036	11.946135	0.000222	2.217321	0.751249	0.000090
 135	1.3333e+01	5.3613	12.042268	0.000238	2.378580	0.805885	0.000097
 136	1.3432e+01	5.3774	12.141659	0.000246	2.459210	0.833203	0.000100
 137	1.3532e+01	5.4464	12.236570	0.000235	2.348344	0.795641	0.000095
 138	1.3632e+01	5.4752	12.331074	0.000234	2.338265	0.792226	0.000095
 139	1.3731e+01	5.5057	12.431687	0.000249	2.489446	0.843447	0.000101
 140	1.3831e+01	5.5474	12.526598	0.000235	2.348344	0.795641	0.000095
 141	1.3930e+01	5.5908	12.624768	0.000243	2.428974	0.822959	0.000099
 142	1.4030e+01	5.6341	12.713161	0.000219	2.187085	0.741004	0.000089
 143	1.4129e+01	5.6838	12.811738	0.000244	2.439053	0.826373	0.000099
 144	1.4229e+01	5.7127	12.906241	0.000234	2.338265	0.792226	0.000095
 145	1.4328e+01	5.7736	13.007670	0.000251	2.509604	0.850277	0.000102
 146	1.4428e+01	5.7865	13.097692	0.000223	2.227399	0.754663	0.000090
 147	1.4527e+01	5.8538	13.192603	0.000235	2.348344	0.795641	0.000095
 148	1.4627e+01	5.8875	13.288329	0.000237	2.368502	0.802470	0.000096
 149	1.4726e+01	5.9228	13.386091	0.000242	2.418895	0.819544	0.000098
 150	1.4825e+01	5.9533	13.472448	0.000214	2.136691	0.723930	0.000087
 151	1.4925e+01	5.9822	13.566951	0.000234	2.338265	0.792226	0.000095
 152	1.5024e+01	6.0271	13.665121	0.000243	2.428974	0.822959	0.000099
 153	1.5124e+01	6.0608	13.758809	0.000232	2.318108	0.785396	0.000094
 154	1.5223e+01	6.1185	13.848832	0.000223	2.227399	0.754663	0.000090
 155	1.5323e+01	6.1442	13.946187	0.000241	2.408817	0.816129	0.000098
 156	1.5422e+01	6.1891	14.033766	0.000217	2.166927	0.734175	0.000088
 157	1.5522e+01	6.2549	14.127454	0.000232	2.318108	0.785396	0.000094
 158	1.5621e+01	6.2565	14.227661	0.000248	2.479368	0.840033	0.000101
 159	1.5721e+01	6.3127	14.309129	0.000202	2.015746	0.682953	0.000082
 160	1.5820e+01	6.3431	14.402818	0.000232	2.318108	0.785396	0.000094
 161	1.5920e+01	6.3961	14.499765	0.000240	2.398738	0.812714	0.000097
 162	1.6020e+01	6.4009	14.588566	0.000220	2.197163	0.744419	0.000089
 163	1.6119e+01	6.4747	14.678182	0.000222	2.217321	0.751249	0.000090
 164	1.6218e+01	6.5372	14.764945	0.000215	2.146770	0.727345	0.000087
 165	1.6318e+01	6.5389	14.861893	0.000240	2.398738	0.812714	0.000097
 166	1.6418e+01	6.5709	14.953138	0.000226	2.257636	0.764908	0.000092
 167	1.6517e+01	6.6319	15.046827	0.000232	2.318108	0.785396	0.000094
 168	1.6616e+01	6.6736	15.138886	0.000228	2.277793	0.771737	0.000093
 169	1.6716e+01	6.7298	15.227279	0.000219	2.187085	0.741004	0.000089
 170	1.6816e+01	6.7506	15.316895	0.000222	2.217321	0.751249	0.000090
 171	1.6915e+01	6.7859	15.406510	0.000222	2.217321	0.751249	0.000090
 172	1.7015e+01	6.8308	15.502235	0.000237	2.368502	0.802470	0.000096
 173	1.7114e+01	6.8565	15.587370	0.000211	2.106455	0.713686	0.000086
 174	1.7213e+01	6.9287	15.680652	0.000231	2.308029	0.781981	0.000094
 175	1.7313e+01	6.9640	15.770267	0.000222	2.217321	0.751249	0.000090
 176	1.7413e+01	7.0089	15.863956	0.000232	2.318108	0.785396	0.000094
 177	1.7512e+01	7.0394	15.949905	0.000213	2.126612	0.720516	0.000086
 178	1.7611e+01	7.0715	16.041557	0.000227	2.267714	0.768322	0.000092
 179	1.7711e+01	7.1116	16.132394	0.000225	2.247557	0.761493	0.000091
 180	1.7811e+01	7.1501	16.228935	0.000239	2.388659	0.809300	0.000097
 181	1.7910e+01	7.1773	16.314069	0.000211	2.106455	0.713686	0.000086
 182	1.8009e+01	7.2094	16.403685	0.000222	2.217321	0.751249	0.000090
 183	1.8109e+01	7.2688	16.496966	0.000231	2.308029	0.781981	0.000094
 184	1.8209e+01	7.3249	16.581286	0.000209	2.086297	0.706857	0.000085
 185	1.8308e+01	7.3602	16.673753	0.000229	2.287872	0.775152	0.000093
 186	1.8407e+01	7.3714	16.756851	0.000206	2.056061	0.696612	0.000084
 187	1.8507e+01	7.4340	16.842800	0.000213	2.126612	0.720516	0.000086
 188	1.8607e+01	7.4918	16.928749	0.000213	2.126612	0.720516	0.000086
 189	1.8706e+01	7.4998	17.014698	0.000213	2.126612	0.720516	0.000086
 190	1.8805e+01	7.5479	17.099018	0.000209	2.086297	0.706857	0.000085
 191	1.8905e+01	7.5640	17.180894	0.000203	2.025825	0.686368	0.000082
 192	1.9005e+01	7.6105	17.270917	0.000223	2.227399	0.754663	0.000090
 193	1.9104e+01	7.7067	17.358495	0.000217	2.166927	0.734175	0.000088
 194	1.9203e+01	7.7324	17.446481	0.000218	2.177006	0.737590	0.000088
 195	1.9303e+01	7.7452	17.525913	0.000197	1.965352	0.665879	0.000080
 196	1.9402e+01	7.7757	17.610641	0.000210	2.096376	0.710271	0.000085
 197	1.9502e+01	7.8319	17.699441	0.000220	2.197163	0.744419	0.000089
 198	1.9602e+01	7.8720	17.780502	0.000201	2.005667	0.679539	0.000081
 199	1.9701e+01	7.9217	17.869303	0.000220	2.197163	0.744419	0.000089
 200	1.9800e+01	7.9538	17.945883	0.000189	1.894801	0.641976	0.000077
 201	1.9900e+01	7.9923	18.031018	0.000211	2.106455	0.713686	0.000086
 202	2.0000e+01	8.0180	18.117375	0.000214	2.136691	0.723930	0.000087
 203	2.0099e+01	8.0709	18.205768	0.000219	2.187085	0.741004	0.000089
 204	2.0198e+01	8.1094	18.289681	0.000208	2.076219	0.703442	0.000084
 205	2.0298e+01	8.1543	18.374815	0.000211	2.106455	0.713686	0.000086
 206	2.0398e+01	8.1880	18.459542	0.000210	2.096376	0.710271	0.000085
 207	2.0497e+01	8.2265	18.556897	0.000241	2.408817	0.816129	0.000098
 208	2.0596e+01	8.2859	18.643254	0.000214	2.136691	0.723930	0.000087
 209	2.0696e+01	8.3228	18.729203	0.000213	2.126612	0.720516	0.000086
 210	2.0796e+01	8.3420	18.816782	0.000217	2.166927	0.734175	0.000088
 211	2.0895e+01	8.3725	18.908434	0.000227	2.267714	0.768322	0.000092
 212	2.0994e+01	8.4238	18.997235	0.000220	2.197163	0.744419	0.000089
 213	2.1094e+01	8.4607	19.087665	0.000224	2.237478	0.758078	0.000091
 214	2.1194e+01	8.5024	19.174429	0.000215	2.146770	0.727345	0.000087
 215	2.1293e+01	8.5794	19.260378	0.000213	2.126612	0.720516	0.000086
 216	2.1392e+01	8.5730	19.353659	-0.000231	-2.308029	-0.781981	0.000094
 217	2.1492e+01	8.6372	19.439609	0.000213	2.126612	0.720516	0.000086
 218	2.1591e+01	8.6324	19.532075	-0.000229	-2.287872	-0.775152	0.000093
 219	2.1691e+01	8.6901	19.621691	0.000222	2.217321	0.751249	0.000090
 220	2.1791e+01	8.7399	19.713750	0.000228	2.277793	0.771737	0.000093
 221	2.1890e+01	8.8008	19.799699	0.000213	2.126612	0.720516	0.000086
 222	2.1989e+01	8.8008	19.887685	-0.000218	-2.177006	-0.737590	0.000088
 223	2.2089e+01	8.8698	19.974857	0.000216	2.156848	0.730760	0.000088
 224	2.2189e+01	8.8971	20.070990	0.000238	2.378580	0.805885	0.000097
 225	2.2288e+01	8.9484	20.158976	0.000218	2.177006	0.737590	0.000088
 226	2.2387e+01	8.9773	20.240851	0.000203	2.025825	0.686368	0.000082
 227	2.2487e+01	9.0270	20.334133	0.000231	2.308029	0.781981	0.000094
 228	2.2587e+01	9.0511	20.424156	0.000223	2.227399	0.754663	0.000090
 229	2.2686e+01	9.1136	20.517844	0.000232	2.318108	0.785396	0.000094
 230	2.2785e+01	9.1521	20.602979	0.000211	2.106455	0.713686	0.000086
 231	2.2885e+01	9.1746	20.690965	0.000218	2.177006	0.737590	0.000088
 232	2.2985e+01	9.2019	20.780580	0.000222	2.217321	0.751249	0.000090
 233	2.3084e+01	9.2532	20.868566	0.000218	2.177006	0.737590	0.000088
 234	2.3183e+01	9.3078	20.961033	0.000229	2.287872	0.775152	0.000093
 235	2.3283e+01	9.3559	21.049019	0.000218	2.177006	0.737590	0.000088
 236	2.3383e+01	9.3816	21.139042	0.000223	2.227399	0.754663	0.000090
 237	2.3482e+01	9.4457	21.232730	0.000232	2.318108	0.785396	0.000094
 238	2.3581e+01	9.4473	21.320309	0.000217	2.166927	0.734175	0.000088
 239	2.3681e+01	9.4922	21.412369	0.000228	2.277793	0.771737	0.000093
 240	2.3780e+01	9.5420	21.499947	0.000217	2.166927	0.734175	0.000088
 241	2.3880e+01	9.5917	21.589970	0.000223	2.227399	0.754663	0.000090
 242	2.3980e+01	9.6286	21.683659	0.000232	2.318108	0.785396	0.000094
 243	2.4079e+01	9.6591	21.773274	0.000222	2.217321	0.751249	0.000090
 244	2.4178e+01	9.7056	21.856779	0.000207	2.066140	0.700027	0.000084
 245	2.4278e+01	9.7393	21.948431	0.000227	2.267714	0.768322	0.000092
 246	2.4378e+01	9.7842	22.036010	0.000217	2.166927	0.734175	0.000088
 247	2.4477e+01	9.8259	22.129291	0.000231	2.308029	0.781981	0.000094
 248	2.4576e+01	9.8676	22.215241	0.000213	2.126612	0.720516	0.000086
 249	2.4676e+01	9.9077	22.303227	0.000218	2.177006	0.737590	0.000088
 250	2.4776e+01	9.9414	22.392435	0.000221	2.207242	0.747834	0.000090
 251	2.4875e+01	9.9944	22.485716	0.000231	2.308029	0.781981	0.000094
 252	2.4974e+01	10.0120	22.568407	0.000205	2.045982	0.693198	0.000083
 253	2.5074e+01	10.0441	22.658837	0.000224	2.237478	0.758078	0.000091
 254	2.5174e+01	10.1035	22.750896	0.000228	2.277793	0.771737	0.000093
 255	2.5273e+01	10.1339	22.842141	0.000226	2.257636	0.764908	0.000092
 256	2.5372e+01	10.1949	22.926461	0.000209	2.086297	0.706857	0.000085
 257	2.5472e+01	10.2125	23.015262	0.000220	2.197163	0.744419	0.000089
 258	2.5572e+01	10.2478	23.108136	0.000230	2.297951	0.778567	0.000093
 259	2.5671e+01	10.3104	23.198158	0.000223	2.227399	0.754663	0.000090
 260	2.5770e+01	10.3457	23.288996	0.000225	2.247557	0.761493	0.000091
 261	2.5870e+01	10.3553	23.367205	0.000194	1.935116	0.655635	0.000079
 262	2.5970e+01	10.4115	23.464560	0.000241	2.408817	0.816129	0.000098
 263	2.6069e+01	10.4500	23.545622	0.000201	2.005667	0.679539	0.000081
 264	2.6169e+01	10.4676	23.637681	0.000228	2.277793	0.771737	0.000093
 265	2.6268e+01	10.5238	23.723630	0.000213	2.126612	0.720516	0.000086
 266	2.6367e+01	10.5735	23.815690	0.000228	2.277793	0.771737	0.000093
