»»»»»»»»»»»»»»»»»»»»»»»»»»»»»»»»»»»» Hysteresis ««««««««««««««««««««««««««««««««««««
»»»  Executed Version:	5.48.1
»»»  Vision Version:	5.48.4 (R)
»»»  Vision Compiled:	9/18/24
»»»  Driver Version:	5.47.0
»»»  Windows Version:	Windows 8 or 8.1
»»»  Processor Information:	x86 (AMD or Intel) - 32 Processors
»»»  Tester Name:	PMF21124-494 (100V)
»»»  Tester S/N:	PMF21124-494
»»»  Internal Amp Type:	100V RevK 270k
»»»  Internal Amp S/N:	iAB2-596/K     
»»»  Execution Count:	1
»»»»»»»»»»»»»»»»»»»»»»»»»»»»»»»»»»»»»»»»»»««««««««««««««««««««««««««««««««««««««««««

Stored:	6/6/2025 - 15:50:41
Configured:	06/06/25 01:57:07 PM
Executed:	06/06/25 03:50:15 PM

»»»»»»»»»»»»»»»»»»»»»»»»»»»»»»»»»»» Sample Info ««««««««««««««««««««««««««««««««««««
Sample Name:	
Lot Name:	
Wafer Name:	
Die Row/Column:	0/0
Capacitor Number:	0
Sample Area (cm2):	1.00e-04
Sample Thickness (microns):	3.00e-01

Amplifier:	Internal

»»»»»»»»»»»»»»»»»»»»»»»»»»»»»»»»»»» Tester Info «««««««««««««««««««««««««««««««««««
Tester Name:	PMF21124-494 (100V)
Tester Serial Number:	PMF21124-494
Return Signal Amp. Level:	1.79 [Index: 2]

»»»»»»»»»»»»»»»»»»»»»»»»»»»»»»»» Hysteresis Info ««««««««««««««««««««««««««««««««««
Task Name:	Hyst-501
Volts:	20.00
Field:	666.67 (kV/cm)
DCBias:	0.00
DCField:	0.00 (kV/cm)
Hysteresis Period (ms):	1.00e+00
Preset:	Enabled
Preset Delay (ms):	1.00e+03
Profile:	Standard Bipolar

»»»»»»»»»»»»»»»»»»»»»»»»»»»»»»»»»»»»»» Data «««««««««««««««««««««««««««««««««««««««
Points:	2001

Valid Data

Point	Time (ms)	Drive Voltage	Measured Polarization (uC/cm2)	Capacitance (uF)	Normalized Capacitance (uF/cm2)	Dielectric Constant	Instantaneous Current (mA)
   1	0.0000e+00	0.0449	-0.992091	-0.000736	-7.362232	-2.494392	0.059012
   2	5.0000e-04	0.0385	-0.697029	-0.000736	-7.362232	-2.494392	0.059012
   3	1.0000e-03	0.1123	-0.974130	-0.000691	-6.914096	-2.342559	-0.055420
   4	1.5000e-03	0.1556	-0.658543	0.000787	7.874387	2.667914	0.063117
   5	2.0000e-03	0.2037	-0.640155	0.000046	0.458806	0.155448	0.003678
   6	2.5000e-03	0.2230	-0.375883	0.000659	6.593999	2.234107	0.052854
   7	3.0000e-03	0.2679	-0.323285	0.000131	1.312398	0.444652	0.010520
   8	3.5000e-03	0.3112	-0.393415	-0.000175	-1.749864	-0.592870	-0.014026
   9	4.0000e-03	0.3642	-0.184734	0.000521	5.206912	1.764149	0.041736
  10	4.5000e-03	0.3946	-0.080821	0.000259	2.592786	0.878460	0.020783
  11	5.0000e-03	0.4235	0.087663	0.000420	4.203941	1.424334	0.033697
  12	5.5000e-03	0.4765	-0.018816	-0.000266	-2.656805	-0.900150	-0.021296
  13	6.0000e-03	0.5134	0.343811	0.000905	9.048076	3.065571	0.072525
  14	6.5000e-03	0.5486	0.387856	0.000110	1.099000	0.372351	0.008809
  15	7.0000e-03	0.6000	0.563610	0.000439	4.385329	1.485790	0.035151
  16	7.5000e-03	0.6433	0.694463	0.000326	3.264990	1.106208	0.026171
  17	8.0000e-03	0.6754	0.580715	-0.000284	-2.838194	-0.961606	-0.022750
  18	8.5000e-03	0.7075	0.638445	0.000144	1.440437	0.488033	0.011546
  19	9.0000e-03	0.7524	0.924098	0.000713	7.127494	2.414860	0.057131
  20	9.5000e-03	0.8069	1.001926	0.000194	1.941922	0.657941	0.015566
  21	1.0000e-02	0.8198	0.968999	-0.000082	-0.821582	-0.278360	-0.006585
  22	1.0500e-02	0.8631	1.235409	0.000665	6.647348	2.252183	0.053282
  23	1.1000e-02	0.9208	1.214456	-0.000052	-0.522825	-0.177138	-0.004191
  24	1.1500e-02	0.9449	1.290573	0.000190	1.899242	0.643481	0.015223
  25	1.2000e-02	0.9770	1.505669	0.000537	5.366960	1.818375	0.043019
  26	1.2500e-02	1.0203	1.765665	0.000649	6.487300	2.197957	0.051999
  27	1.3000e-02	1.0845	1.650634	-0.000287	-2.870203	-0.972451	-0.023006
  28	1.3500e-02	1.1037	1.661324	0.000027	0.266748	0.090377	0.002138
  29	1.4000e-02	1.1422	1.948261	0.000716	7.159504	2.425705	0.057387
  30	1.4500e-02	1.1887	2.002997	0.000137	1.365747	0.462728	0.010947
  31	1.5000e-02	1.2032	2.245033	0.000604	6.039164	2.046124	0.048407
  32	1.5500e-02	1.2513	2.493911	0.000621	6.209882	2.103965	0.049776
  33	1.6000e-02	1.3074	2.436609	-0.000143	-1.429767	-0.484418	-0.011460
  34	1.6500e-02	1.3620	2.507595	0.000177	1.771204	0.600100	0.014197
  35	1.7000e-02	1.4165	2.503318	-0.000011	-0.106699	-0.036151	-0.000855
  36	1.7500e-02	1.4358	2.682066	0.000446	4.460019	1.511095	0.035749
  37	1.8000e-02	1.4855	2.747065	0.000162	1.621825	0.549489	0.013000
  38	1.8500e-02	1.5032	2.936503	0.000473	4.726766	1.601472	0.037888
  39	1.9000e-02	1.5449	3.156730	0.000549	5.494999	1.861756	0.044045
  40	1.9500e-02	1.5786	3.088737	-0.000170	-1.696514	-0.574795	-0.013598
  41	2.0000e-02	1.6331	3.320938	0.000579	5.793756	1.962978	0.046440
  42	2.0500e-02	1.6812	3.288011	-0.000082	-0.821582	-0.278360	-0.006585
  43	2.1000e-02	1.7197	3.512086	0.000559	5.591028	1.894292	0.044815
  44	2.1500e-02	1.7406	3.546724	0.000086	0.864262	0.292820	0.006928
  45	2.2000e-02	1.7967	3.664321	0.000293	2.934223	0.994142	0.023519
  46	2.2500e-02	1.8352	3.862311	0.000494	4.940164	1.673773	0.039598
  47	2.3000e-02	1.8898	3.796030	-0.000165	-1.653835	-0.560334	-0.013256
  48	2.3500e-02	1.8978	3.905502	0.000273	2.731495	0.925455	0.021894
  49	2.4000e-02	1.9652	4.124018	0.000545	5.452319	1.847296	0.043703
  50	2.4500e-02	1.9828	4.018395	-0.000264	-2.635466	-0.892920	-0.021125
  51	2.5000e-02	2.0278	4.526414	0.001268	12.675842	4.294692	0.101604
  52	2.5500e-02	2.0711	4.318160	-0.000520	-5.196242	-1.760534	-0.041651
  53	2.6000e-02	2.0983	4.511447	0.000482	4.822795	1.634007	0.038657
  54	2.6500e-02	2.1449	4.626050	0.000286	2.859533	0.968836	0.022921
  55	2.7000e-02	2.1978	4.614504	-0.000029	-0.288087	-0.097607	-0.002309
  56	2.7500e-02	2.2379	4.742792	0.000320	3.200970	1.084518	0.025658
  57	2.8000e-02	2.2475	5.108412	0.000912	9.122765	3.090877	0.073124
  58	2.8500e-02	2.3213	5.039991	-0.000171	-1.707184	-0.578410	-0.013684
  59	2.9000e-02	2.3582	5.158444	0.000296	2.955563	1.001372	0.023690
  60	2.9500e-02	2.3807	5.287159	0.000321	3.211640	1.088133	0.025743
  61	3.0000e-02	2.4449	5.414164	0.000317	3.168961	1.073673	0.025401
  62	3.0500e-02	2.4801	5.456071	0.000105	1.045650	0.354276	0.008381
  63	3.1000e-02	2.5154	5.642088	0.000464	4.641407	1.572551	0.037203
  64	3.1500e-02	2.5491	5.672877	0.000077	0.768233	0.260284	0.006158
  65	3.2000e-02	2.5924	5.818697	0.000364	3.638436	1.232736	0.029164
  66	3.2500e-02	2.6374	5.911919	0.000233	2.326038	0.788083	0.018644
  67	3.3000e-02	2.6759	5.895670	-0.000041	-0.405456	-0.137372	-0.003250
  68	3.3500e-02	2.6999	6.164218	0.000670	6.700698	2.270258	0.053710
  69	3.4000e-02	2.7705	6.028233	-0.000339	-3.393028	-1.149589	-0.027197
  70	3.4500e-02	2.8026	6.141554	0.000283	2.827524	0.957991	0.022664
  71	3.5000e-02	2.8363	6.516154	0.000935	9.346833	3.166793	0.074920
  72	3.5500e-02	2.8620	6.486648	-0.000074	-0.736223	-0.249439	-0.005901
  73	3.6000e-02	2.9213	6.527272	0.000101	1.013641	0.343431	0.008125
  74	3.6500e-02	2.9646	6.655560	0.000320	3.200970	1.084518	0.025658
  75	3.7000e-02	2.9839	6.825327	0.000424	4.235951	1.435179	0.033953
  76	3.7500e-02	3.0208	6.821051	-0.000011	-0.106699	-0.036151	-0.000855
  77	3.8000e-02	3.0529	6.862103	0.000102	1.024310	0.347046	0.008210
  78	3.8500e-02	3.1042	7.160585	0.000745	7.447591	2.523312	0.059696
  79	3.9000e-02	3.1475	7.326931	0.000415	4.150591	1.406258	0.033269
  80	3.9500e-02	3.1972	7.361141	0.000085	0.853592	0.289205	0.006842
  81	4.0000e-02	3.2325	7.319662	-0.000103	-1.034980	-0.350661	-0.008296
  82	4.0500e-02	3.2839	7.464627	0.000362	3.617096	1.225505	0.028993
  83	4.1000e-02	3.3224	7.673736	0.000522	5.217582	1.767764	0.041822
  84	4.1500e-02	3.3464	7.708373	0.000086	0.864262	0.292820	0.006928
  85	4.2000e-02	3.4026	7.663900	-0.000111	-1.109670	-0.375966	-0.008895
  86	4.2500e-02	3.4379	7.699821	0.000090	0.896272	0.303665	0.007184
  87	4.3000e-02	3.4908	8.072710	0.000930	9.304154	3.152333	0.074578
  88	4.3500e-02	3.5181	8.201425	0.000321	3.211640	1.088133	0.025743
  89	4.4000e-02	3.5614	8.195438	-0.000015	-0.149379	-0.050611	-0.001197
  90	4.4500e-02	3.5967	8.180472	-0.000037	-0.373447	-0.126527	-0.002993
  91	4.5000e-02	3.6304	8.404975	0.000560	5.601698	1.897907	0.044901
  92	4.5500e-02	3.6609	8.493493	0.000221	2.208669	0.748317	0.017704
  93	4.6000e-02	3.7122	8.670530	0.000442	4.417339	1.496635	0.035407
  94	4.6500e-02	3.7491	8.672668	0.000005	0.053350	0.018075	0.000428
  95	4.7000e-02	3.8036	8.854409	0.000453	4.534708	1.536401	0.036348
  96	4.7500e-02	3.8309	8.912566	0.000145	1.451107	0.491648	0.011631
  97	4.8000e-02	3.8646	9.177266	0.000660	6.604669	2.237722	0.052940
  98	4.8500e-02	3.8951	9.085754	-0.000228	-2.283359	-0.773623	-0.018302
  99	4.9000e-02	3.9625	9.183253	0.000243	2.432737	0.824234	0.019500
 100	4.9500e-02	3.9881	9.201213	0.000045	0.448136	0.151833	0.003592
 101	5.0000e-02	4.0523	9.490288	0.000721	7.212853	2.443781	0.057815
 102	5.0500e-02	4.0667	9.432986	-0.000143	-1.429767	-0.484418	-0.011460
 103	5.1000e-02	4.1229	9.578379	0.000363	3.627766	1.229120	0.029079
 104	5.1500e-02	4.1502	9.816566	0.000594	5.943135	2.013589	0.047637
 105	5.2000e-02	4.2127	9.580089	-0.000590	-5.900455	-1.999128	-0.047295
 106	5.2500e-02	4.2272	9.833671	0.000633	6.327251	2.143731	0.050716
 107	5.3000e-02	4.2608	9.988899	0.000387	3.873174	1.312267	0.031046
 108	5.3500e-02	4.3058	9.931169	-0.000144	-1.440437	-0.488033	-0.011546
 109	5.4000e-02	4.3459	10.160804	0.000573	5.729737	1.941287	0.045927
 110	5.4500e-02	4.3828	10.422938	0.000654	6.540649	2.216032	0.052427
 111	5.5000e-02	4.4341	10.221527	-0.000503	-5.025523	-1.702693	-0.040282
 112	5.5500e-02	4.4790	10.477674	0.000639	6.391271	2.165421	0.051230
 113	5.6000e-02	4.5271	10.588857	0.000277	2.774174	0.939916	0.022237
 114	5.6500e-02	4.5432	10.579877	-0.000022	-0.224068	-0.075916	-0.001796
 115	5.7000e-02	4.5865	10.731256	0.000378	3.777145	1.279731	0.030276
 116	5.7500e-02	4.6346	10.737671	0.000016	0.160049	0.054226	0.001283
 117	5.8000e-02	4.6587	11.167006	0.001071	10.712581	3.629521	0.085867
 118	5.8500e-02	4.7325	10.911714	-0.000637	-6.369931	-2.158191	-0.051058
 119	5.9000e-02	4.7549	11.134935	0.000557	5.569688	1.887061	0.044644
 120	5.9500e-02	4.8063	11.320952	0.000464	4.641407	1.572551	0.037203
 121	6.0000e-02	4.8255	11.175987	-0.000362	-3.617096	-1.225505	-0.028993
 122	6.0500e-02	4.8640	11.658348	0.001204	12.035648	4.077788	0.096472
 123	6.1000e-02	4.9041	11.610454	-0.000120	-1.195029	-0.404887	-0.009579
 124	6.1500e-02	4.9555	11.485160	-0.000313	-3.126281	-1.059213	-0.025059
 125	6.2000e-02	4.9892	11.649795	0.000411	4.107912	1.391798	0.032927
 126	6.2500e-02	5.0389	11.893542	0.000608	6.081844	2.060584	0.048749
 127	6.3000e-02	5.0662	11.881568	-0.000030	-0.298757	-0.101222	-0.002395
 128	6.3500e-02	5.0999	12.050053	0.000420	4.203941	1.424334	0.033697
 129	6.4000e-02	5.1753	12.003014	-0.000117	-1.173689	-0.397657	-0.009408
 130	6.4500e-02	5.1945	12.248898	0.000614	6.135193	2.078660	0.049177
 131	6.5000e-02	5.2298	12.301924	0.000132	1.323068	0.448267	0.010605
 132	6.5500e-02	5.2539	12.390442	0.000221	2.208669	0.748317	0.017704
 133	6.6000e-02	5.3100	12.583729	0.000482	4.822795	1.634007	0.038657
 134	6.6500e-02	5.3533	12.636754	0.000132	1.323068	0.448267	0.010605
 135	6.7000e-02	5.3918	12.516164	-0.000301	-3.008912	-1.019447	-0.024118
 136	6.7500e-02	5.4255	12.989545	0.001181	11.811580	4.001872	0.094676
 137	6.8000e-02	5.4592	12.923263	-0.000165	-1.653835	-0.560334	-0.013256
 138	6.8500e-02	5.5121	12.919415	-0.000010	-0.096029	-0.032536	-0.000770
 139	6.9000e-02	5.5747	13.087472	0.000419	4.193271	1.420719	0.033611
 140	6.9500e-02	5.5843	13.145201	0.000144	1.440437	0.488033	0.011546
 141	7.0000e-02	5.6180	13.392796	0.000618	6.177873	2.093120	0.049519
 142	7.0500e-02	5.6662	13.214049	-0.000446	-4.460019	-1.511095	-0.035749
 143	7.1000e-02	5.7175	13.553583	0.000847	8.471901	2.870358	0.067907
 144	7.1500e-02	5.7448	13.680160	0.000316	3.158291	1.070058	0.025315
 145	7.2000e-02	5.8009	13.646378	-0.000084	-0.842922	-0.285590	-0.006756
 146	7.2500e-02	5.8346	13.834105	0.000468	4.684086	1.587011	0.037545
 147	7.3000e-02	5.8715	13.921341	0.000218	2.176660	0.737472	0.017447
 148	7.3500e-02	5.9196	13.796474	-0.000312	-3.115611	-1.055598	-0.024973
 149	7.4000e-02	5.9565	14.014991	0.000545	5.452319	1.847296	0.043703
 150	7.4500e-02	5.9838	14.082556	0.000169	1.685844	0.571180	0.013513
 151	7.5000e-02	6.0512	14.064168	-0.000046	-0.458806	-0.155448	-0.003678
 152	7.5500e-02	6.0608	14.280118	0.000539	5.388300	1.825605	0.043190
 153	7.6000e-02	6.1025	14.414820	0.000336	3.361019	1.138744	0.026940
 154	7.6500e-02	6.1651	14.427649	0.000032	0.320097	0.108452	0.002566
 155	7.7000e-02	6.1972	14.591002	0.000408	4.075902	1.380953	0.032671
 156	7.7500e-02	6.2437	14.575607	-0.000038	-0.384116	-0.130142	-0.003079
 157	7.8000e-02	6.2758	14.806098	0.000575	5.751077	1.948517	0.046098
 158	7.8500e-02	6.3127	14.800538	-0.000014	-0.138709	-0.046996	-0.001112
 159	7.9000e-02	6.3560	14.980996	0.000450	4.502698	1.525555	0.036092
 160	7.9500e-02	6.4137	15.056258	0.000188	1.877903	0.636251	0.015052
 161	8.0000e-02	6.4282	15.108001	0.000129	1.291058	0.437422	0.010349
 162	8.0500e-02	6.4763	15.170434	0.000156	1.557806	0.527799	0.012487
 163	8.1000e-02	6.4779	15.510824	0.000849	8.493241	2.877588	0.068078
 164	8.1500e-02	6.5421	15.378260	-0.000331	-3.307669	-1.120669	-0.026513
 165	8.2000e-02	6.6078	15.461219	0.000207	2.069961	0.701322	0.016592
 166	8.2500e-02	6.6383	15.709670	0.000620	6.199212	2.100350	0.049690
 167	8.3000e-02	6.6736	15.696413	-0.000033	-0.330767	-0.112067	-0.002651
 168	8.3500e-02	6.7201	15.670328	-0.000065	-0.650864	-0.220519	-0.005217
 169	8.4000e-02	6.7490	15.864042	0.000483	4.833465	1.637622	0.038743
 170	8.4500e-02	6.7683	15.965390	0.000253	2.528767	0.856769	0.020269
 171	8.5000e-02	6.8276	16.095815	0.000325	3.254320	1.102593	0.026085
 172	8.5500e-02	6.8757	16.146275	0.000126	1.259048	0.426577	0.010092
 173	8.6000e-02	6.9207	16.079138	-0.000168	-1.675174	-0.567564	-0.013427
 174	8.6500e-02	6.9287	16.279694	0.000500	5.004184	1.695463	0.040111
 175	8.7000e-02	6.9736	16.460152	0.000450	4.502698	1.525555	0.036092
 176	8.7500e-02	7.0265	16.564920	0.000261	2.614126	0.885690	0.020954
 177	8.8000e-02	7.0731	16.532421	-0.000081	-0.810912	-0.274745	-0.006500
 178	8.8500e-02	7.1035	16.792417	0.000649	6.487300	2.197957	0.051999
 179	8.9000e-02	7.1533	16.789851	-0.000006	-0.064019	-0.021690	-0.000513
 180	8.9500e-02	7.1966	16.785147	-0.000012	-0.117369	-0.039766	-0.000941
 181	9.0000e-02	7.2126	17.048992	0.000658	6.583329	2.230492	0.052769
 182	9.0500e-02	7.2688	17.040867	-0.000020	-0.202728	-0.068686	-0.001625
 183	9.1000e-02	7.3073	17.109715	0.000172	1.717854	0.582025	0.013770
 184	9.1500e-02	7.3426	17.297442	0.000468	4.684086	1.587011	0.037545
 185	9.2000e-02	7.4132	17.297870	0.000001	0.010670	0.003615	0.000086
 186	9.2500e-02	7.4260	17.618589	0.000800	8.002426	2.711295	0.064144
 187	9.3000e-02	7.4725	17.383823	-0.000586	-5.857776	-1.984668	-0.046953
 188	9.3500e-02	7.5046	17.536485	0.000381	3.809155	1.290577	0.030532
 189	9.4000e-02	7.5463	17.638687	0.000255	2.550106	0.863999	0.020440
 190	9.4500e-02	7.6057	17.699410	0.000152	1.515126	0.513339	0.012145
 191	9.5000e-02	7.6169	17.779376	0.000200	1.995271	0.676016	0.015993
 192	9.5500e-02	7.6859	17.808027	0.000071	0.714883	0.242209	0.005730
 193	9.6000e-02	7.7244	18.083418	0.000687	6.871416	2.328099	0.055078
 194	9.6500e-02	7.7372	18.098384	0.000037	0.373447	0.126527	0.002993
 195	9.7000e-02	7.7805	18.299368	0.000501	5.014853	1.699078	0.040197
 196	9.7500e-02	7.8447	18.389597	0.000225	2.251349	0.762778	0.018046
 197	9.8000e-02	7.8768	18.400288	0.000027	0.266748	0.090377	0.002138
 198	9.8500e-02	7.9025	18.496931	0.000241	2.411398	0.817004	0.019329
 199	9.9000e-02	7.9506	18.727849	0.000576	5.761746	1.952133	0.046184
 200	9.9500e-02	7.9971	18.694494	-0.000083	-0.832252	-0.281975	-0.006671
 201	1.0000e-01	8.0228	18.734691	0.000100	1.002971	0.339816	0.008039
 202	1.0050e-01	8.0725	18.952780	0.000544	5.441649	1.843681	0.043618
 203	1.0100e-01	8.1094	18.949786	-0.000007	-0.074689	-0.025305	-0.000599
 204	1.0150e-01	8.1688	19.094324	0.000361	3.606427	1.221890	0.028907
 205	1.0200e-01	8.1784	19.290176	0.000489	4.886815	1.655698	0.039170
 206	1.0250e-01	8.2217	19.261953	-0.000070	-0.704213	-0.238594	-0.005645
 207	1.0300e-01	8.2714	19.391523	0.000323	3.232980	1.095363	0.025914
 208	1.0350e-01	8.3196	19.365011	-0.000066	-0.661534	-0.224134	-0.005303
 209	1.0400e-01	8.3629	19.342346	-0.000057	-0.565505	-0.191598	-0.004533
 210	1.0450e-01	8.3933	19.591224	0.000621	6.209882	2.103965	0.049776
 211	1.0500e-01	8.4142	19.770399	0.000447	4.470688	1.514710	0.035835
 212	1.0550e-01	8.4671	19.734906	-0.000089	-0.885602	-0.300050	-0.007099
 213	1.0600e-01	8.5024	19.929904	0.000487	4.865475	1.648467	0.038999
 214	1.0650e-01	8.5618	19.802899	-0.000317	-3.168961	-1.073673	-0.025401
 215	1.0700e-01	8.6276	19.941022	0.000345	3.446378	1.167664	0.027625
 216	1.0750e-01	8.6276	20.159966	-0.000546	-5.462989	-1.850911	0.043789
 217	1.0800e-01	8.6709	20.273714	0.000284	2.838194	0.961606	0.022750
 218	1.0850e-01	8.7270	20.175788	-0.000244	-2.443407	-0.827849	-0.019585
 219	1.0900e-01	8.7639	20.293813	0.000294	2.944893	0.997757	0.023605
 220	1.0950e-01	8.8056	20.291247	-0.000006	-0.064019	-0.021690	-0.000513
 221	1.1000e-01	8.8249	20.427232	0.000339	3.393028	1.149589	0.027197
 222	1.1050e-01	8.8666	20.655584	0.000570	5.697727	1.930442	0.045670
 223	1.1100e-01	8.9147	20.663709	0.000020	0.202728	0.068686	0.001625
 224	1.1150e-01	8.9548	20.868541	0.000511	5.110883	1.731614	0.040967
 225	1.1200e-01	8.9901	21.040874	0.000430	4.299970	1.456869	0.034467
 226	1.1250e-01	9.0302	21.080216	0.000098	0.981631	0.332586	0.007868
 227	1.1300e-01	9.0623	21.095610	0.000038	0.384116	0.130142	0.003079
 228	1.1350e-01	9.1024	21.099031	0.000009	0.085359	0.028920	0.000684
 229	1.1400e-01	9.1570	21.245279	0.000365	3.649106	1.236351	0.029250
 230	1.1450e-01	9.1842	21.406066	0.000401	4.011883	1.359263	0.032157
 231	1.1500e-01	9.2356	21.340639	-0.000163	-1.632495	-0.553104	-0.013085
 232	1.1550e-01	9.2837	21.462085	0.000303	3.030252	1.026677	0.024289
 233	1.1600e-01	9.2901	21.631425	0.000423	4.225281	1.431564	0.033868
 234	1.1650e-01	9.3414	21.734910	0.000258	2.582116	0.874845	0.020697
 235	1.1700e-01	9.3992	21.908098	0.000432	4.321310	1.464099	0.034638
 236	1.1750e-01	9.4393	21.902539	-0.000014	-0.138709	-0.046996	-0.001112
 237	1.1800e-01	9.4762	21.898263	-0.000011	-0.106699	-0.036151	-0.000855
 238	1.1850e-01	9.5211	21.943163	0.000112	1.120340	0.379581	0.008980
 239	1.1900e-01	9.5709	21.953854	0.000027	0.266748	0.090377	0.002138
 240	1.1950e-01	9.5885	22.144575	0.000476	4.758776	1.612317	0.038144
 241	1.2000e-01	9.6222	22.381052	0.000590	5.900455	1.999128	0.047295
 242	1.2050e-01	9.6751	22.287402	-0.000234	-2.336708	-0.791698	-0.018730
 243	1.2100e-01	9.7377	22.520885	0.000583	5.825766	1.973823	0.046697
 244	1.2150e-01	9.7505	22.476840	-0.000110	-1.099000	-0.372351	-0.008809
 245	1.2200e-01	9.8051	22.572628	0.000239	2.390058	0.809774	0.019158
 246	1.2250e-01	9.8227	22.678679	0.000265	2.646135	0.896535	0.021210
 247	1.2300e-01	9.8869	22.628647	-0.000125	-1.248378	-0.422962	-0.010006
 248	1.2350e-01	9.9093	22.834334	0.000513	5.132222	1.738844	0.041138
 249	1.2400e-01	9.9478	22.941668	0.000268	2.678145	0.907380	0.021467
 250	1.2450e-01	9.9880	23.041305	0.000249	2.486087	0.842309	0.019927
 251	1.2500e-01	10.0345	23.055844	0.000036	0.362777	0.122912	0.002908
 252	1.2550e-01	10.0794	23.125547	0.000174	1.739194	0.589255	0.013941
 253	1.2600e-01	10.1179	23.275216	0.000373	3.734465	1.265271	0.029934
 254	1.2650e-01	10.1420	23.381695	0.000266	2.656805	0.900150	0.021296
 255	1.2700e-01	10.1901	23.461661	0.000200	1.995271	0.676016	0.015993
 256	1.2750e-01	10.2254	23.568995	0.000268	2.678145	0.907380	0.021467
 257	1.2800e-01	10.2719	23.660934	0.000229	2.294029	0.777238	0.018388
 258	1.2850e-01	10.2912	23.719946	0.000147	1.472446	0.498878	0.011802
 259	1.2900e-01	10.3505	23.821294	0.000253	2.528767	0.856769	0.020269
 260	1.2950e-01	10.3938	23.832412	0.000028	0.277417	0.093992	0.002224
 261	1.3000e-01	10.4355	23.997048	0.000411	4.107912	1.391798	0.032927
 262	1.3050e-01	10.4997	24.003034	0.000015	0.149379	0.050611	0.001197
 263	1.3100e-01	10.5109	24.295102	0.000729	7.287542	2.469086	0.058414
