»»»»»»»»»»»»»»»»»»»»»»»»»»»»»»»»»»»» Hysteresis ««««««««««««««««««««««««««««««««««««
»»»  Executed Version:	5.48.1
»»»  Vision Version:	5.48.4 (R)
»»»  Vision Compiled:	9/18/24
»»»  Driver Version:	5.47.0
»»»  Windows Version:	Windows 8 or 8.1
»»»  Processor Information:	x86 (AMD or Intel) - 32 Processors
»»»  Tester Name:	PMF21124-494 (100V)
»»»  Tester S/N:	PMF21124-494
»»»  Internal Amp Type:	100V RevK 270k
»»»  Internal Amp S/N:	iAB2-596/K     
»»»  Execution Count:	1
»»»»»»»»»»»»»»»»»»»»»»»»»»»»»»»»»»»»»»»»»»««««««««««««««««««««««««««««««««««««««««««

Stored:	6/6/2025 - 17:39:52
Configured:	06/06/25 01:57:07 PM
Executed:	06/06/25 05:39:22 PM

»»»»»»»»»»»»»»»»»»»»»»»»»»»»»»»»»»» Sample Info ««««««««««««««««««««««««««««««««««««
Sample Name:	
Lot Name:	
Wafer Name:	
Die Row/Column:	0/0
Capacitor Number:	0
Sample Area (cm2):	1.00e-04
Sample Thickness (microns):	3.00e-01

Amplifier:	Internal

»»»»»»»»»»»»»»»»»»»»»»»»»»»»»»»»»»» Tester Info «««««««««««««««««««««««««««««««««««
Tester Name:	PMF21124-494 (100V)
Tester Serial Number:	PMF21124-494
Return Signal Amp. Level:	1.79 [Index: 2]

»»»»»»»»»»»»»»»»»»»»»»»»»»»»»»»» Hysteresis Info ««««««««««««««««««««««««««««««««««
Task Name:	Hyst-501
Volts:	20.00
Field:	666.67 (kV/cm)
DCBias:	0.00
DCField:	0.00 (kV/cm)
Hysteresis Period (ms):	1.00e+00
Preset:	Enabled
Preset Delay (ms):	1.00e+03
Profile:	Standard Bipolar

»»»»»»»»»»»»»»»»»»»»»»»»»»»»»»»»»»»»»» Data «««««««««««««««««««««««««««««««««««««««
Points:	2001

Valid Data

Point	Time (ms)	Drive Voltage	Measured Polarization (uC/cm2)	Capacitance (uF)	Normalized Capacitance (uF/cm2)	Dielectric Constant	Instantaneous Current (mA)
   1	0.0000e+00	0.0241	-0.930513	0.000202	2.023428	0.685556	0.016421
   2	5.0000e-04	0.0417	-0.848409	0.000202	2.023428	0.685556	0.016421
   3	1.0000e-03	0.1267	-0.845843	0.000006	0.063232	0.021424	0.000513
   4	1.5000e-03	0.1396	-0.732522	0.000279	2.792753	0.946210	0.022664
   5	2.0000e-03	0.2230	-0.658971	0.000181	1.812654	0.614144	0.014710
   6	2.5000e-03	0.2390	-0.529828	0.000318	3.182684	1.078323	0.025829
   7	3.0000e-03	0.2936	-0.423349	0.000262	2.624134	0.889080	0.021296
   8	3.5000e-03	0.3305	-0.304897	0.000292	2.919217	0.989057	0.023690
   9	4.0000e-03	0.3722	-0.222365	0.000203	2.033967	0.689127	0.016506
  10	4.5000e-03	0.4155	-0.083387	0.000343	3.425074	1.160446	0.027796
  11	5.0000e-03	0.4444	0.021381	0.000258	2.581979	0.874798	0.020954
  12	5.5000e-03	0.4877	0.128288	0.000263	2.634672	0.892651	0.021381
  13	6.0000e-03	0.5294	0.245029	0.000288	2.877062	0.974775	0.023348
  14	6.5000e-03	0.5791	0.349370	0.000257	2.571440	0.871227	0.020868
  15	7.0000e-03	0.6048	0.473809	0.000307	3.066758	1.039046	0.024888
  16	7.5000e-03	0.6080	0.587985	0.000281	2.813830	0.953351	0.022835
  17	8.0000e-03	0.6770	0.709430	0.000299	2.992988	1.014052	0.024289
  18	8.5000e-03	0.7235	0.802225	0.000229	2.286895	0.774821	0.018559
  19	9.0000e-03	0.7444	0.922388	0.000296	2.961372	1.003340	0.024033
  20	9.5000e-03	0.8117	1.036991	0.000282	2.824369	0.956922	0.022921
  21	1.0000e-02	0.8326	1.158437	0.000299	2.992988	1.014052	0.024289
  22	1.0500e-02	0.8727	1.265771	0.000265	2.645211	0.896222	0.021467
  23	1.1000e-02	0.9545	1.358565	0.000229	2.286895	0.774821	0.018559
  24	1.1500e-02	0.9417	1.487708	-0.000318	-3.182684	-1.078323	0.025829
  25	1.2000e-02	0.9962	1.587773	0.000247	2.466053	0.835521	0.020013
  26	1.2500e-02	1.0363	1.714777	0.000313	3.129991	1.060470	0.025401
  27	1.3000e-02	1.0829	1.817407	0.000253	2.529285	0.856945	0.020526
  28	1.3500e-02	1.1470	1.920037	0.000253	2.529285	0.856945	0.020526
  29	1.4000e-02	1.1727	2.052174	0.000326	3.256455	1.103317	0.026427
  30	1.4500e-02	1.2256	2.151810	0.000246	2.455514	0.831951	0.019927
  31	1.5000e-02	1.2369	2.275394	0.000305	3.045681	1.031905	0.024717
  32	1.5500e-02	1.2593	2.404965	0.000319	3.193223	1.081893	0.025914
  33	1.6000e-02	1.3010	2.545226	0.000346	3.456690	1.171158	0.028052
  34	1.6500e-02	1.3636	2.615356	0.000173	1.728345	0.585579	0.014026
  35	1.7000e-02	1.4005	2.747920	0.000327	3.266994	1.106887	0.026513
  36	1.7500e-02	1.4342	2.827886	0.000197	1.970735	0.667703	0.015993
  37	1.8000e-02	1.4823	2.957456	0.000319	3.193223	1.081893	0.025914
  38	1.8500e-02	1.5288	3.057521	0.000247	2.466053	0.835521	0.020013
  39	1.9000e-02	1.5657	3.189229	0.000325	3.245916	1.099746	0.026342
  40	1.9500e-02	1.6026	3.289721	0.000248	2.476592	0.839092	0.020098
  41	2.0000e-02	1.6588	3.416726	0.000313	3.129991	1.060470	0.025401
  42	2.0500e-02	1.6796	3.512086	0.000235	2.350128	0.796245	0.019072
  43	2.1000e-02	1.7470	3.618993	0.000263	2.634672	0.892651	0.021381
  44	2.1500e-02	1.7647	3.770800	0.000374	3.741235	1.267565	0.030361
  45	2.2000e-02	1.8208	3.849483	0.000194	1.939119	0.656991	0.015737
  46	2.2500e-02	1.8641	3.967935	0.000292	2.919217	0.989057	0.023690
  47	2.3000e-02	1.8689	4.085532	0.000290	2.898139	0.981916	0.023519
  48	2.3500e-02	1.9042	4.210398	0.000308	3.077297	1.042616	0.024973
  49	2.4000e-02	1.9909	4.286943	0.000189	1.886425	0.639138	0.015309
  50	2.4500e-02	2.0021	4.432764	0.000359	3.593693	1.217576	0.029164
  51	2.5000e-02	2.0470	4.538815	0.000261	2.613595	0.885510	0.021210
  52	2.5500e-02	2.0759	4.652563	0.000280	2.803291	0.949781	0.022750
  53	2.6000e-02	2.1320	4.767594	0.000283	2.834907	0.960493	0.023006
  54	2.6500e-02	2.1497	4.886046	0.000292	2.919217	0.989057	0.023690
  55	2.7000e-02	2.1946	4.983117	0.000239	2.392282	0.810527	0.019414
  56	2.7500e-02	2.2427	5.113115	0.000320	3.203761	1.085464	0.026000
  57	2.8000e-02	2.2924	5.204200	0.000224	2.244741	0.760539	0.018217
  58	2.8500e-02	2.3181	5.337191	0.000328	3.277532	1.110458	0.026598
  59	2.9000e-02	2.3566	5.444525	0.000265	2.645211	0.896222	0.021467
  60	2.9500e-02	2.4208	5.559984	0.000285	2.845446	0.964063	0.023092
  61	3.0000e-02	2.4449	5.655772	0.000236	2.360666	0.799815	0.019158
  62	3.0500e-02	2.4914	5.777645	0.000300	3.003526	1.017622	0.024375
  63	3.1000e-02	2.5170	5.893532	0.000286	2.855985	0.967634	0.023177
  64	3.1500e-02	2.5796	5.974780	0.000200	2.002351	0.678415	0.016250
  65	3.2000e-02	2.6069	6.095371	0.000297	2.971910	1.006910	0.024118
  66	3.2500e-02	2.6518	6.201849	0.000262	2.624134	0.889080	0.021296
  67	3.3000e-02	2.6630	6.300631	0.000243	2.434437	0.824810	0.019756
  68	3.3500e-02	2.7240	6.440037	0.000344	3.435613	1.164017	0.027881
  69	3.4000e-02	2.7545	6.550364	0.000272	2.718982	0.921216	0.022065
  70	3.4500e-02	2.8042	6.665395	0.000283	2.834907	0.960493	0.023006
  71	3.5000e-02	2.8507	6.773584	0.000267	2.666288	0.903363	0.021638
  72	3.5500e-02	2.8972	6.883912	0.000272	2.718982	0.921216	0.022065
  73	3.6000e-02	2.9085	7.000653	0.000288	2.877062	0.974775	0.023348
  74	3.6500e-02	2.9710	7.111836	0.000274	2.740059	0.928357	0.022237
  75	3.7000e-02	3.0160	7.207196	0.000235	2.350128	0.796245	0.019072
  76	3.7500e-02	3.0593	7.306833	0.000246	2.455514	0.831951	0.019927
  77	3.8000e-02	3.0817	7.458212	0.000373	3.730696	1.263994	0.030276
  78	3.8500e-02	3.1058	7.569395	0.000274	2.740059	0.928357	0.022237
  79	3.9000e-02	3.1668	7.669459	0.000247	2.466053	0.835521	0.020013
  80	3.9500e-02	3.2037	7.754984	0.000211	2.107738	0.714121	0.017105
  81	4.0000e-02	3.2614	7.881989	0.000313	3.129991	1.060470	0.025401
  82	4.0500e-02	3.2357	8.028237	-0.000360	-3.604232	-1.221147	0.029250
  83	4.1000e-02	3.3272	8.095802	0.000167	1.665113	0.564155	0.013513
  84	4.1500e-02	3.3641	8.194156	0.000242	2.423898	0.821239	0.019671
  85	4.2000e-02	3.3769	8.330140	0.000335	3.351303	1.135452	0.027197
  86	4.2500e-02	3.4667	8.408823	0.000194	1.939119	0.656991	0.015737
  87	4.3000e-02	3.4924	8.516585	0.000266	2.655750	0.899792	0.021552
  88	4.3500e-02	3.5454	8.609807	0.000230	2.297434	0.778392	0.018644
  89	4.4000e-02	3.5502	8.750068	0.000346	3.456690	1.171158	0.028052
  90	4.4500e-02	3.6240	8.842863	0.000229	2.286895	0.774821	0.018559
  91	4.5000e-02	3.6480	8.955329	0.000277	2.771675	0.939069	0.022493
  92	4.5500e-02	3.6865	9.088320	0.000328	3.277532	1.110458	0.026598
  93	4.6000e-02	3.7427	9.184536	0.000237	2.371205	0.803386	0.019243
  94	4.6500e-02	3.7555	9.310685	0.000311	3.108913	1.053328	0.025230
  95	4.7000e-02	3.8052	9.405618	0.000234	2.339589	0.792674	0.018987
  96	4.7500e-02	3.8502	9.489860	0.000208	2.076122	0.703409	0.016848
  97	4.8000e-02	3.8694	9.605319	0.000285	2.845446	0.964063	0.023092
  98	4.8500e-02	3.9159	9.719067	0.000280	2.803291	0.949781	0.022750
  99	4.9000e-02	3.9721	9.841368	0.000301	3.014065	1.021193	0.024460
 100	4.9500e-02	4.0314	9.888407	0.000116	1.159256	0.392766	0.009408
 101	5.0000e-02	4.0459	10.012418	0.000306	3.056220	1.035475	0.024802
 102	5.0500e-02	4.0731	10.140278	0.000315	3.151068	1.067611	0.025572
 103	5.1000e-02	4.0892	10.274125	0.000330	3.298610	1.117599	0.026769
 104	5.1500e-02	4.1678	10.354946	0.000199	1.991812	0.674844	0.016164
 105	5.2000e-02	4.1999	10.482806	0.000315	3.151068	1.067611	0.025572
 106	5.2500e-02	4.2480	10.571752	0.000219	2.192047	0.742686	0.017789
 107	5.3000e-02	4.2993	10.675665	0.000256	2.560901	0.867657	0.020783
 108	5.3500e-02	4.3186	10.788130	0.000277	2.771675	0.939069	0.022493
 109	5.4000e-02	4.3683	10.895892	0.000266	2.655750	0.899792	0.021552
 110	5.4500e-02	4.3988	10.985266	0.000220	2.202586	0.746256	0.017875
 111	5.5000e-02	4.4293	11.128948	0.000354	3.540999	1.199723	0.028736
 112	5.5500e-02	4.5175	11.211907	0.000204	2.044506	0.692697	0.016592
 113	5.6000e-02	4.5432	11.323945	0.000276	2.761136	0.935498	0.022408
 114	5.6500e-02	4.5640	11.413746	0.000221	2.213125	0.749827	0.017960
 115	5.7000e-02	4.6074	11.541606	0.000315	3.151068	1.067611	0.025572
 116	5.7500e-02	4.6426	11.637394	0.000236	2.360666	0.799815	0.019158
 117	5.8000e-02	4.6651	11.763544	0.000311	3.108913	1.053328	0.025230
 118	5.8500e-02	4.7180	11.875582	0.000276	2.761136	0.935498	0.022408
 119	5.9000e-02	4.7405	11.967093	0.000226	2.255279	0.764109	0.018302
 120	5.9500e-02	4.8143	12.066302	0.000244	2.444976	0.828380	0.019842
 121	6.0000e-02	4.8432	12.173209	0.000263	2.634672	0.892651	0.021381
 122	6.0500e-02	4.8672	12.282253	0.000269	2.687366	0.910504	0.021809
 123	6.1000e-02	4.9218	12.401561	0.000294	2.940294	0.996199	0.023861
 124	6.1500e-02	4.9683	12.493500	0.000227	2.265818	0.767680	0.018388
 125	6.2000e-02	4.9924	12.594847	0.000250	2.497669	0.846233	0.020269
 126	6.2500e-02	5.0421	12.696194	0.000250	2.497669	0.846233	0.020269
 127	6.3000e-02	5.0694	12.785568	0.000220	2.202586	0.746256	0.017875
 128	6.3500e-02	5.1400	12.927540	0.000350	3.498845	1.185441	0.028394
 129	6.4000e-02	5.1640	13.002374	0.000184	1.844271	0.624856	0.014967
 130	6.4500e-02	5.2105	13.100300	0.000241	2.413360	0.817668	0.019585
 131	6.5000e-02	5.2539	13.209345	0.000269	2.687366	0.910504	0.021809
 132	6.5500e-02	5.2747	13.306843	0.000240	2.402821	0.814098	0.019500
 133	6.6000e-02	5.3309	13.408618	0.000251	2.508208	0.849804	0.020355
 134	6.6500e-02	5.3405	13.538189	0.000319	3.193223	1.081893	0.025914
 135	6.7000e-02	5.3838	13.647233	0.000269	2.687366	0.910504	0.021809
 136	6.7500e-02	5.4400	13.752429	0.000259	2.592517	0.878369	0.021039
 137	6.8000e-02	5.4881	13.847789	0.000235	2.350128	0.796245	0.019072
 138	6.8500e-02	5.5362	13.922196	0.000183	1.833732	0.621285	0.014881
 139	6.9000e-02	5.5859	14.027392	0.000259	2.592517	0.878369	0.021039
 140	6.9500e-02	5.6052	14.132588	0.000259	2.592517	0.878369	0.021039
 141	7.0000e-02	5.6421	14.254461	0.000300	3.003526	1.017622	0.024375
 142	7.0500e-02	5.6822	14.342124	0.000216	2.160431	0.731974	0.017533
 143	7.1000e-02	5.7496	14.432781	0.000223	2.234202	0.756968	0.018131
 144	7.1500e-02	5.7736	14.554654	0.000300	3.003526	1.017622	0.024375
 145	7.2000e-02	5.8121	14.651297	0.000238	2.381744	0.806957	0.019329
 146	7.2500e-02	5.8153	14.781295	0.000320	3.203761	1.085464	0.026000
 147	7.3000e-02	5.8891	14.859551	0.000193	1.928580	0.653421	0.015651
 148	7.3500e-02	5.9677	14.945931	0.000213	2.128815	0.721262	0.017276
 149	7.4000e-02	5.9629	15.077212	-0.000324	-3.235377	-1.096176	0.026256
 150	7.4500e-02	5.9998	15.182835	0.000260	2.603056	0.881939	0.021125
 151	7.5000e-02	6.0303	15.285038	0.000252	2.518747	0.853374	0.020440
 152	7.5500e-02	6.0592	15.373129	0.000217	2.170970	0.735545	0.017618
 153	7.6000e-02	6.0929	15.495857	0.000302	3.024604	1.024763	0.024546
 154	7.6500e-02	6.1779	15.573257	0.000191	1.907503	0.646279	0.015480
 155	7.7000e-02	6.2052	15.674177	0.000249	2.487131	0.842663	0.020184
 156	7.7500e-02	6.2517	15.783221	0.000269	2.687366	0.910504	0.021809
 157	7.8000e-02	6.2693	15.870029	0.000214	2.139354	0.724833	0.017362
 158	7.8500e-02	6.3415	15.967528	0.000240	2.402821	0.814098	0.019500
 159	7.9000e-02	6.3704	16.081276	0.000280	2.803291	0.949781	0.022750
 160	7.9500e-02	6.3832	16.195880	0.000282	2.824369	0.956922	0.022921
 161	8.0000e-02	6.4233	16.304924	0.000269	2.687366	0.910504	0.021809
 162	8.0500e-02	6.4811	16.383607	0.000194	1.939119	0.656991	0.015737
 163	8.1000e-02	6.4971	16.512322	0.000317	3.172145	1.074752	0.025743
 164	8.1500e-02	6.5854	16.579460	0.000165	1.654574	0.560585	0.013427
 165	8.2000e-02	6.6175	16.651301	0.000177	1.770500	0.599862	0.014368
 166	8.2500e-02	6.6351	16.803535	0.000375	3.751773	1.271135	0.030447
 167	8.3000e-02	6.6816	16.877514	0.000182	1.823193	0.617715	0.014796
 168	8.3500e-02	6.7217	16.976723	0.000244	2.444976	0.828380	0.019842
 169	8.4000e-02	6.7426	17.080636	0.000256	2.560901	0.867657	0.020783
 170	8.4500e-02	6.8116	17.200799	0.000296	2.961372	1.003340	0.024033
 171	8.5000e-02	6.8501	17.266653	0.000162	1.622958	0.549873	0.013171
 172	8.5500e-02	6.8741	17.378691	0.000276	2.761136	0.935498	0.022408
 173	8.6000e-02	6.9287	17.485170	0.000262	2.624134	0.889080	0.021296
 174	8.6500e-02	6.9832	17.578820	0.000231	2.307973	0.781962	0.018730
 175	8.7000e-02	7.0105	17.667338	0.000218	2.181509	0.739115	0.017704
 176	8.7500e-02	7.0362	17.780659	0.000279	2.792753	0.946210	0.022664
 177	8.8000e-02	7.0843	17.866184	0.000211	2.107738	0.714121	0.017105
 178	8.8500e-02	7.1260	17.963255	0.000239	2.392282	0.810527	0.019414
 179	8.9000e-02	7.1228	18.085128	-0.000300	-3.003526	-1.017622	0.024375
 180	8.9500e-02	7.1966	18.182199	0.000239	2.392282	0.810527	0.019414
 181	9.0000e-02	7.2463	18.272428	0.000222	2.223663	0.753398	0.018046
 182	9.0500e-02	7.2640	18.382755	0.000272	2.718982	0.921216	0.022065
 183	9.1000e-02	7.3153	18.493510	0.000273	2.729520	0.924787	0.022151
 184	9.1500e-02	7.3634	18.603410	0.000271	2.708443	0.917645	0.021980
 185	9.2000e-02	7.4051	18.677389	0.000182	1.823193	0.617715	0.014796
 186	9.2500e-02	7.4276	18.757355	0.000197	1.970735	0.667703	0.015993
 187	9.3000e-02	7.4821	18.851433	0.000232	2.318512	0.785533	0.018816
 188	9.3500e-02	7.5239	18.964753	0.000279	2.792753	0.946210	0.022664
 189	9.4000e-02	7.5511	19.038305	0.000181	1.812654	0.614144	0.014710
 190	9.4500e-02	7.5912	19.172152	0.000330	3.298610	1.117599	0.026769
 191	9.5000e-02	7.6329	19.258104	0.000212	2.118276	0.717691	0.017191
 192	9.5500e-02	7.6907	19.328662	0.000174	1.738884	0.589150	0.014112
 193	9.6000e-02	7.6891	19.476621	-0.000365	-3.646386	-1.235429	0.029592
 194	9.6500e-02	7.7581	19.540765	0.000158	1.580803	0.535591	0.012829
 195	9.7000e-02	7.8126	19.640401	0.000246	2.455514	0.831951	0.019927
 196	9.7500e-02	7.8335	19.756288	0.000286	2.855985	0.967634	0.023177
 197	9.8000e-02	7.8912	19.840530	0.000208	2.076122	0.703409	0.016848
 198	9.8500e-02	7.9329	19.949147	0.000268	2.676827	0.906934	0.021723
 199	9.9000e-02	7.9522	20.043224	0.000232	2.318512	0.785533	0.018816
 200	9.9500e-02	7.9891	20.133026	0.000221	2.213125	0.749827	0.017960
 201	1.0000e-01	8.0500	20.221544	0.000218	2.181509	0.739115	0.017704
 202	1.0050e-01	8.0885	20.331016	0.000270	2.697904	0.914075	0.021894
 203	1.0100e-01	8.1062	20.435357	0.000257	2.571440	0.871227	0.020868
 204	1.0150e-01	8.1623	20.515750	0.000198	1.981273	0.671274	0.016079
 205	1.0200e-01	8.2040	20.600420	0.000209	2.086660	0.706980	0.016934
 206	1.0250e-01	8.2313	20.685517	0.000210	2.097199	0.710550	0.017019
 207	1.0300e-01	8.2634	20.832621	0.000363	3.625309	1.228288	0.029421
 208	1.0350e-01	8.3228	20.895054	0.000154	1.538649	0.521308	0.012487
 209	1.0400e-01	8.3821	20.995546	0.000248	2.476592	0.839092	0.020098
 210	1.0450e-01	8.4190	21.074656	0.000195	1.949657	0.660562	0.015822
 211	1.0500e-01	8.4495	21.204227	0.000319	3.193223	1.081893	0.025914
 212	1.0550e-01	8.4463	21.295739	-0.000226	-2.255279	-0.764109	0.018302
 213	1.0600e-01	8.5281	21.400934	0.000259	2.592517	0.878369	0.021039
 214	1.0650e-01	8.5842	21.486460	0.000211	2.107738	0.714121	0.017105
 215	1.0700e-01	8.5923	21.587379	0.000249	2.487131	0.842663	0.020184
 216	1.0750e-01	8.6452	21.673759	0.000213	2.128815	0.721262	0.017276
 217	1.0800e-01	8.6645	21.766982	0.000230	2.297434	0.778392	0.018644
 218	1.0850e-01	8.7607	21.832836	0.000162	1.622958	0.549873	0.013171
 219	1.0900e-01	8.7639	21.954282	0.000299	2.992988	1.014052	0.024289
 220	1.0950e-01	8.8072	22.054346	0.000247	2.466053	0.835521	0.020013
 221	1.1000e-01	8.8345	22.144575	0.000222	2.223663	0.753398	0.018046
 222	1.1050e-01	8.8858	22.214278	0.000172	1.717806	0.582009	0.013941
 223	1.1100e-01	8.9211	22.345131	0.000322	3.224839	1.092605	0.026171
 224	1.1150e-01	8.9693	22.407992	0.000155	1.549187	0.524879	0.012572
 225	1.1200e-01	9.0158	22.494800	0.000214	2.139354	0.724833	0.017362
 226	1.1250e-01	9.0543	22.611114	0.000287	2.866523	0.971204	0.023263
 227	1.1300e-01	9.0703	22.713316	0.000252	2.518747	0.853374	0.020440
 228	1.1350e-01	9.1409	22.796276	0.000204	2.044506	0.692697	0.016592
 229	1.1400e-01	9.1730	22.890781	0.000233	2.329050	0.789104	0.018901
 230	1.1450e-01	9.1874	22.987852	0.000239	2.392282	0.810527	0.019414
 231	1.1500e-01	9.2468	23.073805	0.000212	2.118276	0.717691	0.017191
 232	1.1550e-01	9.2693	23.193540	0.000295	2.950833	0.999769	0.023947
 233	1.1600e-01	9.3350	23.272223	0.000194	1.939119	0.656991	0.015737
 234	1.1650e-01	9.3607	23.338932	0.000164	1.644035	0.557014	0.013342
 235	1.1700e-01	9.3928	23.456957	0.000291	2.908678	0.985487	0.023605
 236	1.1750e-01	9.4233	23.551890	0.000234	2.339589	0.792674	0.018987
 237	1.1800e-01	9.4778	23.654092	0.000252	2.518747	0.853374	0.020440
 238	1.1850e-01	9.5211	23.735768	0.000201	2.012890	0.681985	0.016335
 239	1.1900e-01	9.5660	23.811886	0.000188	1.875887	0.635568	0.015223
 240	1.1950e-01	9.5869	23.916226	0.000257	2.571440	0.871227	0.020868
 241	1.2000e-01	9.6270	24.038955	0.000302	3.024604	1.024763	0.024546
 242	1.2050e-01	9.6896	24.122342	0.000206	2.055044	0.696268	0.016677
 243	1.2100e-01	9.7281	24.197604	0.000185	1.854809	0.628426	0.015052
 244	1.2150e-01	9.7313	24.342996	0.000358	3.583154	1.214006	0.029079
 245	1.2200e-01	9.8115	24.384904	0.000103	1.032791	0.349919	0.008381
 246	1.2250e-01	9.8436	24.467008	0.000202	2.023428	0.685556	0.016421
 247	1.2300e-01	9.8660	24.571776	0.000258	2.581979	0.874798	0.020954
 248	1.2350e-01	9.9126	24.654308	0.000203	2.033967	0.689127	0.016506
 249	1.2400e-01	9.9382	24.769339	0.000283	2.834907	0.960493	0.023006
 250	1.2450e-01	10.0200	24.840325	0.000175	1.749422	0.592720	0.014197
 251	1.2500e-01	10.0473	24.925850	0.000211	2.107738	0.714121	0.017105
 252	1.2550e-01	10.1019	25.010519	0.000209	2.086660	0.706980	0.016934
 253	1.2600e-01	10.1371	25.116571	0.000261	2.613595	0.885510	0.021210
 254	1.2650e-01	10.1933	25.188839	0.000178	1.781038	0.603432	0.014454
 255	1.2700e-01	10.1981	25.309857	0.000298	2.982449	1.010481	0.024204
 256	1.2750e-01	10.2382	25.388540	0.000194	1.939119	0.656991	0.015737
 257	1.2800e-01	10.2928	25.488604	0.000247	2.466053	0.835521	0.020013
 258	1.2850e-01	10.3152	25.568143	0.000196	1.960196	0.664132	0.015908
 259	1.2900e-01	10.3682	25.661365	0.000230	2.297434	0.778392	0.018644
 260	1.2950e-01	10.4259	25.741759	0.000198	1.981273	0.671274	0.016079
 261	1.3000e-01	10.4660	25.838402	0.000238	2.381744	0.806957	0.019329
 262	1.3050e-01	10.4676	25.947019	0.000268	2.676827	0.906934	0.021723
 263	1.3100e-01	10.5350	26.019715	0.000179	1.791577	0.607003	0.014539
 264	1.3150e-01	10.5494	26.127477	0.000266	2.655750	0.899792	0.021552
 265	1.3200e-01	10.6056	26.202739	0.000185	1.854809	0.628426	0.015052
 266	1.3250e-01	10.6425	26.316059	0.000279	2.792753	0.946210	0.022664
