»»»»»»»»»»»»»»»»»»»»»»»»»»»»»»»»»»»» Hysteresis ««««««««««««««««««««««««««««««««««««
»»»  Executed Version:	5.48.1
»»»  Vision Version:	5.48.4 (R)
»»»  Vision Compiled:	9/18/24
»»»  Driver Version:	5.47.0
»»»  Windows Version:	Windows 8 or 8.1
»»»  Processor Information:	x86 (AMD or Intel) - 32 Processors
»»»  Tester Name:	PMF21124-494 (100V)
»»»  Tester S/N:	PMF21124-494
»»»  Internal Amp Type:	100V RevK 270k
»»»  Internal Amp S/N:	iAB2-596/K     
»»»  Execution Count:	1
»»»»»»»»»»»»»»»»»»»»»»»»»»»»»»»»»»»»»»»»»»««««««««««««««««««««««««««««««««««««««««««

Stored:	6/9/2025 - 12:44:25
Configured:	06/09/25 11:17:29 AM
Executed:	06/09/25 12:44:01 PM

»»»»»»»»»»»»»»»»»»»»»»»»»»»»»»»»»»» Sample Info ««««««««««««««««««««««««««««««««««««
Sample Name:	
Lot Name:	
Wafer Name:	
Die Row/Column:	0/0
Capacitor Number:	0
Sample Area (cm2):	1.00e-04
Sample Thickness (microns):	3.00e-01

Amplifier:	Internal

»»»»»»»»»»»»»»»»»»»»»»»»»»»»»»»»»»» Tester Info «««««««««««««««««««««««««««««««««««
Tester Name:	PMF21124-494 (100V)
Tester Serial Number:	PMF21124-494
Return Signal Amp. Level:	1.79 [Index: 2]

»»»»»»»»»»»»»»»»»»»»»»»»»»»»»»»» Hysteresis Info ««««««««««««««««««««««««««««««««««
Task Name:	Hyst-785
Volts:	20.00
Field:	666.67 (kV/cm)
DCBias:	0.00
DCField:	0.00 (kV/cm)
Hysteresis Period (ms):	1.00e+00
Preset:	Enabled
Preset Delay (ms):	1.00e+03
Profile:	Standard Bipolar

»»»»»»»»»»»»»»»»»»»»»»»»»»»»»»»»»»»»»» Data «««««««««««««««««««««««««««««««««««««««
Points:	2001

Valid Data

Point	Time (ms)	Drive Voltage	Measured Polarization (uC/cm2)	Capacitance (uF)	Normalized Capacitance (uF/cm2)	Dielectric Constant	Instantaneous Current (mA)
   1	0.0000e+00	0.0321	-0.496259	-0.000567	-5.665361	-1.919476	0.045585
   2	5.0000e-04	0.0321	-0.268335	-0.000567	-5.665361	-1.919476	0.045585
   3	1.0000e-03	0.1380	-0.340176	-0.000179	-1.785705	-0.605013	-0.014368
   4	1.5000e-03	0.1444	-0.242677	0.000242	2.423456	0.821089	0.019500
   5	2.0000e-03	0.1989	-0.218730	0.000060	0.595235	0.201671	0.004789
   6	2.5000e-03	0.2278	-0.125936	0.000231	2.306535	0.781475	0.018559
   7	3.0000e-03	0.2888	-0.114390	0.000029	0.286988	0.097234	0.002309
   8	3.5000e-03	0.3305	-0.031858	0.000205	2.051435	0.695045	0.016506
   9	4.0000e-03	0.3690	0.034424	0.000165	1.647525	0.558197	0.013256
  10	4.5000e-03	0.3834	0.195211	0.000400	3.996577	1.354077	0.032157
  11	5.0000e-03	0.4347	0.238829	0.000108	1.084178	0.367329	0.008724
  12	5.5000e-03	0.4957	0.190507	-0.000120	-1.201099	-0.406943	-0.009664
  13	6.0000e-03	0.4973	0.261920	0.000178	1.775076	0.601412	0.014283
  14	6.5000e-03	0.5390	0.350867	0.000221	2.210873	0.749064	0.017789
  15	7.0000e-03	0.6080	0.512081	0.000401	4.007206	1.357678	0.032243
  16	7.5000e-03	0.6144	0.575797	0.000158	1.583750	0.536589	0.012743
  17	8.0000e-03	0.6690	0.616422	0.000101	1.009774	0.342121	0.008125
  18	8.5000e-03	0.7315	0.552278	-0.000159	-1.594379	-0.540190	-0.012829
  19	9.0000e-03	0.7444	0.741288	0.000470	4.698104	1.591761	0.037802
  20	9.5000e-03	0.7861	0.827669	0.000215	2.147097	0.727456	0.017276
  21	1.0000e-02	0.8101	0.853326	0.000064	0.637752	0.216076	0.005132
  22	1.0500e-02	0.8871	0.922174	0.000171	1.711300	0.579804	0.013770
  23	1.1000e-02	0.9016	0.958094	0.000089	0.892852	0.302507	0.007184
  24	1.1500e-02	0.9481	1.029508	0.000178	1.775076	0.601412	0.014283
  25	1.2000e-02	0.9786	1.097073	0.000168	1.679413	0.569000	0.013513
  26	1.2500e-02	1.0492	1.229209	0.000328	3.284421	1.112792	0.026427
  27	1.3000e-02	1.0813	1.254011	0.000062	0.616493	0.208874	0.004960
  28	1.3500e-02	1.1198	1.269833	0.000039	0.393280	0.133247	0.003164
  29	1.4000e-02	1.1534	1.289932	0.000050	0.499572	0.169260	0.004020
  30	1.4500e-02	1.1647	1.431903	0.000353	3.528893	1.195621	0.028394
  31	1.5000e-02	1.2369	1.603809	0.000427	4.272936	1.447710	0.034381
  32	1.5500e-02	1.2754	1.611078	0.000018	0.180696	0.061222	0.001454
  33	1.6000e-02	1.3074	1.598677	-0.000031	-0.308247	-0.104437	-0.002480
  34	1.6500e-02	1.3556	1.726109	0.000317	3.167500	1.073178	0.025486
  35	1.7000e-02	1.3957	1.776569	0.000125	1.254245	0.424950	0.010092
  36	1.7500e-02	1.4631	1.844134	0.000168	1.679413	0.569000	0.013513
  37	1.8000e-02	1.4582	1.811207	0.000082	0.818448	0.277298	-0.006585
  38	1.8500e-02	1.5048	2.093867	0.000703	7.025898	2.380439	0.056532
  39	1.9000e-02	1.5513	2.090874	-0.000007	-0.074404	-0.025209	-0.000599
  40	1.9500e-02	1.5898	2.172978	0.000204	2.040805	0.691444	0.016421
  41	2.0000e-02	1.6315	2.296562	0.000307	3.071837	1.040767	0.024717
  42	2.0500e-02	1.6652	2.266200	-0.000075	-0.754673	-0.255690	-0.006072
  43	2.1000e-02	1.7181	2.290147	0.000060	0.595235	0.201671	0.004789
  44	2.1500e-02	1.7566	2.497973	0.000517	5.165789	1.750217	0.041565
  45	2.2000e-02	1.7791	2.521920	0.000060	0.595235	0.201671	0.004789
  46	2.2500e-02	1.8368	2.619846	0.000243	2.434086	0.824691	0.019585
  47	2.3000e-02	1.8641	2.598465	-0.000053	-0.531460	-0.180063	-0.004276
  48	2.3500e-02	1.9122	2.688694	0.000224	2.242760	0.759868	0.018046
  49	2.4000e-02	1.9395	2.769515	0.000201	2.008918	0.680640	0.016164
  50	2.4500e-02	1.9957	2.798166	0.000071	0.712156	0.241285	0.005730
  51	2.5000e-02	2.0326	2.878987	0.000201	2.008918	0.680640	0.016164
  52	2.5500e-02	2.0679	2.894382	0.000038	0.382651	0.129646	0.003079
  53	2.6000e-02	2.1048	2.992735	0.000244	2.444715	0.828292	0.019671
  54	2.6500e-02	2.1465	3.139411	0.000365	3.645814	1.235235	0.029335
  55	2.7000e-02	2.2010	3.108622	-0.000077	-0.765302	-0.259291	-0.006158
  56	2.7500e-02	2.2251	3.239903	0.000326	3.263163	1.105590	0.026256
  57	2.8000e-02	2.2700	3.344671	0.000260	2.604153	0.882311	0.020954
  58	2.8500e-02	2.3149	3.285231	-0.000148	-1.477458	-0.500576	-0.011888
  59	2.9000e-02	2.3614	3.481939	0.000489	4.889430	1.656584	0.039342
  60	2.9500e-02	2.4031	3.472959	-0.000022	-0.223213	-0.075627	-0.001796
  61	3.0000e-02	2.4529	3.494340	0.000053	0.531460	0.180063	0.004276
  62	3.0500e-02	2.4673	3.558056	0.000158	1.583750	0.536589	0.012743
  63	3.1000e-02	2.4962	3.656410	0.000244	2.444715	0.828292	0.019671
  64	3.1500e-02	2.5299	3.824467	0.000418	4.177274	1.415299	0.033611
  65	3.2000e-02	2.6149	3.822756	-0.000004	-0.042517	-0.014405	-0.000342
  66	3.2500e-02	2.6325	3.892031	0.000172	1.721930	0.583406	0.013855
  67	3.3000e-02	2.6614	3.971997	0.000199	1.987659	0.673437	0.015993
  68	3.3500e-02	2.7368	4.038279	0.000165	1.647525	0.558197	0.013256
  69	3.4000e-02	2.7448	4.077193	0.000097	0.967257	0.327715	0.007783
  70	3.4500e-02	2.7817	4.246960	0.000422	4.219790	1.429704	0.033953
  71	3.5000e-02	2.8459	4.169133	-0.000193	-1.934513	-0.655431	-0.015566
  72	3.5500e-02	2.8636	4.274756	0.000263	2.625411	0.889513	0.021125
  73	3.6000e-02	2.9245	4.420149	0.000361	3.613926	1.224431	0.029079
  74	3.6500e-02	2.9646	4.436826	0.000041	0.414539	0.140449	0.003335
  75	3.7000e-02	2.9855	4.452221	0.000038	0.382651	0.129646	0.003079
  76	3.7500e-02	3.0496	4.480016	0.000069	0.690898	0.234082	0.005559
  77	3.8000e-02	3.0705	4.580508	0.000250	2.497861	0.846298	0.020098
  78	3.8500e-02	3.1106	4.630113	0.000123	1.232987	0.417747	0.009921
  79	3.9000e-02	3.1523	4.723335	0.000232	2.317165	0.785077	0.018644
  80	3.9500e-02	3.1844	4.799452	0.000189	1.891997	0.641026	0.015223
  81	4.0000e-02	3.2438	4.876852	0.000192	1.923884	0.651830	0.015480
  82	4.0500e-02	3.2726	5.011127	0.000334	3.337567	1.130798	0.026855
  83	4.1000e-02	3.3143	5.036784	0.000064	0.637752	0.216076	0.005132
  84	4.1500e-02	3.3416	5.119316	0.000205	2.051435	0.695045	0.016506
  85	4.2000e-02	3.3978	5.180466	0.000152	1.519975	0.514981	0.012230
  86	4.2500e-02	3.4218	5.230499	0.000124	1.243616	0.421348	0.010006
  87	4.3000e-02	3.4667	5.263426	0.000082	0.818448	0.277298	0.006585
  88	4.3500e-02	3.5309	5.280103	0.000041	0.414539	0.140449	0.003335
  89	4.4000e-02	3.5245	5.393424	-0.000282	-2.816737	-0.954336	0.022664
  90	4.4500e-02	3.6111	5.423785	0.000075	0.754673	0.255690	0.006072
  91	4.5000e-02	3.6320	5.517863	0.000234	2.338423	0.792279	0.018816
  92	4.5500e-02	3.6705	5.509310	-0.000021	-0.212584	-0.072025	-0.001711
  93	4.6000e-02	3.7058	5.679933	0.000424	4.241049	1.436906	0.034124
  94	4.6500e-02	3.7780	5.672235	-0.000019	-0.191326	-0.064823	-0.001539
  95	4.7000e-02	3.7908	5.717564	0.000113	1.126695	0.381734	0.009066
  96	4.7500e-02	3.8518	5.827891	0.000274	2.742332	0.929127	0.022065
  97	4.8000e-02	3.8951	5.862529	0.000086	0.860965	0.291703	0.006928
  98	4.8500e-02	3.9063	5.992954	0.000324	3.241904	1.098387	0.026085
  99	4.9000e-02	3.9416	6.042559	0.000123	1.232987	0.417747	0.009921
 100	4.9500e-02	4.0074	6.038710	-0.000010	-0.095663	-0.032411	-0.000770
 101	5.0000e-02	4.0266	6.181110	0.000354	3.539522	1.199222	0.028480
 102	5.0500e-02	4.0812	6.244398	0.000157	1.573121	0.532988	0.012658
 103	5.1000e-02	4.1325	6.258510	0.000035	0.350763	0.118842	0.002822
 104	5.1500e-02	4.1630	6.262358	0.000010	0.095663	0.032411	0.000770
 105	5.2000e-02	4.1726	6.465908	0.000506	5.059497	1.714204	0.040710
 106	5.2500e-02	4.2384	6.538177	0.000180	1.796334	0.608614	0.014454
 107	5.3000e-02	4.2753	6.529624	-0.000021	-0.212584	-0.072025	-0.001711
 108	5.3500e-02	4.3282	6.525348	-0.000011	-0.106292	-0.036013	-0.000855
 109	5.4000e-02	4.3555	6.602320	0.000191	1.913255	0.648228	0.015395
 110	5.4500e-02	4.3812	6.650214	0.000119	1.190470	0.403342	0.009579
 111	5.5000e-02	4.4469	6.880704	0.000573	5.729136	1.941084	0.046098
 112	5.5500e-02	4.4806	6.827679	-0.000132	-1.318020	-0.446557	-0.010605
 113	5.6000e-02	4.4902	6.947842	0.000299	2.986804	1.011957	0.024033
 114	5.6500e-02	4.5496	7.021821	0.000184	1.838851	0.623019	0.014796
 115	5.7000e-02	4.5865	7.046195	0.000061	0.605864	0.205272	0.004875
 116	5.7500e-02	4.6266	7.174483	0.000319	3.188758	1.080381	0.025658
 117	5.8000e-02	4.6651	7.260863	0.000215	2.147097	0.727456	0.017276
 118	5.8500e-02	4.7229	7.348527	0.000218	2.178985	0.738260	0.017533
 119	5.9000e-02	4.7517	7.283100	-0.000163	-1.626267	-0.550994	-0.013085
 120	5.9500e-02	4.7870	7.400269	0.000291	2.912399	0.986748	0.023434
 121	6.0000e-02	4.8640	7.523853	0.000307	3.071837	1.040767	0.024717
 122	6.0500e-02	4.8817	7.491781	-0.000080	-0.797190	-0.270095	-0.006414
 123	6.1000e-02	4.9057	7.645298	0.000382	3.815881	1.292855	0.030703
 124	6.1500e-02	4.9619	7.645298	0.000000	0.000000	0.000000	0.000000
 125	6.2000e-02	4.9956	7.662403	0.000043	0.425168	0.144051	0.003421
 126	6.2500e-02	5.0373	7.821908	0.000396	3.964690	1.343273	0.031901
 127	6.3000e-02	5.0646	7.836447	0.000036	0.361393	0.122443	0.002908
 128	6.3500e-02	5.0999	7.901446	0.000162	1.615638	0.547393	0.013000
 129	6.4000e-02	5.1688	8.001083	0.000248	2.476602	0.839096	0.019927
 130	6.4500e-02	5.2122	8.057957	0.000141	1.413683	0.478969	0.011375
 131	6.5000e-02	5.2346	8.078055	0.000050	0.499572	0.169260	0.004020
 132	6.5500e-02	5.2699	8.089174	0.000028	0.276359	0.093633	0.002224
 133	6.6000e-02	5.3325	8.232856	0.000357	3.571410	1.210026	0.028736
 134	6.6500e-02	5.3630	8.299138	0.000165	1.647525	0.558197	0.013256
 135	6.7000e-02	5.4063	8.429991	0.000325	3.252534	1.101988	0.026171
 136	6.7500e-02	5.4111	8.474892	0.000112	1.116065	0.378133	0.008980
 137	6.8000e-02	5.4656	8.440254	-0.000086	-0.860965	-0.291703	-0.006928
 138	6.8500e-02	5.5154	8.531338	0.000226	2.264019	0.767070	0.018217
 139	6.9000e-02	5.5362	8.596765	0.000163	1.626267	0.550994	0.013085
 140	6.9500e-02	5.6148	8.628837	0.000080	0.797190	0.270095	0.006414
 141	7.0000e-02	5.6405	8.750282	0.000302	3.018691	1.022760	0.024289
 142	7.0500e-02	5.6758	8.675448	-0.000186	-1.860109	-0.630222	-0.014967
 143	7.1000e-02	5.7175	8.812288	0.000340	3.401342	1.152406	0.027368
 144	7.1500e-02	5.7576	8.799887	-0.000031	-0.308247	-0.104437	-0.002480
 145	7.2000e-02	5.7849	8.914063	0.000284	2.837995	0.961539	0.022835
 146	7.2500e-02	5.8314	9.068008	0.000383	3.826510	1.296457	0.030789
 147	7.3000e-02	5.8859	9.030377	-0.000094	-0.935369	-0.316912	-0.007526
 148	7.3500e-02	5.9308	9.012844	-0.000044	-0.435797	-0.147652	-0.003507
 149	7.4000e-02	5.9437	9.245472	0.000578	5.782282	1.959090	0.046526
 150	7.4500e-02	6.0046	9.286524	0.000102	1.020403	0.345722	0.008210
 151	7.5000e-02	6.0367	9.294222	0.000019	0.191326	0.064823	0.001539
 152	7.5500e-02	6.0977	9.344254	0.000124	1.243616	0.421348	0.010006
 153	7.6000e-02	6.1105	9.463134	0.000295	2.954916	1.001153	0.023776
 154	7.6500e-02	6.1667	9.447311	-0.000039	-0.393280	-0.133247	-0.003164
 155	7.7000e-02	6.2084	9.477673	0.000075	0.754673	0.255690	0.006072
 156	7.7500e-02	6.2340	9.557211	0.000198	1.977030	0.669836	0.015908
 157	7.8000e-02	6.2854	9.765465	0.000518	5.176418	1.753818	0.041651
 158	7.8500e-02	6.3030	9.784280	0.000047	0.467685	0.158456	0.003763
 159	7.9000e-02	6.3640	9.704742	-0.000198	-1.977030	-0.669836	-0.015908
 160	7.9500e-02	6.4009	9.898456	0.000482	4.815025	1.631375	0.038743
 161	8.0000e-02	6.4153	9.856976	-0.000103	-1.031032	-0.349323	-0.008296
 162	8.0500e-02	6.4859	10.041283	0.000458	4.581183	1.552147	0.036861
 163	8.1000e-02	6.4811	10.229866	-0.000469	-4.687475	-1.588160	0.037717
 164	8.1500e-02	6.5741	10.094736	-0.000336	-3.358826	-1.138001	-0.027026
 165	8.2000e-02	6.5806	10.164011	0.000172	1.721930	0.583406	0.013855
 166	8.2500e-02	6.6447	10.294009	0.000323	3.231275	1.094786	0.026000
 167	8.3000e-02	6.6704	10.307266	0.000033	0.329505	0.111639	0.002651
 168	8.3500e-02	6.7201	10.335489	0.000070	0.701527	0.237684	0.005645
 169	8.4000e-02	6.7618	10.392363	0.000141	1.413683	0.478969	0.011375
 170	8.4500e-02	6.7843	10.405620	0.000033	0.329505	0.111639	0.002651
 171	8.5000e-02	6.8324	10.533907	0.000319	3.188758	1.080381	0.025658
 172	8.5500e-02	6.8709	10.644235	0.000274	2.742332	0.929127	0.022065
 173	8.6000e-02	6.9191	10.666043	0.000054	0.542089	0.183665	0.004362
 174	8.6500e-02	6.9624	10.676306	0.000026	0.255101	0.086430	0.002053
 175	8.7000e-02	7.0073	10.814002	0.000342	3.422601	1.159609	0.027539
 176	8.7500e-02	7.0153	10.820844	0.000017	0.170067	0.057620	0.001368
 177	8.8000e-02	7.0731	10.941434	0.000300	2.997433	1.015558	0.024118
 178	8.8500e-02	7.1116	10.980348	0.000097	0.967257	0.327715	0.007783
 179	8.9000e-02	7.1501	11.060314	0.000199	1.987659	0.673437	0.015993
 180	8.9500e-02	7.2223	11.078702	0.000046	0.457055	0.154855	0.003678
 181	9.0000e-02	7.2207	11.161661	-0.000206	-2.062064	-0.698646	0.016592
 182	9.0500e-02	7.2896	11.181332	0.000049	0.488943	0.165658	0.003934
 183	9.1000e-02	7.3041	11.245476	0.000159	1.594379	0.540190	0.012829
 184	9.1500e-02	7.3538	11.331856	0.000215	2.147097	0.727456	0.017276
 185	9.2000e-02	7.3987	11.463137	0.000326	3.263163	1.105590	0.026256
 186	9.2500e-02	7.4292	11.427216	-0.000089	-0.892852	-0.302507	-0.007184
 187	9.3000e-02	7.4645	11.497775	0.000175	1.753817	0.594209	0.014112
 188	9.3500e-02	7.5030	11.594418	0.000240	2.402198	0.813887	0.019329
 189	9.4000e-02	7.5319	11.649582	0.000137	1.371166	0.464564	0.011033
 190	9.4500e-02	7.6025	11.762902	0.000282	2.816737	0.954336	0.022664
 191	9.5000e-02	7.6281	11.800106	0.000092	0.924740	0.313310	0.007441
 192	9.5500e-02	7.6650	11.796257	-0.000010	-0.095663	-0.032411	-0.000770
 193	9.6000e-02	7.7019	11.812079	0.000039	0.393280	0.133247	0.003164
 194	9.6500e-02	7.7565	11.892473	0.000200	1.998289	0.677039	0.016079
 195	9.7000e-02	7.7886	12.061385	0.000420	4.198532	1.422501	0.033782
 196	9.7500e-02	7.8415	12.048984	-0.000031	-0.308247	-0.104437	-0.002480
 197	9.8000e-02	7.8768	12.209343	0.000399	3.985948	1.350476	0.032072
 198	9.8500e-02	7.9073	12.262796	0.000133	1.328649	0.450159	0.010691
 199	9.9000e-02	7.9618	12.223455	-0.000098	-0.977886	-0.331317	-0.007868
 200	9.9500e-02	7.9650	12.310263	0.000216	2.157727	0.731058	0.017362
 201	1.0000e-01	8.0356	12.425721	0.000287	2.869883	0.972343	0.023092
 202	1.0050e-01	8.0966	12.268355	-0.000391	-3.911544	-1.325267	-0.031473
 203	1.0100e-01	8.1078	12.403485	0.000336	3.358826	1.138001	0.027026
 204	1.0150e-01	8.1543	12.555292	0.000377	3.773364	1.278450	0.030361
 205	1.0200e-01	8.2057	12.517661	-0.000094	-0.935369	-0.316912	-0.007526
 206	1.0250e-01	8.2425	12.642100	0.000309	3.093096	1.047969	0.024888
 207	1.0300e-01	8.2923	12.726342	0.000209	2.093951	0.709450	0.016848
 208	1.0350e-01	8.3179	12.707954	-0.000046	-0.457055	-0.154855	-0.003678
 209	1.0400e-01	8.3500	12.812722	0.000260	2.604153	0.882311	0.020954
 210	1.0450e-01	8.3821	12.914069	0.000252	2.519119	0.853501	0.020269
 211	1.0500e-01	8.4302	13.013706	0.000248	2.476602	0.839096	0.019927
 212	1.0550e-01	8.4559	13.023114	0.000023	0.233842	0.079228	0.001882
 213	1.0600e-01	8.5169	13.104790	0.000203	2.030176	0.687842	0.016335
 214	1.0650e-01	8.5522	13.160809	0.000139	1.392425	0.471766	0.011204
 215	1.0700e-01	8.5875	13.178342	0.000044	0.435797	0.147652	0.003507
 216	1.0750e-01	8.6260	13.295939	0.000292	2.923029	0.990349	0.023519
 217	1.0800e-01	8.6773	13.330576	0.000086	0.860965	0.291703	0.006928
 218	1.0850e-01	8.7350	13.292090	-0.000096	-0.956628	-0.324114	-0.007697
 219	1.0900e-01	8.7527	13.410115	0.000293	2.933658	0.993950	0.023605
 220	1.0950e-01	8.8056	13.447318	0.000092	0.924740	0.313310	0.007441
 221	1.1000e-01	8.8297	13.528567	0.000202	2.019547	0.684241	0.016250
 222	1.1050e-01	8.8746	13.570902	0.000105	1.052290	0.356526	0.008467
 223	1.1100e-01	8.9356	13.557218	-0.000034	-0.340134	-0.115241	-0.002737
 224	1.1150e-01	8.9436	13.653434	0.000239	2.391569	0.810285	0.019243
 225	1.1200e-01	9.0142	13.726130	0.000181	1.806963	0.612216	0.014539
 226	1.1250e-01	9.0543	13.774879	0.000121	1.211728	0.410545	0.009750
 227	1.1300e-01	9.0992	13.755208	-0.000049	-0.488943	-0.165658	-0.003934
 228	1.1350e-01	9.1201	13.898463	0.000356	3.560780	1.206425	0.028651
 229	1.1400e-01	9.1554	13.892048	-0.000016	-0.159438	-0.054019	-0.001283
 230	1.1450e-01	9.2051	14.072934	0.000450	4.496149	1.523337	0.036177
 231	1.1500e-01	9.2372	14.109710	0.000091	0.914111	0.309709	0.007355
 232	1.1550e-01	9.2789	14.269642	0.000398	3.975319	1.346875	0.031986
 233	1.1600e-01	9.3254	14.223458	-0.000115	-1.147953	-0.388937	-0.009237
 234	1.1650e-01	9.3559	14.363719	0.000349	3.486376	1.181216	0.028052
 235	1.1700e-01	9.3880	14.335068	-0.000071	-0.712156	-0.241285	-0.005730
 236	1.1750e-01	9.4104	14.343621	0.000021	0.212584	0.072025	0.001711
 237	1.1800e-01	9.4714	14.492862	0.000371	3.709589	1.256843	0.029848
 238	1.1850e-01	9.5195	14.524934	0.000080	0.797190	0.270095	0.006414
 239	1.1900e-01	9.5741	14.629274	0.000259	2.593524	0.878710	0.020868
 240	1.1950e-01	9.5885	14.648518	0.000048	0.478314	0.162057	0.003849
 241	1.2000e-01	9.6302	14.703681	0.000137	1.371166	0.464564	0.011033
 242	1.2050e-01	9.6944	14.730622	0.000067	0.669639	0.226880	0.005388
 243	1.2100e-01	9.7265	14.693418	-0.000092	-0.924740	-0.313310	-0.007441
 244	1.2150e-01	9.7377	14.972230	0.000693	6.930235	2.348027	0.055762
 245	1.2200e-01	9.8163	14.916639	-0.000138	-1.381795	-0.468165	-0.011118
 246	1.2250e-01	9.8388	14.980782	0.000159	1.594379	0.540190	0.012829
 247	1.2300e-01	9.8853	14.940158	-0.000101	-1.009774	-0.342121	-0.008125
 248	1.2350e-01	9.9045	15.080419	0.000349	3.486376	1.181216	0.028052
 249	1.2400e-01	9.9543	15.135583	0.000137	1.371166	0.464564	0.011033
 250	1.2450e-01	9.9912	15.276271	0.000350	3.497005	1.184817	0.028138
 251	1.2500e-01	10.0216	15.315185	0.000097	0.967257	0.327715	0.007783
 252	1.2550e-01	10.0730	15.377191	0.000154	1.541233	0.522184	0.012401
 253	1.2600e-01	10.1163	15.452453	0.000187	1.870738	0.633823	0.015052
 254	1.2650e-01	10.1436	15.489657	0.000092	0.924740	0.313310	0.007441
 255	1.2700e-01	10.1869	15.490084	0.000001	0.010629	0.003601	0.000086
 256	1.2750e-01	10.2478	15.490084	0.000000	0.000000	0.000000	0.000000
 257	1.2800e-01	10.2735	15.568340	0.000195	1.945143	0.659032	0.015651
 258	1.2850e-01	10.3136	15.719719	0.000376	3.762735	1.274849	0.030276
 259	1.2900e-01	10.3810	15.815935	0.000239	2.391569	0.810285	0.019243
 260	1.2950e-01	10.4002	15.791560	-0.000061	-0.605864	-0.205272	-0.004875
 261	1.3000e-01	10.4452	15.806099	0.000036	0.361393	0.122443	0.002908
 262	1.3050e-01	10.4596	15.883927	0.000193	1.934513	0.655431	0.015566
 263	1.3100e-01	10.4917	16.047707	0.000407	4.070982	1.379286	0.032756
 264	1.3150e-01	10.5302	15.972873	-0.000186	-1.860109	-0.630222	-0.014967
 265	1.3200e-01	10.6104	16.120404	0.000367	3.667072	1.242438	0.029506
