»»»»»»»»»»»»»»»»»»»»»»»»»»»»»»»»»»»» Hysteresis ««««««««««««««««««««««««««««««««««««
»»»  Executed Version:	5.48.1
»»»  Vision Version:	5.48.4 (R)
»»»  Vision Compiled:	9/18/24
»»»  Driver Version:	5.47.0
»»»  Windows Version:	Windows 8 or 8.1
»»»  Processor Information:	x86 (AMD or Intel) - 32 Processors
»»»  Tester Name:	PMF21124-494 (100V)
»»»  Tester S/N:	PMF21124-494
»»»  Internal Amp Type:	100V RevK 270k
»»»  Internal Amp S/N:	iAB2-596/K     
»»»  Execution Count:	1
»»»»»»»»»»»»»»»»»»»»»»»»»»»»»»»»»»»»»»»»»»««««««««««««««««««««««««««««««««««««««««««

Stored:	6/9/2025 - 14:58:4
Configured:	06/09/25 02:47:45 PM
Executed:	06/09/25 02:57:33 PM

»»»»»»»»»»»»»»»»»»»»»»»»»»»»»»»»»»» Sample Info ««««««««««««««««««««««««««««««««««««
Sample Name:	
Lot Name:	
Wafer Name:	
Die Row/Column:	0/0
Capacitor Number:	0
Sample Area (cm2):	1.00e-04
Sample Thickness (microns):	3.00e-01

Amplifier:	Internal

»»»»»»»»»»»»»»»»»»»»»»»»»»»»»»»»»»» Tester Info «««««««««««««««««««««««««««««««««««
Tester Name:	PMF21124-494 (100V)
Tester Serial Number:	PMF21124-494
Return Signal Amp. Level:	0.19 [Index: 3]

»»»»»»»»»»»»»»»»»»»»»»»»»»»»»»»» Hysteresis Info ««««««««««««««««««««««««««««««««««
Task Name:	Hyst-927
Volts:	20.00
Field:	666.67 (kV/cm)
DCBias:	0.00
DCField:	0.00 (kV/cm)
Hysteresis Period (ms):	2.00e+02
Preset:	Enabled
Preset Delay (ms):	1.00e+03
Profile:	Standard Bipolar

»»»»»»»»»»»»»»»»»»»»»»»»»»»»»»»»»»»»»» Data «««««««««««««««««««««««««««««««««««««««
Points:	2009

Valid Data

Point	Time (ms)	Drive Voltage	Measured Polarization (uC/cm2)	Capacitance (uF)	Normalized Capacitance (uF/cm2)	Dielectric Constant	Instantaneous Current (mA)
   1	0.0000e+00	-0.0176	-1.633021	0.000152	1.520167	0.515046	0.000061
   2	9.9500e-02	0.0193	-1.572464	0.000152	1.520167	0.515046	0.000061
   3	1.9900e-01	0.0513	-1.390793	0.000456	4.560500	1.545139	0.000183
   4	2.9850e-01	0.0963	-1.293902	0.000243	2.432267	0.824074	0.000097
   5	3.9800e-01	0.1364	-1.180862	0.000284	2.837645	0.961420	0.000114
   6	4.9750e-01	0.1861	-1.019377	0.000405	4.053778	1.373457	0.000162
   7	5.9700e-01	0.2166	-0.942671	0.000193	1.925545	0.652392	0.000077
   8	6.9650e-01	0.2535	-0.829631	0.000284	2.837645	0.961420	0.000114
   9	7.9600e-01	0.3000	-0.680257	0.000375	3.749745	1.270448	0.000150
  10	8.9550e-01	0.3385	-0.583366	0.000243	2.432267	0.824074	0.000097
  11	9.9500e-01	0.3754	-0.450141	0.000334	3.344367	1.133102	0.000134
  12	1.0945e+00	0.4155	-0.324989	0.000314	3.141678	1.064429	0.000126
  13	1.1940e+00	0.4604	-0.220024	0.000263	2.634956	0.892747	0.000105
  14	1.2935e+00	0.4989	-0.078724	0.000355	3.547056	1.201775	0.000142
  15	1.3930e+00	0.5358	0.042390	0.000304	3.040334	1.030093	0.000122
  16	1.4925e+00	0.5711	0.179653	0.000345	3.445711	1.167439	0.000138
  17	1.5920e+00	0.6096	0.280581	0.000253	2.533611	0.858411	0.000101
  18	1.6915e+00	0.6577	0.405732	0.000314	3.141678	1.064429	0.000126
  19	1.7910e+00	0.6930	0.559143	0.000385	3.851089	1.304784	0.000154
  20	1.8905e+00	0.7379	0.656035	0.000243	2.432267	0.824074	0.000097
  21	1.9900e+00	0.7748	0.765037	0.000274	2.736300	0.927084	0.000110
  22	2.0895e+00	0.8085	0.910374	0.000365	3.648400	1.236111	0.000146
  23	2.1890e+00	0.8486	1.063785	0.000385	3.851089	1.304784	0.000154
  24	2.2885e+00	0.8968	1.152602	0.000223	2.229578	0.755401	0.000089
  25	2.3880e+00	0.9353	1.285828	0.000334	3.344367	1.133102	0.000134
  26	2.4875e+00	0.9786	1.423090	0.000345	3.445711	1.167439	0.000138
  27	2.5870e+00	1.0059	1.572464	0.000375	3.749745	1.270448	0.000150
  28	2.6865e+00	1.0476	1.645133	0.000182	1.824200	0.618056	0.000073
  29	2.7860e+00	1.0957	1.762210	0.000294	2.938989	0.995756	0.000118
  30	2.8855e+00	1.1278	1.911584	0.000375	3.749745	1.270448	0.000150
  31	2.9850e+00	1.1743	2.040772	0.000324	3.243022	1.098766	0.000130
  32	3.0845e+00	1.2128	2.169960	0.000324	3.243022	1.098766	0.000130
  33	3.1840e+00	1.2449	2.266852	0.000243	2.432267	0.824074	0.000097
  34	3.2835e+00	1.2914	2.392003	0.000314	3.141678	1.064429	0.000126
  35	3.3830e+00	1.3331	2.581748	0.000476	4.763189	1.613812	0.000191
  36	3.4825e+00	1.3845	2.670565	0.000223	2.229578	0.755401	0.000089
  37	3.5820e+00	1.4037	2.803791	0.000334	3.344367	1.133102	0.000134
  38	3.6815e+00	1.4518	2.949128	0.000365	3.648400	1.236111	0.000146
  39	3.7810e+00	1.4967	3.062167	0.000284	2.837645	0.961420	0.000114
  40	3.8805e+00	1.5272	3.146947	0.000213	2.128233	0.721065	0.000085
  41	3.9800e+00	1.5657	3.316507	0.000426	4.256467	1.442130	0.000170
  42	4.0795e+00	1.6123	3.445695	0.000324	3.243022	1.098766	0.000130
  43	4.1790e+00	1.6588	3.578921	0.000334	3.344367	1.133102	0.000134
  44	4.2785e+00	1.6957	3.683886	0.000263	2.634956	0.892747	0.000105
  45	4.3780e+00	1.7310	3.805000	0.000304	3.040334	1.030093	0.000122
  46	4.4775e+00	1.7679	3.938226	0.000334	3.344367	1.133102	0.000134
  47	4.5770e+00	1.8112	4.055303	0.000294	2.938989	0.995756	0.000118
  48	4.6765e+00	1.8529	4.200640	0.000365	3.648400	1.236111	0.000146
  49	4.7760e+00	1.8930	4.321754	0.000304	3.040334	1.030093	0.000122
  50	4.8755e+00	1.9315	4.438831	0.000294	2.938989	0.995756	0.000118
  51	4.9750e+00	1.9780	4.580130	0.000355	3.547056	1.201775	0.000142
  52	5.0745e+00	2.0117	4.705282	0.000314	3.141678	1.064429	0.000126
  53	5.1740e+00	2.0566	4.810247	0.000263	2.634956	0.892747	0.000105
  54	5.2735e+00	2.0839	4.923287	0.000284	2.837645	0.961420	0.000114
  55	5.3730e+00	2.1240	5.048438	0.000314	3.141678	1.064429	0.000126
  56	5.4725e+00	2.1609	5.177627	0.000324	3.243022	1.098766	0.000130
  57	5.5720e+00	2.2203	5.314889	0.000345	3.445711	1.167439	0.000138
  58	5.6715e+00	2.2636	5.440040	0.000314	3.141678	1.064429	0.000126
  59	5.7710e+00	2.2828	5.569229	0.000324	3.243022	1.098766	0.000130
  60	5.8705e+00	2.3277	5.670157	0.000253	2.533611	0.858411	0.000101
  61	5.9700e+00	2.3662	5.807420	0.000345	3.445711	1.167439	0.000138
  62	6.0695e+00	2.4047	5.940645	0.000334	3.344367	1.133102	0.000134
  63	6.1690e+00	2.4497	6.049648	0.000274	2.736300	0.927084	0.000110
  64	6.2685e+00	2.4946	6.182873	0.000334	3.344367	1.133102	0.000134
  65	6.3680e+00	2.5347	6.299950	0.000294	2.938989	0.995756	0.000118
  66	6.4675e+00	2.5684	6.400879	0.000253	2.533611	0.858411	0.000101
  67	6.5670e+00	2.6053	6.521993	0.000304	3.040334	1.030093	0.000122
  68	6.6665e+00	2.6390	6.667330	0.000365	3.648400	1.236111	0.000146
  69	6.7660e+00	2.6823	6.784407	0.000294	2.938989	0.995756	0.000118
  70	6.8655e+00	2.7192	6.889372	0.000263	2.634956	0.892747	0.000105
  71	6.9650e+00	2.7705	7.050858	0.000405	4.053778	1.373457	0.000162
  72	7.0645e+00	2.8106	7.163897	0.000284	2.837645	0.961420	0.000114
  73	7.1640e+00	2.8411	7.276937	0.000284	2.837645	0.961420	0.000114
  74	7.2635e+00	2.8876	7.410163	0.000334	3.344367	1.133102	0.000134
  75	7.3630e+00	2.9213	7.494942	0.000213	2.128233	0.721065	0.000085
  76	7.4625e+00	2.9807	7.652391	0.000395	3.952434	1.339121	0.000158
  77	7.5620e+00	3.0031	7.781579	0.000324	3.243022	1.098766	0.000130
  78	7.6615e+00	3.0464	7.870396	0.000223	2.229578	0.755401	0.000089
  79	7.7610e+00	3.0898	8.003622	0.000334	3.344367	1.133102	0.000134
  80	7.8605e+00	3.1266	8.120699	0.000294	2.938989	0.995756	0.000118
  81	7.9600e+00	3.1732	8.274110	0.000385	3.851089	1.304784	0.000154
  82	8.0595e+00	3.2037	8.371001	0.000243	2.432267	0.824074	0.000097
  83	8.1590e+00	3.2534	8.520375	0.000375	3.749745	1.270448	0.000150
  84	8.2585e+00	3.2919	8.649563	0.000324	3.243022	1.098766	0.000130
  85	8.3580e+00	3.3240	8.762603	0.000284	2.837645	0.961420	0.000114
  86	8.4575e+00	3.3625	8.847383	0.000213	2.128233	0.721065	0.000085
  87	8.5570e+00	3.4042	8.952348	0.000263	2.634956	0.892747	0.000105
  88	8.6565e+00	3.4459	9.125945	0.000436	4.357811	1.476466	0.000174
  89	8.7560e+00	3.4812	9.247059	0.000304	3.040334	1.030093	0.000122
  90	8.8555e+00	3.5197	9.335876	0.000223	2.229578	0.755401	0.000089
  91	8.9550e+00	3.5694	9.448916	0.000284	2.837645	0.961420	0.000114
  92	9.0545e+00	3.6031	9.642699	0.000486	4.864534	1.648149	0.000195
  93	9.1540e+00	3.6560	9.731516	0.000223	2.229578	0.755401	0.000089
  94	9.2535e+00	3.6849	9.836481	0.000263	2.634956	0.892747	0.000105
  95	9.3530e+00	3.7234	9.957595	0.000304	3.040334	1.030093	0.000122
  96	9.4525e+00	3.7635	10.086784	0.000324	3.243022	1.098766	0.000130
  97	9.5520e+00	3.8036	10.179638	0.000233	2.330922	0.789738	0.000093
  98	9.6515e+00	3.8470	10.304789	0.000314	3.141678	1.064429	0.000126
  99	9.7510e+00	3.8774	10.425903	0.000304	3.040334	1.030093	0.000122
 100	9.8505e+00	3.9256	10.587388	0.000405	4.053778	1.373457	0.000162
 101	9.9500e+00	3.9641	10.660057	0.000182	1.824200	0.618056	0.000073
 102	1.0050e+01	4.0010	10.789245	0.000324	3.243022	1.098766	0.000130
 103	1.0149e+01	4.0491	10.898248	0.000274	2.736300	0.927084	0.000110
 104	1.0248e+01	4.0892	11.043585	0.000365	3.648400	1.236111	0.000146
 105	1.0348e+01	4.1229	11.100105	0.000142	1.418822	0.480710	0.000057
 106	1.0447e+01	4.1630	11.245442	0.000365	3.648400	1.236111	0.000146
 107	1.0547e+01	4.1999	11.342333	0.000243	2.432267	0.824074	0.000097
 108	1.0646e+01	4.2480	11.519967	0.000446	4.459156	1.510803	0.000179
 109	1.0746e+01	4.2785	11.592635	0.000182	1.824200	0.618056	0.000073
 110	1.0845e+01	4.3266	11.717786	0.000314	3.141678	1.064429	0.000126
 111	1.0945e+01	4.3635	11.826789	0.000274	2.736300	0.927084	0.000110
 112	1.1044e+01	4.4052	11.915606	0.000223	2.229578	0.755401	0.000089
 113	1.1144e+01	4.4309	12.064980	0.000375	3.749745	1.270448	0.000150
 114	1.1243e+01	4.4854	12.169946	0.000263	2.634956	0.892747	0.000105
 115	1.1343e+01	4.5320	12.282985	0.000284	2.837645	0.961420	0.000114
 116	1.1443e+01	4.5640	12.396025	0.000284	2.837645	0.961420	0.000114
 117	1.1542e+01	4.5993	12.509065	0.000284	2.837645	0.961420	0.000114
 118	1.1642e+01	4.6459	12.638253	0.000324	3.243022	1.098766	0.000130
 119	1.1741e+01	4.6828	12.751293	0.000284	2.837645	0.961420	0.000114
 120	1.1841e+01	4.7213	12.896630	0.000365	3.648400	1.236111	0.000146
 121	1.1940e+01	4.7598	12.945076	0.000122	1.216133	0.412037	0.000049
 122	1.2040e+01	4.7983	13.098487	0.000385	3.851089	1.304784	0.000154
 123	1.2139e+01	4.8448	13.171155	0.000182	1.824200	0.618056	0.000073
 124	1.2239e+01	4.8785	13.264009	0.000233	2.330922	0.789738	0.000093
 125	1.2338e+01	4.9186	13.393198	0.000324	3.243022	1.098766	0.000130
 126	1.2438e+01	4.9587	13.490089	0.000243	2.432267	0.824074	0.000097
 127	1.2537e+01	4.9972	13.611203	0.000304	3.040334	1.030093	0.000122
 128	1.2636e+01	5.0389	13.764614	0.000385	3.851089	1.304784	0.000154
 129	1.2736e+01	5.0790	13.881691	0.000294	2.938989	0.995756	0.000118
 130	1.2835e+01	5.1175	13.978582	0.000243	2.432267	0.824074	0.000097
 131	1.2935e+01	5.1544	14.083548	0.000263	2.634956	0.892747	0.000105
 132	1.3034e+01	5.1929	14.180439	0.000243	2.432267	0.824074	0.000097
 133	1.3134e+01	5.2442	14.366148	0.000466	4.661845	1.579476	0.000187
 134	1.3233e+01	5.2811	14.459002	0.000233	2.330922	0.789738	0.000093
 135	1.3333e+01	5.3228	14.555893	0.000243	2.432267	0.824074	0.000097
 136	1.3432e+01	5.3565	14.677007	0.000304	3.040334	1.030093	0.000122
 137	1.3532e+01	5.3982	14.777935	0.000253	2.533611	0.858411	0.000101
 138	1.3632e+01	5.4383	14.899049	0.000304	3.040334	1.030093	0.000122
 139	1.3731e+01	5.4769	15.028238	0.000324	3.243022	1.098766	0.000130
 140	1.3831e+01	5.5137	15.108980	0.000203	2.026889	0.686729	0.000081
 141	1.3930e+01	5.5603	15.234132	0.000314	3.141678	1.064429	0.000126
 142	1.4030e+01	5.5988	15.322949	0.000223	2.229578	0.755401	0.000089
 143	1.4129e+01	5.6293	15.480397	0.000395	3.952434	1.339121	0.000158
 144	1.4229e+01	5.6726	15.577288	0.000243	2.432267	0.824074	0.000097
 145	1.4328e+01	5.7207	15.706477	0.000324	3.243022	1.098766	0.000130
 146	1.4428e+01	5.7560	15.767034	0.000152	1.520167	0.515046	0.000061
 147	1.4527e+01	5.8057	15.884111	0.000294	2.938989	0.995756	0.000118
 148	1.4627e+01	5.8378	16.005225	0.000304	3.040334	1.030093	0.000122
 149	1.4726e+01	5.8827	16.134413	0.000324	3.243022	1.098766	0.000130
 150	1.4825e+01	5.9228	16.255527	0.000304	3.040334	1.030093	0.000122
 151	1.4925e+01	5.9517	16.356455	0.000253	2.533611	0.858411	0.000101
 152	1.5024e+01	5.9998	16.477570	0.000304	3.040334	1.030093	0.000122
 153	1.5124e+01	6.0335	16.602721	0.000314	3.141678	1.064429	0.000126
 154	1.5223e+01	6.0736	16.679426	0.000193	1.925545	0.652392	0.000077
 155	1.5323e+01	6.1234	16.780355	0.000253	2.533611	0.858411	0.000101
 156	1.5422e+01	6.1619	16.921654	0.000355	3.547056	1.201775	0.000142
 157	1.5522e+01	6.2004	17.030657	0.000274	2.736300	0.927084	0.000110
 158	1.5621e+01	6.2421	17.135623	0.000263	2.634956	0.892747	0.000105
 159	1.5721e+01	6.2822	17.228477	0.000233	2.330922	0.789738	0.000093
 160	1.5820e+01	6.3143	17.345554	0.000294	2.938989	0.995756	0.000118
 161	1.5920e+01	6.3496	17.458593	0.000284	2.837645	0.961420	0.000114
 162	1.6020e+01	6.4057	17.583745	0.000314	3.141678	1.064429	0.000126
 163	1.6119e+01	6.4314	17.656413	0.000182	1.824200	0.618056	0.000073
 164	1.6218e+01	6.4651	17.809824	0.000385	3.851089	1.304784	0.000154
 165	1.6318e+01	6.5084	17.898641	0.000223	2.229578	0.755401	0.000089
 166	1.6418e+01	6.5469	18.031867	0.000334	3.344367	1.133102	0.000134
 167	1.6517e+01	6.5966	18.152981	0.000304	3.040334	1.030093	0.000122
 168	1.6616e+01	6.6239	18.245835	0.000233	2.330922	0.789738	0.000093
 169	1.6716e+01	6.6704	18.314466	0.000172	1.722856	0.583719	0.000069
 170	1.6816e+01	6.7057	18.467877	0.000385	3.851089	1.304784	0.000154
 171	1.6915e+01	6.7554	18.556694	0.000223	2.229578	0.755401	0.000089
 172	1.7015e+01	6.7907	18.665697	0.000274	2.736300	0.927084	0.000110
 173	1.7114e+01	6.8340	18.782774	0.000294	2.938989	0.995756	0.000118
 174	1.7213e+01	6.8709	18.867554	0.000213	2.128233	0.721065	0.000085
 175	1.7313e+01	6.9175	18.988668	0.000304	3.040334	1.030093	0.000122
 176	1.7413e+01	6.9608	19.105745	0.000294	2.938989	0.995756	0.000118
 177	1.7512e+01	6.9848	19.190525	0.000213	2.128233	0.721065	0.000085
 178	1.7611e+01	7.0330	19.372196	0.000456	4.560500	1.545139	0.000183
 179	1.7711e+01	7.0731	19.432753	0.000152	1.520167	0.515046	0.000061
 180	1.7811e+01	7.1132	19.553867	0.000304	3.040334	1.030093	0.000122
 181	1.7910e+01	7.1517	19.662870	0.000274	2.736300	0.927084	0.000110
 182	1.8009e+01	7.1886	19.759761	0.000243	2.432267	0.824074	0.000097
 183	1.8109e+01	7.2223	19.860689	0.000253	2.533611	0.858411	0.000101
 184	1.8209e+01	7.2688	19.997952	0.000345	3.445711	1.167439	0.000138
 185	1.8308e+01	7.3121	20.094843	0.000243	2.432267	0.824074	0.000097
 186	1.8407e+01	7.3426	20.207883	0.000284	2.837645	0.961420	0.000114
 187	1.8507e+01	7.3875	20.280551	0.000182	1.824200	0.618056	0.000073
 188	1.8607e+01	7.4372	20.401665	0.000304	3.040334	1.030093	0.000122
 189	1.8706e+01	7.4725	20.538928	0.000345	3.445711	1.167439	0.000138
 190	1.8805e+01	7.5094	20.656005	0.000294	2.938989	0.995756	0.000118
 191	1.8905e+01	7.5495	20.765008	0.000274	2.736300	0.927084	0.000110
 192	1.9005e+01	7.5768	20.865936	0.000253	2.533611	0.858411	0.000101
 193	1.9104e+01	7.6410	20.999162	0.000334	3.344367	1.133102	0.000134
 194	1.9203e+01	7.6618	21.092016	0.000233	2.330922	0.789738	0.000093
 195	1.9303e+01	7.7099	21.221204	0.000324	3.243022	1.098766	0.000130
 196	1.9402e+01	7.7468	21.305984	0.000213	2.128233	0.721065	0.000085
 197	1.9502e+01	7.7837	21.443246	0.000345	3.445711	1.167439	0.000138
 198	1.9602e+01	7.8222	21.560323	0.000294	2.938989	0.995756	0.000118
 199	1.9701e+01	7.8720	21.661252	0.000253	2.533611	0.858411	0.000101
 200	1.9800e+01	7.9041	21.770254	0.000274	2.736300	0.927084	0.000110
 201	1.9900e+01	7.9426	21.867146	0.000243	2.432267	0.824074	0.000097
 202	2.0000e+01	7.9859	21.988260	0.000304	3.040334	1.030093	0.000122
 203	2.0099e+01	8.0372	22.093225	0.000263	2.634956	0.892747	0.000105
 204	2.0198e+01	8.0709	22.186079	0.000233	2.330922	0.789738	0.000093
 205	2.0298e+01	8.1078	22.347565	0.000405	4.053778	1.373457	0.000162
 206	2.0398e+01	8.1479	22.428308	0.000203	2.026889	0.686729	0.000081
 207	2.0497e+01	8.2024	22.553459	0.000314	3.141678	1.064429	0.000126
 208	2.0596e+01	8.2185	22.682647	0.000324	3.243022	1.098766	0.000130
 209	2.0696e+01	8.2762	22.759353	0.000193	1.925545	0.652392	0.000077
 210	2.0796e+01	8.3035	22.900652	0.000355	3.547056	1.201775	0.000142
 211	2.0895e+01	8.3484	22.957172	0.000142	1.418822	0.480710	0.000057
 212	2.0994e+01	8.3933	23.102509	0.000365	3.648400	1.236111	0.000146
 213	2.1094e+01	8.4190	23.187289	0.000213	2.128233	0.721065	0.000085
 214	2.1194e+01	8.4671	23.296292	0.000274	2.736300	0.927084	0.000110
 215	2.1293e+01	8.5056	23.397220	0.000253	2.533611	0.858411	0.000101
 216	2.1392e+01	8.5474	23.502186	0.000263	2.634956	0.892747	0.000105
 217	2.1492e+01	8.5826	23.647523	0.000365	3.648400	1.236111	0.000146
 218	2.1591e+01	8.6211	23.768637	0.000304	3.040334	1.030093	0.000122
 219	2.1691e+01	8.6677	23.857454	0.000223	2.229578	0.755401	0.000089
 220	2.1791e+01	8.7078	23.958382	0.000253	2.533611	0.858411	0.000101
 221	2.1890e+01	8.7367	24.091608	0.000334	3.344367	1.133102	0.000134
 222	2.1989e+01	8.7848	24.160239	0.000172	1.722856	0.583719	0.000069
 223	2.2089e+01	8.8121	24.301539	0.000355	3.547056	1.201775	0.000142
 224	2.2189e+01	8.8762	24.374207	0.000182	1.824200	0.618056	0.000073
 225	2.2288e+01	8.9035	24.503395	0.000324	3.243022	1.098766	0.000130
 226	2.2387e+01	8.9404	24.588175	0.000213	2.128233	0.721065	0.000085
 227	2.2487e+01	8.9789	24.705252	0.000294	2.938989	0.995756	0.000118
 228	2.2587e+01	9.0206	24.842515	0.000345	3.445711	1.167439	0.000138
 229	2.2686e+01	9.0607	24.943443	0.000253	2.533611	0.858411	0.000101
 230	2.2785e+01	9.0992	24.999963	0.000142	1.418822	0.480710	0.000057
 231	2.2885e+01	9.1425	25.113003	0.000284	2.837645	0.961420	0.000114
 232	2.2985e+01	9.1890	25.230080	0.000294	2.938989	0.995756	0.000118
 233	2.3084e+01	9.2308	25.343120	0.000284	2.837645	0.961420	0.000114
 234	2.3183e+01	9.2612	25.472308	0.000324	3.243022	1.098766	0.000130
 235	2.3283e+01	9.3078	25.581311	0.000274	2.736300	0.927084	0.000110
 236	2.3383e+01	9.3431	25.649942	0.000172	1.722856	0.583719	0.000069
 237	2.3482e+01	9.3719	25.779130	0.000324	3.243022	1.098766	0.000130
 238	2.3581e+01	9.4249	25.851799	0.000182	1.824200	0.618056	0.000073
 239	2.3681e+01	9.4666	25.980987	0.000324	3.243022	1.098766	0.000130
 240	2.3780e+01	9.5067	26.081915	0.000253	2.533611	0.858411	0.000101
 241	2.3880e+01	9.5436	26.166695	0.000213	2.128233	0.721065	0.000085
 242	2.3980e+01	9.5853	26.307995	0.000355	3.547056	1.201775	0.000142
 243	2.4079e+01	9.6142	26.396812	0.000223	2.229578	0.755401	0.000089
 244	2.4178e+01	9.6591	26.517926	0.000304	3.040334	1.030093	0.000122
 245	2.4278e+01	9.7056	26.639040	0.000304	3.040334	1.030093	0.000122
 246	2.4378e+01	9.7393	26.719783	0.000203	2.026889	0.686729	0.000081
 247	2.4477e+01	9.7762	26.832823	0.000284	2.837645	0.961420	0.000114
 248	2.4576e+01	9.8195	26.929714	0.000243	2.432267	0.824074	0.000097
 249	2.4676e+01	9.8628	27.054865	0.000314	3.141678	1.064429	0.000126
 250	2.4776e+01	9.9029	27.123496	0.000172	1.722856	0.583719	0.000069
 251	2.4875e+01	9.9382	27.260759	0.000345	3.445711	1.167439	0.000138
 252	2.4974e+01	9.9735	27.353613	0.000233	2.330922	0.789738	0.000093
 253	2.5074e+01	10.0184	27.478764	0.000314	3.141678	1.064429	0.000126
 254	2.5174e+01	10.0650	27.579693	0.000253	2.533611	0.858411	0.000101
 255	2.5273e+01	10.0938	27.652361	0.000182	1.824200	0.618056	0.000073
 256	2.5372e+01	10.1323	27.773475	0.000304	3.040334	1.030093	0.000122
 257	2.5472e+01	10.1724	27.894589	0.000304	3.040334	1.030093	0.000122
 258	2.5572e+01	10.2222	27.975332	0.000203	2.026889	0.686729	0.000081
 259	2.5671e+01	10.2639	28.088372	0.000284	2.837645	0.961420	0.000114
 260	2.5770e+01	10.3056	28.213523	0.000314	3.141678	1.064429	0.000126
 261	2.5870e+01	10.3361	28.278117	0.000162	1.621511	0.549383	0.000065
 262	2.5970e+01	10.3746	28.407306	0.000324	3.243022	1.098766	0.000130
 263	2.6069e+01	10.4195	28.500160	0.000233	2.330922	0.789738	0.000093
 264	2.6169e+01	10.4516	28.580902	0.000203	2.026889	0.686729	0.000081
 265	2.6268e+01	10.4981	28.714128	0.000334	3.344367	1.133102	0.000134
 266	2.6367e+01	10.5350	28.811019	0.000243	2.432267	0.824074	0.000097
