»»»»»»»»»»»»»»»»»»»»»»»»»»»»»»»»»»»» Hysteresis ««««««««««««««««««««««««««««««««««««
»»»  Executed Version:	5.48.1
»»»  Vision Version:	5.48.4 (R)
»»»  Vision Compiled:	9/18/24
»»»  Driver Version:	5.47.0
»»»  Windows Version:	Windows 8 or 8.1
»»»  Processor Information:	x86 (AMD or Intel) - 32 Processors
»»»  Tester Name:	PMF21124-494 (100V)
»»»  Tester S/N:	PMF21124-494
»»»  Internal Amp Type:	100V RevK 270k
»»»  Internal Amp S/N:	iAB2-596/K     
»»»  Execution Count:	1
»»»»»»»»»»»»»»»»»»»»»»»»»»»»»»»»»»»»»»»»»»««««««««««««««««««««««««««««««««««««««««««

Stored:	6/9/2025 - 15:35:45
Configured:	06/09/25 02:47:45 PM
Executed:	06/09/25 03:35:09 PM

»»»»»»»»»»»»»»»»»»»»»»»»»»»»»»»»»»» Sample Info ««««««««««««««««««««««««««««««««««««
Sample Name:	
Lot Name:	
Wafer Name:	
Die Row/Column:	0/0
Capacitor Number:	0
Sample Area (cm2):	1.00e-04
Sample Thickness (microns):	3.00e-01

Amplifier:	Internal

»»»»»»»»»»»»»»»»»»»»»»»»»»»»»»»»»»» Tester Info «««««««««««««««««««««««««««««««««««
Tester Name:	PMF21124-494 (100V)
Tester Serial Number:	PMF21124-494
Return Signal Amp. Level:	0.19 [Index: 3]

»»»»»»»»»»»»»»»»»»»»»»»»»»»»»»»» Hysteresis Info ««««««««««««««««««««««««««««««««««
Task Name:	Hyst-927
Volts:	20.00
Field:	666.67 (kV/cm)
DCBias:	0.00
DCField:	0.00 (kV/cm)
Hysteresis Period (ms):	2.00e+02
Preset:	Enabled
Preset Delay (ms):	1.00e+03
Profile:	Standard Bipolar

»»»»»»»»»»»»»»»»»»»»»»»»»»»»»»»»»»»»»» Data «««««««««««««««««««««««««««««««««««««««
Points:	2009

Valid Data

Point	Time (ms)	Drive Voltage	Measured Polarization (uC/cm2)	Capacitance (uF)	Normalized Capacitance (uF/cm2)	Dielectric Constant	Instantaneous Current (mA)
   1	0.0000e+00	0.0016	-2.577711	0.000314	3.142182	1.064600	0.000126
   2	9.9500e-02	0.0241	-2.452560	0.000314	3.142182	1.064600	0.000126
   3	1.9900e-01	0.0658	-2.363743	0.000223	2.229936	0.755523	0.000089
   4	2.9850e-01	0.1139	-2.198220	0.000416	4.155789	1.408020	0.000166
   5	3.9800e-01	0.1460	-2.040772	0.000395	3.953068	1.339336	0.000158
   6	4.9750e-01	0.1893	-1.875250	0.000416	4.155789	1.408020	0.000166
   7	5.9700e-01	0.2214	-1.770284	0.000264	2.635379	0.892890	0.000105
   8	6.9650e-01	0.2679	-1.604761	0.000416	4.155789	1.408020	0.000166
   9	7.9600e-01	0.3016	-1.471536	0.000334	3.344904	1.133284	0.000134
  10	8.9550e-01	0.3433	-1.334273	0.000345	3.446264	1.167626	0.000138
  11	9.9500e-01	0.3946	-1.160677	0.000436	4.358511	1.476703	0.000174
  12	1.0945e+00	0.4396	-1.011303	0.000375	3.750346	1.270652	0.000150
  13	1.1940e+00	0.4636	-0.890188	0.000304	3.040821	1.030258	0.000122
  14	1.2935e+00	0.5021	-0.716592	0.000436	4.358511	1.476703	0.000174
  15	1.3930e+00	0.5454	-0.579329	0.000345	3.446264	1.167626	0.000138
  16	1.4925e+00	0.5839	-0.417844	0.000405	4.054429	1.373678	0.000162
  17	1.5920e+00	0.6273	-0.300767	0.000294	2.939461	0.995916	0.000118
  18	1.6915e+00	0.6674	-0.115058	0.000466	4.662593	1.579729	0.000187
  19	1.7910e+00	0.6994	0.058538	0.000436	4.358511	1.476703	0.000174
  20	1.8905e+00	0.7476	0.187727	0.000324	3.243543	1.098942	0.000130
  21	1.9900e+00	0.7813	0.300767	0.000284	2.838100	0.961574	0.000114
  22	2.0895e+00	0.8342	0.433992	0.000334	3.344904	1.133284	0.000134
  23	2.1890e+00	0.8727	0.635849	0.000507	5.068036	1.717097	0.000203
  24	2.2885e+00	0.9048	0.821557	0.000466	4.662593	1.579729	0.000187
  25	2.3880e+00	0.9513	0.934597	0.000284	2.838100	0.961574	0.000114
  26	2.4875e+00	0.9754	1.092045	0.000395	3.953068	1.339336	0.000158
  27	2.5870e+00	1.0267	1.229308	0.000345	3.446264	1.167626	0.000138
  28	2.6865e+00	1.0540	1.398868	0.000426	4.257150	1.442361	0.000170
  29	2.7860e+00	1.1037	1.544204	0.000365	3.648986	1.236310	0.000146
  30	2.8855e+00	1.1502	1.689541	0.000365	3.648986	1.236310	0.000146
  31	2.9850e+00	1.1887	1.875250	0.000466	4.662593	1.579729	0.000187
  32	3.0845e+00	1.2080	1.980215	0.000264	2.635379	0.892890	0.000105
  33	3.1840e+00	1.2673	2.169960	0.000476	4.763954	1.614071	0.000191
  34	3.2835e+00	1.3074	2.278963	0.000274	2.736739	0.927232	0.000110
  35	3.3830e+00	1.3411	2.468709	0.000476	4.763954	1.614071	0.000191
  36	3.4825e+00	1.3812	2.614045	0.000365	3.648986	1.236310	0.000146
  37	3.5820e+00	1.4262	2.755345	0.000355	3.547625	1.201968	0.000142
  38	3.6815e+00	1.4663	2.904719	0.000375	3.750346	1.270652	0.000150
  39	3.7810e+00	1.5000	3.086390	0.000456	4.561232	1.545387	0.000183
  40	3.8805e+00	1.5449	3.259987	0.000436	4.358511	1.476703	0.000174
  41	3.9800e+00	1.5834	3.421473	0.000405	4.054429	1.373678	0.000162
  42	4.0795e+00	1.6251	3.554698	0.000334	3.344904	1.133284	0.000134
  43	4.1790e+00	1.6604	3.704072	0.000375	3.750346	1.270652	0.000150
  44	4.2785e+00	1.6973	3.889780	0.000466	4.662593	1.579729	0.000187
  45	4.3780e+00	1.7406	4.055303	0.000416	4.155789	1.408020	0.000166
  46	4.4775e+00	1.7823	4.176417	0.000304	3.040821	1.030258	0.000122
  47	4.5770e+00	1.8176	4.358088	0.000456	4.561232	1.545387	0.000183
  48	4.6765e+00	1.8625	4.507462	0.000375	3.750346	1.270652	0.000150
  49	4.7760e+00	1.9026	4.681059	0.000436	4.358511	1.476703	0.000174
  50	4.8755e+00	1.9331	4.818322	0.000345	3.446264	1.167626	0.000138
  51	4.9750e+00	1.9780	4.947510	0.000324	3.243543	1.098942	0.000130
  52	5.0745e+00	2.0261	5.121107	0.000436	4.358511	1.476703	0.000174
  53	5.1740e+00	2.0582	5.327001	0.000517	5.169396	1.751439	0.000207
  54	5.2735e+00	2.0983	5.472337	0.000365	3.648986	1.236310	0.000146
  55	5.3730e+00	2.1513	5.637860	0.000416	4.155789	1.408020	0.000166
  56	5.4725e+00	2.1834	5.807420	0.000426	4.257150	1.442361	0.000170
  57	5.5720e+00	2.2219	5.928534	0.000304	3.040821	1.030258	0.000122
  58	5.6715e+00	2.2620	6.094056	0.000416	4.155789	1.408020	0.000166
  59	5.7710e+00	2.2941	6.235356	0.000355	3.547625	1.201968	0.000142
  60	5.8705e+00	2.3422	6.404916	0.000426	4.257150	1.442361	0.000170
  61	5.9700e+00	2.3807	6.578513	0.000436	4.358511	1.476703	0.000174
  62	6.0695e+00	2.4240	6.663293	0.000213	2.128575	0.721181	0.000085
  63	6.1690e+00	2.4545	6.857075	0.000487	4.865314	1.648413	0.000195
  64	6.2685e+00	2.4978	7.050858	0.000487	4.865314	1.648413	0.000195
  65	6.3680e+00	2.5331	7.180046	0.000324	3.243543	1.098942	0.000130
  66	6.4675e+00	2.5796	7.345568	0.000416	4.155789	1.408020	0.000166
  67	6.5670e+00	2.6261	7.466683	0.000304	3.040821	1.030258	0.000122
  68	6.6665e+00	2.6694	7.660465	0.000487	4.865314	1.648413	0.000195
  69	6.7660e+00	2.6951	7.817913	0.000395	3.953068	1.339336	0.000158
  70	6.8655e+00	2.7336	7.951139	0.000334	3.344904	1.133284	0.000134
  71	6.9650e+00	2.7769	8.108587	0.000395	3.953068	1.339336	0.000158
  72	7.0645e+00	2.8202	8.266035	0.000395	3.953068	1.339336	0.000158
  73	7.1640e+00	2.8539	8.455781	0.000476	4.763954	1.614071	0.000191
  74	7.2635e+00	2.9005	8.560746	0.000264	2.635379	0.892890	0.000105
  75	7.3630e+00	2.9325	8.722232	0.000405	4.054429	1.373678	0.000162
  76	7.4625e+00	2.9823	8.887754	0.000416	4.155789	1.408020	0.000166
  77	7.5620e+00	3.0192	9.029054	0.000355	3.547625	1.201968	0.000142
  78	7.6615e+00	3.0529	9.182465	0.000385	3.851707	1.304994	0.000154
  79	7.7610e+00	3.1010	9.335876	0.000385	3.851707	1.304994	0.000154
  80	7.8605e+00	3.1315	9.481213	0.000365	3.648986	1.236310	0.000146
  81	7.9600e+00	3.1652	9.674996	0.000487	4.865314	1.648413	0.000195
  82	8.0595e+00	3.2133	9.796110	0.000304	3.040821	1.030258	0.000122
  83	8.1590e+00	3.2646	9.965670	0.000426	4.257150	1.442361	0.000170
  84	8.2585e+00	3.2951	10.131192	0.000416	4.155789	1.408020	0.000166
  85	8.3580e+00	3.3400	10.240195	0.000274	2.736739	0.927232	0.000110
  86	8.4575e+00	3.3721	10.409755	0.000426	4.257150	1.442361	0.000170
  87	8.5570e+00	3.4186	10.547017	0.000345	3.446264	1.167626	0.000138
  88	8.6565e+00	3.4539	10.740800	0.000487	4.865314	1.648413	0.000195
  89	8.7560e+00	3.4988	10.874025	0.000334	3.344904	1.133284	0.000134
  90	8.8555e+00	3.5389	11.027436	0.000385	3.851707	1.304994	0.000154
  91	8.9550e+00	3.5758	11.188922	0.000405	4.054429	1.373678	0.000162
  92	9.0545e+00	3.6127	11.310036	0.000304	3.040821	1.030258	0.000122
  93	9.1540e+00	3.6528	11.503818	0.000487	4.865314	1.648413	0.000195
  94	9.2535e+00	3.6945	11.604747	0.000253	2.534018	0.858548	0.000101
  95	9.3530e+00	3.7347	11.766232	0.000405	4.054429	1.373678	0.000162
  96	9.4525e+00	3.7764	11.923680	0.000395	3.953068	1.339336	0.000158
  97	9.5520e+00	3.8133	12.085166	0.000405	4.054429	1.373678	0.000162
  98	9.6515e+00	3.8534	12.242614	0.000395	3.953068	1.339336	0.000158
  99	9.7510e+00	3.8855	12.408137	0.000416	4.155789	1.408020	0.000166
 100	9.8505e+00	3.9272	12.529251	0.000304	3.040821	1.030258	0.000122
 101	9.9500e+00	3.9769	12.674588	0.000365	3.648986	1.236310	0.000146
 102	1.0050e+01	4.0122	12.836073	0.000405	4.054429	1.373678	0.000162
 103	1.0149e+01	4.0523	12.977373	0.000355	3.547625	1.201968	0.000142
 104	1.0248e+01	4.0892	13.163081	0.000466	4.662593	1.579729	0.000187
 105	1.0348e+01	4.1373	13.280158	0.000294	2.939461	0.995916	0.000118
 106	1.0447e+01	4.1806	13.429532	0.000375	3.750346	1.270652	0.000150
 107	1.0547e+01	4.2159	13.611203	0.000456	4.561232	1.545387	0.000183
 108	1.0646e+01	4.2496	13.720206	0.000274	2.736739	0.927232	0.000110
 109	1.0746e+01	4.2977	13.881691	0.000405	4.054429	1.373678	0.000162
 110	1.0845e+01	4.3330	14.010880	0.000324	3.243543	1.098942	0.000130
 111	1.0945e+01	4.3747	14.168328	0.000395	3.953068	1.339336	0.000158
 112	1.1044e+01	4.4165	14.337888	0.000426	4.257150	1.442361	0.000170
 113	1.1144e+01	4.4469	14.467076	0.000324	3.243543	1.098942	0.000130
 114	1.1243e+01	4.4935	14.628561	0.000405	4.054429	1.373678	0.000162
 115	1.1343e+01	4.5352	14.777935	0.000375	3.750346	1.270652	0.000150
 116	1.1443e+01	4.5737	14.947495	0.000426	4.257150	1.442361	0.000170
 117	1.1542e+01	4.6074	15.048423	0.000253	2.534018	0.858548	0.000101
 118	1.1642e+01	4.6667	15.205872	0.000395	3.953068	1.339336	0.000158
 119	1.1741e+01	4.7004	15.375431	0.000426	4.257150	1.442361	0.000170
 120	1.1841e+01	4.7325	15.553065	0.000446	4.459871	1.511045	0.000179
 121	1.1940e+01	4.7726	15.682254	0.000324	3.243543	1.098942	0.000130
 122	1.2040e+01	4.8191	15.839702	0.000395	3.953068	1.339336	0.000158
 123	1.2139e+01	4.8576	15.993113	0.000385	3.851707	1.304994	0.000154
 124	1.2239e+01	4.8929	16.130376	0.000345	3.446264	1.167626	0.000138
 125	1.2338e+01	4.9186	16.239379	0.000274	2.736739	0.927232	0.000110
 126	1.2438e+01	4.9635	16.421050	0.000456	4.561232	1.545387	0.000183
 127	1.2537e+01	5.0116	16.517941	0.000243	2.432657	0.824207	0.000097
 128	1.2636e+01	5.0501	16.691538	0.000436	4.358511	1.476703	0.000174
 129	1.2736e+01	5.0806	16.808615	0.000294	2.939461	0.995916	0.000118
 130	1.2835e+01	5.1319	16.990286	0.000456	4.561232	1.545387	0.000183
 131	1.2935e+01	5.1688	17.095251	0.000264	2.635379	0.892890	0.000105
 132	1.3034e+01	5.2057	17.248662	0.000385	3.851707	1.304994	0.000154
 133	1.3134e+01	5.2507	17.389962	0.000355	3.547625	1.201968	0.000142
 134	1.3233e+01	5.2892	17.583745	0.000487	4.865314	1.648413	0.000195
 135	1.3333e+01	5.3244	17.708896	0.000314	3.142182	1.064600	0.000126
 136	1.3432e+01	5.3694	17.834047	0.000314	3.142182	1.064600	0.000126
 137	1.3532e+01	5.4095	17.979384	0.000365	3.648986	1.236310	0.000146
 138	1.3632e+01	5.4528	18.096461	0.000294	2.939461	0.995916	0.000118
 139	1.3731e+01	5.4833	18.302355	0.000517	5.169396	1.751439	0.000207
 140	1.3831e+01	5.5330	18.415395	0.000284	2.838100	0.961574	0.000114
 141	1.3930e+01	5.5683	18.568806	0.000385	3.851707	1.304994	0.000154
 142	1.4030e+01	5.6052	18.665697	0.000243	2.432657	0.824207	0.000097
 143	1.4129e+01	5.6437	18.863517	0.000497	4.966675	1.682755	0.000199
 144	1.4229e+01	5.6838	18.984631	0.000304	3.040821	1.030258	0.000122
 145	1.4328e+01	5.7287	19.146116	0.000405	4.054429	1.373678	0.000162
 146	1.4428e+01	5.7768	19.287416	0.000355	3.547625	1.201968	0.000142
 147	1.4527e+01	5.8057	19.456976	0.000426	4.257150	1.442361	0.000170
 148	1.4627e+01	5.8458	19.549830	0.000233	2.331296	0.789865	0.000093
 149	1.4726e+01	5.8859	19.727464	0.000446	4.459871	1.511045	0.000179
 150	1.4825e+01	5.9292	19.872801	0.000365	3.648986	1.236310	0.000146
 151	1.4925e+01	5.9710	20.018138	0.000365	3.648986	1.236310	0.000146
 152	1.5024e+01	6.0095	20.187697	0.000426	4.257150	1.442361	0.000170
 153	1.5124e+01	6.0399	20.304774	0.000294	2.939461	0.995916	0.000118
 154	1.5223e+01	6.0849	20.454148	0.000375	3.750346	1.270652	0.000150
 155	1.5323e+01	6.1346	20.635819	0.000456	4.561232	1.545387	0.000183
 156	1.5422e+01	6.1570	20.760971	0.000314	3.142182	1.064600	0.000126
 157	1.5522e+01	6.2004	20.902270	0.000355	3.547625	1.201968	0.000142
 158	1.5621e+01	6.2485	21.023384	0.000304	3.040821	1.030258	0.000122
 159	1.5721e+01	6.2934	21.196981	0.000436	4.358511	1.476703	0.000174
 160	1.5820e+01	6.3319	21.326170	0.000324	3.243543	1.098942	0.000130
 161	1.5920e+01	6.3656	21.479581	0.000385	3.851707	1.304994	0.000154
 162	1.6020e+01	6.4073	21.657215	0.000446	4.459871	1.511045	0.000179
 163	1.6119e+01	6.4490	21.758143	0.000253	2.534018	0.858548	0.000101
 164	1.6218e+01	6.4811	21.883294	0.000314	3.142182	1.064600	0.000126
 165	1.6318e+01	6.5164	22.036705	0.000385	3.851707	1.304994	0.000154
 166	1.6418e+01	6.5709	22.190117	0.000385	3.851707	1.304994	0.000154
 167	1.6517e+01	6.6046	22.307194	0.000294	2.939461	0.995916	0.000118
 168	1.6616e+01	6.6399	22.460605	0.000385	3.851707	1.304994	0.000154
 169	1.6716e+01	6.6832	22.638239	0.000446	4.459871	1.511045	0.000179
 170	1.6816e+01	6.7233	22.775501	0.000345	3.446264	1.167626	0.000138
 171	1.6915e+01	6.7570	22.957172	0.000456	4.561232	1.545387	0.000183
 172	1.7015e+01	6.7923	23.021767	0.000162	1.621771	0.549471	0.000065
 173	1.7114e+01	6.8292	23.243809	0.000557	5.574839	1.888807	0.000223
 174	1.7213e+01	6.8822	23.364923	0.000304	3.040821	1.030258	0.000122
 175	1.7313e+01	6.9239	23.518334	0.000385	3.851707	1.304994	0.000154
 176	1.7413e+01	6.9592	23.639448	0.000304	3.040821	1.030258	0.000122
 177	1.7512e+01	7.0009	23.809008	0.000426	4.257150	1.442361	0.000170
 178	1.7611e+01	7.0378	23.922048	0.000284	2.838100	0.961574	0.000114
 179	1.7711e+01	7.0859	24.031050	0.000274	2.736739	0.927232	0.000110
 180	1.7811e+01	7.1148	24.224833	0.000487	4.865314	1.648413	0.000195
 181	1.7910e+01	7.1597	24.358058	0.000334	3.344904	1.133284	0.000134
 182	1.8009e+01	7.1918	24.523581	0.000416	4.155789	1.408020	0.000166
 183	1.8109e+01	7.2415	24.664881	0.000355	3.547625	1.201968	0.000142
 184	1.8209e+01	7.2832	24.814255	0.000375	3.750346	1.270652	0.000150
 185	1.8308e+01	7.3233	24.907109	0.000233	2.331296	0.789865	0.000093
 186	1.8407e+01	7.3634	25.076669	0.000426	4.257150	1.442361	0.000170
 187	1.8507e+01	7.4019	25.213931	0.000345	3.446264	1.167626	0.000138
 188	1.8607e+01	7.4436	25.363305	0.000375	3.750346	1.270652	0.000150
 189	1.8706e+01	7.4886	25.492494	0.000324	3.243543	1.098942	0.000130
 190	1.8805e+01	7.5174	25.662053	0.000426	4.257150	1.442361	0.000170
 191	1.8905e+01	7.5591	25.791242	0.000324	3.243543	1.098942	0.000130
 192	1.9005e+01	7.5960	25.908319	0.000294	2.939461	0.995916	0.000118
 193	1.9104e+01	7.6345	26.098064	0.000476	4.763954	1.614071	0.000191
 194	1.9203e+01	7.6859	26.194955	0.000243	2.432657	0.824207	0.000097
 195	1.9303e+01	7.7180	26.376626	0.000456	4.561232	1.545387	0.000183
 196	1.9402e+01	7.7661	26.461406	0.000213	2.128575	0.721181	0.000085
 197	1.9502e+01	7.7982	26.630966	0.000426	4.257150	1.442361	0.000170
 198	1.9602e+01	7.8431	26.772266	0.000355	3.547625	1.201968	0.000142
 199	1.9701e+01	7.8784	26.929714	0.000395	3.953068	1.339336	0.000158
 200	1.9800e+01	7.9137	27.075051	0.000365	3.648986	1.236310	0.000146
 201	1.9900e+01	7.9602	27.192128	0.000294	2.939461	0.995916	0.000118
 202	2.0000e+01	8.0019	27.345539	0.000385	3.851707	1.304994	0.000154
 203	2.0099e+01	8.0388	27.470690	0.000314	3.142182	1.064600	0.000126
 204	2.0198e+01	8.0805	27.620064	0.000375	3.750346	1.270652	0.000150
 205	2.0298e+01	8.1158	27.733104	0.000284	2.838100	0.961574	0.000114
 206	2.0398e+01	8.1607	27.902664	0.000426	4.257150	1.442361	0.000170
 207	2.0497e+01	8.1944	28.023778	0.000304	3.040821	1.030258	0.000122
 208	2.0596e+01	8.2458	28.157003	0.000334	3.344904	1.133284	0.000134
 209	2.0696e+01	8.2698	28.334637	0.000446	4.459871	1.511045	0.000179
 210	2.0796e+01	8.3163	28.488048	0.000385	3.851707	1.304994	0.000154
 211	2.0895e+01	8.3500	28.613200	0.000314	3.142182	1.064600	0.000126
 212	2.0994e+01	8.3998	28.778722	0.000416	4.155789	1.408020	0.000166
 213	2.1094e+01	8.4254	28.920022	0.000355	3.547625	1.201968	0.000142
 214	2.1194e+01	8.4736	29.045173	0.000314	3.142182	1.064600	0.000126
 215	2.1293e+01	8.5153	29.178399	0.000334	3.344904	1.133284	0.000134
 216	2.1392e+01	8.5522	29.327773	0.000375	3.750346	1.270652	0.000150
 217	2.1492e+01	8.6003	29.489258	0.000405	4.054429	1.373678	0.000162
 218	2.1591e+01	8.6292	29.606335	0.000294	2.939461	0.995916	0.000118
 219	2.1691e+01	8.6805	29.751672	0.000365	3.648986	1.236310	0.000146
 220	2.1791e+01	8.7142	29.909120	0.000395	3.953068	1.339336	0.000158
 221	2.1890e+01	8.7559	30.094828	0.000466	4.662593	1.579729	0.000187
 222	2.1989e+01	8.8008	30.219980	0.000314	3.142182	1.064600	0.000126
 223	2.2089e+01	8.8425	30.316871	0.000243	2.432657	0.824207	0.000097
 224	2.2189e+01	8.8746	30.458171	0.000355	3.547625	1.201968	0.000142
 225	2.2288e+01	8.9163	30.619656	0.000405	4.054429	1.373678	0.000162
 226	2.2387e+01	8.9484	30.740770	0.000304	3.040821	1.030258	0.000122
 227	2.2487e+01	8.9965	30.869958	0.000324	3.243543	1.098942	0.000130
 228	2.2587e+01	9.0382	31.015295	0.000365	3.648986	1.236310	0.000146
 229	2.2686e+01	9.0719	31.152558	0.000345	3.446264	1.167626	0.000138
 230	2.2785e+01	9.1136	31.293858	0.000355	3.547625	1.201968	0.000142
 231	2.2885e+01	9.1505	31.419009	0.000314	3.142182	1.064600	0.000126
 232	2.2985e+01	9.2067	31.568383	0.000375	3.750346	1.270652	0.000150
 233	2.3084e+01	9.2324	31.709683	0.000355	3.547625	1.201968	0.000142
 234	2.3183e+01	9.2741	31.850982	0.000355	3.547625	1.201968	0.000142
 235	2.3283e+01	9.3142	31.988245	0.000345	3.446264	1.167626	0.000138
 236	2.3383e+01	9.3527	32.121470	0.000334	3.344904	1.133284	0.000134
 237	2.3482e+01	9.3928	32.246622	0.000314	3.142182	1.064600	0.000126
 238	2.3581e+01	9.4393	32.387921	0.000355	3.547625	1.201968	0.000142
 239	2.3681e+01	9.4714	32.472701	0.000213	2.128575	0.721181	0.000085
 240	2.3780e+01	9.5147	32.634187	0.000405	4.054429	1.373678	0.000162
 241	2.3880e+01	9.5548	32.799709	0.000416	4.155789	1.408020	0.000166
 242	2.3980e+01	9.5965	32.961195	0.000405	4.054429	1.373678	0.000162
 243	2.4079e+01	9.6302	33.013677	0.000132	1.317689	0.446445	0.000053
 244	2.4178e+01	9.6703	33.191311	0.000446	4.459871	1.511045	0.000179
 245	2.4278e+01	9.7040	33.320500	0.000324	3.243543	1.098942	0.000130
 246	2.4378e+01	9.7473	33.445651	0.000314	3.142182	1.064600	0.000126
 247	2.4477e+01	9.7970	33.554654	0.000274	2.736739	0.927232	0.000110
 248	2.4576e+01	9.8339	33.695953	0.000355	3.547625	1.201968	0.000142
 249	2.4676e+01	9.8708	33.796882	0.000253	2.534018	0.858548	0.000101
 250	2.4776e+01	9.9045	33.986627	0.000476	4.763954	1.614071	0.000191
 251	2.4875e+01	9.9495	34.123890	0.000345	3.446264	1.167626	0.000138
 252	2.4974e+01	9.9928	34.204633	0.000203	2.027214	0.686839	0.000081
 253	2.5074e+01	10.0313	34.366118	0.000405	4.054429	1.373678	0.000162
 254	2.5174e+01	10.0746	34.515492	0.000375	3.750346	1.270652	0.000150
 255	2.5273e+01	10.1099	34.632569	0.000294	2.939461	0.995916	0.000118
 256	2.5372e+01	10.1468	34.737534	0.000264	2.635379	0.892890	0.000105
 257	2.5472e+01	10.1885	34.870760	0.000334	3.344904	1.133284	0.000134
 258	2.5572e+01	10.2334	35.036283	0.000416	4.155789	1.408020	0.000166
 259	2.5671e+01	10.2639	35.161434	0.000314	3.142182	1.064600	0.000126
 260	2.5770e+01	10.3152	35.274474	0.000284	2.838100	0.961574	0.000114
 261	2.5870e+01	10.3473	35.403662	0.000324	3.243543	1.098942	0.000130
 262	2.5970e+01	10.3874	35.528813	0.000314	3.142182	1.064600	0.000126
 263	2.6069e+01	10.4307	35.674150	0.000365	3.648986	1.236310	0.000146
 264	2.6169e+01	10.4740	35.783153	0.000274	2.736739	0.927232	0.000110
 265	2.6268e+01	10.5077	35.924452	0.000355	3.547625	1.201968	0.000142
 266	2.6367e+01	10.5430	36.037492	0.000284	2.838100	0.961574	0.000114
