»»»»»»»»»»»»»»»»»»»»»»»»»»»»»»»»»»»» Hysteresis ««««««««««««««««««««««««««««««««««««
»»»  Executed Version:	5.48.1
»»»  Vision Version:	5.48.4 (R)
»»»  Vision Compiled:	9/18/24
»»»  Driver Version:	5.47.0
»»»  Windows Version:	Windows 8 or 8.1
»»»  Processor Information:	x86 (AMD or Intel) - 32 Processors
»»»  Tester Name:	PMF21124-494 (100V)
»»»  Tester S/N:	PMF21124-494
»»»  Internal Amp Type:	100V RevK 270k
»»»  Internal Amp S/N:	iAB2-596/K     
»»»  Execution Count:	1
»»»»»»»»»»»»»»»»»»»»»»»»»»»»»»»»»»»»»»»»»»««««««««««««««««««««««««««««««««««««««««««

Stored:	6/4/2025 - 14:2:24
Configured:	06/04/25 01:46:06 PM
Executed:	06/04/25 02:01:48 PM

»»»»»»»»»»»»»»»»»»»»»»»»»»»»»»»»»»» Sample Info ««««««««««««««««««««««««««««««««««««
Sample Name:	
Lot Name:	
Wafer Name:	
Die Row/Column:	0/0
Capacitor Number:	0
Sample Area (cm2):	1.00e-04
Sample Thickness (microns):	3.00e-01

Amplifier:	Internal

»»»»»»»»»»»»»»»»»»»»»»»»»»»»»»»»»»» Tester Info «««««««««««««««««««««««««««««««««««
Tester Name:	PMF21124-494 (100V)
Tester Serial Number:	PMF21124-494
Return Signal Amp. Level:	0.19 [Index: 3]

»»»»»»»»»»»»»»»»»»»»»»»»»»»»»»»» Hysteresis Info ««««««««««««««««««««««««««««««««««
Task Name:	Hyst-37
Volts:	20.00
Field:	666.67 (kV/cm)
DCBias:	0.00
DCField:	0.00 (kV/cm)
Hysteresis Period (ms):	2.00e+02
Preset:	Enabled
Preset Delay (ms):	1.00e+03
Profile:	Standard Bipolar

»»»»»»»»»»»»»»»»»»»»»»»»»»»»»»»»»»»»»» Data «««««««««««««««««««««««««««««««««««««««
Points:	2009

Valid Data

Point	Time (ms)	Drive Voltage	Measured Polarization (uC/cm2)	Capacitance (uF)	Normalized Capacitance (uF/cm2)	Dielectric Constant	Instantaneous Current (mA)
   1	0.0000e+00	-0.0193	-18.098480	0.000355	3.547127	1.201799	0.000142
   2	9.9500e-02	0.0257	-17.957180	0.000355	3.547127	1.201799	0.000142
   3	1.9900e-01	0.0626	-17.848177	0.000274	2.736355	0.927102	0.000110
   4	2.9850e-01	0.0930	-17.706877	0.000355	3.547127	1.201799	0.000142
   5	3.9800e-01	0.1364	-17.573652	0.000334	3.344434	1.133125	0.000134
   6	4.9750e-01	0.1733	-17.404092	0.000426	4.256552	1.442159	0.000170
   7	5.9700e-01	0.2214	-17.287015	0.000294	2.939048	0.995776	0.000118
   8	6.9650e-01	0.2567	-17.133604	0.000385	3.851166	1.304810	0.000154
   9	7.9600e-01	0.2952	-16.976156	0.000395	3.952513	1.339148	0.000158
  10	8.9550e-01	0.3321	-16.830819	0.000365	3.648473	1.236136	0.000146
  11	9.9500e-01	0.3834	-16.661259	0.000426	4.256552	1.442159	0.000170
  12	1.0945e+00	0.4171	-16.544182	0.000294	2.939048	0.995776	0.000118
  13	1.1940e+00	0.4540	-16.423068	0.000304	3.040395	1.030114	0.000122
  14	1.2935e+00	0.4893	-16.241397	0.000456	4.560592	1.545170	0.000183
  15	1.3930e+00	0.5326	-16.079912	0.000405	4.053859	1.373485	0.000162
  16	1.4925e+00	0.5775	-15.934575	0.000365	3.648473	1.236136	0.000146
  17	1.5920e+00	0.6048	-15.801349	0.000334	3.344434	1.133125	0.000134
  18	1.6915e+00	0.6609	-15.607567	0.000486	4.864631	1.648182	0.000195
  19	1.7910e+00	0.6962	-15.486453	0.000304	3.040395	1.030114	0.000122
  20	1.8905e+00	0.7283	-15.308819	0.000446	4.459245	1.510833	0.000179
  21	1.9900e+00	0.7716	-15.147333	0.000405	4.053859	1.373485	0.000162
  22	2.0895e+00	0.8214	-15.038331	0.000274	2.736355	0.927102	0.000110
  23	2.1890e+00	0.8470	-14.852622	0.000466	4.661938	1.579507	0.000187
  24	2.2885e+00	0.8871	-14.711323	0.000355	3.547127	1.201799	0.000142
  25	2.3880e+00	0.9321	-14.549837	0.000405	4.053859	1.373485	0.000162
  26	2.4875e+00	0.9770	-14.384315	0.000416	4.155206	1.407822	0.000166
  27	2.5870e+00	1.0107	-14.238978	0.000365	3.648473	1.236136	0.000146
  28	2.6865e+00	1.0508	-14.101715	0.000345	3.445780	1.167462	0.000138
  29	2.7860e+00	1.0957	-13.928118	0.000436	4.357899	1.476496	0.000174
  30	2.8855e+00	1.1214	-13.774707	0.000385	3.851166	1.304810	0.000154
  31	2.9850e+00	1.1775	-13.617259	0.000395	3.952513	1.339148	0.000158
  32	3.0845e+00	1.2096	-13.488071	0.000324	3.243087	1.098788	0.000130
  33	3.1840e+00	1.2449	-13.290251	0.000497	4.965978	1.682519	0.000199
  34	3.2835e+00	1.2962	-13.136840	0.000385	3.851166	1.304810	0.000154
  35	3.3830e+00	1.3331	-12.979391	0.000395	3.952513	1.339148	0.000158
  36	3.4825e+00	1.3796	-12.830017	0.000375	3.749820	1.270473	0.000150
  37	3.5820e+00	1.4133	-12.680643	0.000375	3.749820	1.270473	0.000150
  38	3.6815e+00	1.4518	-12.511084	0.000426	4.256552	1.442159	0.000170
  39	3.7810e+00	1.4903	-12.369784	0.000355	3.547127	1.201799	0.000142
  40	3.8805e+00	1.5369	-12.248670	0.000304	3.040395	1.030114	0.000122
  41	3.9800e+00	1.5641	-12.042776	0.000517	5.168671	1.751193	0.000207
  42	4.0795e+00	1.6106	-11.865142	0.000446	4.459245	1.510833	0.000179
  43	4.1790e+00	1.6427	-11.735954	0.000324	3.243087	1.098788	0.000130
  44	4.2785e+00	1.6989	-11.562357	0.000436	4.357899	1.476496	0.000174
  45	4.3780e+00	1.7262	-11.404908	0.000395	3.952513	1.339148	0.000158
  46	4.4775e+00	1.7614	-11.243423	0.000405	4.053859	1.373485	0.000162
  47	4.5770e+00	1.8096	-11.090012	0.000385	3.851166	1.304810	0.000154
  48	4.6765e+00	1.8497	-10.924489	0.000416	4.155206	1.407822	0.000166
  49	4.7760e+00	1.8834	-10.738781	0.000466	4.661938	1.579507	0.000187
  50	4.8755e+00	1.9331	-10.605556	0.000334	3.344434	1.133125	0.000134
  51	4.9750e+00	1.9700	-10.468293	0.000345	3.445780	1.167462	0.000138
  52	5.0745e+00	2.0117	-10.302770	0.000416	4.155206	1.407822	0.000166
  53	5.1740e+00	2.0486	-10.129174	0.000436	4.357899	1.476496	0.000174
  54	5.2735e+00	2.0839	-9.931354	0.000497	4.965978	1.682519	0.000199
  55	5.3730e+00	2.1256	-9.842537	0.000223	2.229623	0.755417	0.000089
  56	5.4725e+00	2.1721	-9.648754	0.000486	4.864631	1.648182	0.000195
  57	5.5720e+00	2.2090	-9.459009	0.000476	4.763285	1.613845	0.000191
  58	5.6715e+00	2.2539	-9.313672	0.000365	3.648473	1.236136	0.000146
  59	5.7710e+00	2.2812	-9.188521	0.000314	3.141741	1.064451	0.000126
  60	5.8705e+00	2.3310	-9.043184	0.000365	3.648473	1.236136	0.000146
  61	5.9700e+00	2.3630	-8.853439	0.000476	4.763285	1.613845	0.000191
  62	6.0695e+00	2.4160	-8.659656	0.000486	4.864631	1.648182	0.000195
  63	6.1690e+00	2.4497	-8.530468	0.000324	3.243087	1.098788	0.000130
  64	6.2685e+00	2.4898	-8.413391	0.000294	2.939048	0.995776	0.000118
  65	6.3680e+00	2.5202	-8.235757	0.000446	4.459245	1.510833	0.000179
  66	6.4675e+00	2.5700	-8.074271	0.000405	4.053859	1.373485	0.000162
  67	6.5670e+00	2.6053	-7.884526	0.000476	4.763285	1.613845	0.000191
  68	6.6665e+00	2.6486	-7.751301	0.000334	3.344434	1.133125	0.000134
  69	6.7660e+00	2.6903	-7.549444	0.000507	5.067324	1.716856	0.000203
  70	6.8655e+00	2.7256	-7.404107	0.000365	3.648473	1.236136	0.000146
  71	6.9650e+00	2.7577	-7.266844	0.000345	3.445780	1.167462	0.000138
  72	7.0645e+00	2.8074	-7.137656	0.000324	3.243087	1.098788	0.000130
  73	7.1640e+00	2.8507	-6.923688	0.000537	5.371364	1.819867	0.000215
  74	7.2635e+00	2.8924	-6.770277	0.000385	3.851166	1.304810	0.000154
  75	7.3630e+00	2.9309	-6.616865	0.000385	3.851166	1.304810	0.000154
  76	7.4625e+00	2.9662	-6.479603	0.000345	3.445780	1.167462	0.000138
  77	7.5620e+00	3.0095	-6.306006	0.000436	4.357899	1.476496	0.000174
  78	7.6615e+00	3.0496	-6.156632	0.000375	3.749820	1.270473	0.000150
  79	7.7610e+00	3.0898	-6.003221	0.000385	3.851166	1.304810	0.000154
  80	7.8605e+00	3.1331	-5.849810	0.000385	3.851166	1.304810	0.000154
  81	7.9600e+00	3.1603	-5.660064	0.000476	4.763285	1.613845	0.000191
  82	8.0595e+00	3.2069	-5.522802	0.000345	3.445780	1.167462	0.000138
  83	8.1590e+00	3.2502	-5.320945	0.000507	5.067324	1.716856	0.000203
  84	8.2585e+00	3.2871	-5.171571	0.000375	3.749820	1.270473	0.000150
  85	8.3580e+00	3.3304	-5.062568	0.000274	2.736355	0.927102	0.000110
  86	8.4575e+00	3.3673	-4.860711	0.000507	5.067324	1.716856	0.000203
  87	8.5570e+00	3.4042	-4.723449	0.000345	3.445780	1.167462	0.000138
  88	8.6565e+00	3.4459	-4.545815	0.000446	4.459245	1.510833	0.000179
  89	8.7560e+00	3.4844	-4.364144	0.000456	4.560592	1.545170	0.000183
  90	8.8555e+00	3.5197	-4.243030	0.000304	3.040395	1.030114	0.000122
  91	8.9550e+00	3.5662	-4.077507	0.000416	4.155206	1.407822	0.000166
  92	9.0545e+00	3.5983	-3.944282	0.000334	3.344434	1.133125	0.000134
  93	9.1540e+00	3.6384	-3.766648	0.000446	4.459245	1.510833	0.000179
  94	9.2535e+00	3.6833	-3.609199	0.000395	3.952513	1.339148	0.000158
  95	9.3530e+00	3.7170	-3.415417	0.000486	4.864631	1.648182	0.000195
  96	9.4525e+00	3.7667	-3.294303	0.000304	3.040395	1.030114	0.000122
  97	9.5520e+00	3.8084	-3.112632	0.000456	4.560592	1.545170	0.000183
  98	9.6515e+00	3.8453	-2.967295	0.000365	3.648473	1.236136	0.000146
  99	9.7510e+00	3.8806	-2.821958	0.000365	3.648473	1.236136	0.000146
 100	9.8505e+00	3.9272	-2.648361	0.000436	4.357899	1.476496	0.000174
 101	9.9500e+00	3.9625	-2.490913	0.000395	3.952513	1.339148	0.000158
 102	1.0050e+01	4.0074	-2.357687	0.000334	3.344434	1.133125	0.000134
 103	1.0149e+01	4.0411	-2.244647	0.000284	2.837702	0.961439	0.000114
 104	1.0248e+01	4.0780	-2.050865	0.000486	4.864631	1.648182	0.000195
 105	1.0348e+01	4.1261	-1.865157	0.000466	4.661938	1.579507	0.000187
 106	1.0447e+01	4.1630	-1.695597	0.000426	4.256552	1.442159	0.000170
 107	1.0547e+01	4.2031	-1.513926	0.000456	4.560592	1.545170	0.000183
 108	1.0646e+01	4.2336	-1.425109	0.000223	2.229623	0.755417	0.000089
 109	1.0746e+01	4.2833	-1.211141	0.000537	5.371364	1.819867	0.000215
 110	1.0845e+01	4.3218	-1.069841	0.000355	3.547127	1.201799	0.000142
 111	1.0945e+01	4.3651	-0.908356	0.000405	4.053859	1.373485	0.000162
 112	1.1044e+01	4.3940	-0.771093	0.000345	3.445780	1.167462	0.000138
 113	1.1144e+01	4.4357	-0.609607	0.000405	4.053859	1.373485	0.000162
 114	1.1243e+01	4.4854	-0.468308	0.000355	3.547127	1.201799	0.000142
 115	1.1343e+01	4.5239	-0.274525	0.000486	4.864631	1.648182	0.000195
 116	1.1443e+01	4.5608	-0.145337	0.000324	3.243087	1.098788	0.000130
 117	1.1542e+01	4.5945	0.008074	0.000385	3.851166	1.304810	0.000154
 118	1.1642e+01	4.6314	0.193783	0.000466	4.661938	1.579507	0.000187
 119	1.1741e+01	4.6860	0.343157	0.000375	3.749820	1.270473	0.000150
 120	1.1841e+01	4.7245	0.468308	0.000314	3.141741	1.064451	0.000126
 121	1.1940e+01	4.7566	0.649979	0.000456	4.560592	1.545170	0.000183
 122	1.2040e+01	4.7967	0.803390	0.000385	3.851166	1.304810	0.000154
 123	1.2139e+01	4.8448	0.952764	0.000375	3.749820	1.270473	0.000150
 124	1.2239e+01	4.8849	1.114249	0.000405	4.053859	1.373485	0.000162
 125	1.2338e+01	4.9186	1.259586	0.000365	3.648473	1.236136	0.000146
 126	1.2438e+01	4.9603	1.441257	0.000456	4.560592	1.545170	0.000183
 127	1.2537e+01	5.0020	1.614854	0.000436	4.357899	1.476496	0.000174
 128	1.2636e+01	5.0373	1.707708	0.000233	2.330969	0.789754	0.000093
 129	1.2736e+01	5.0806	1.881305	0.000436	4.357899	1.476496	0.000174
 130	1.2835e+01	5.1159	2.083162	0.000507	5.067324	1.716856	0.000203
 131	1.2935e+01	5.1624	2.204276	0.000304	3.040395	1.030114	0.000122
 132	1.3034e+01	5.2009	2.394021	0.000476	4.763285	1.613845	0.000191
 133	1.3134e+01	5.2330	2.547433	0.000385	3.851166	1.304810	0.000154
 134	1.3233e+01	5.2747	2.725067	0.000446	4.459245	1.510833	0.000179
 135	1.3333e+01	5.3148	2.834069	0.000274	2.736355	0.927102	0.000110
 136	1.3432e+01	5.3597	3.031889	0.000497	4.965978	1.682519	0.000199
 137	1.3532e+01	5.3966	3.189337	0.000395	3.952513	1.339148	0.000158
 138	1.3632e+01	5.4351	3.330637	0.000355	3.547127	1.201799	0.000142
 139	1.3731e+01	5.4817	3.504234	0.000436	4.357899	1.476496	0.000174
 140	1.3831e+01	5.5105	3.669756	0.000416	4.155206	1.407822	0.000166
 141	1.3930e+01	5.5603	3.819130	0.000375	3.749820	1.270473	0.000150
 142	1.4030e+01	5.5924	3.992727	0.000436	4.357899	1.476496	0.000174
 143	1.4129e+01	5.6325	4.109804	0.000294	2.939048	0.995776	0.000118
 144	1.4229e+01	5.6758	4.323772	0.000537	5.371364	1.819867	0.000215
 145	1.4328e+01	5.7191	4.469109	0.000365	3.648473	1.236136	0.000146
 146	1.4428e+01	5.7512	4.606372	0.000345	3.445780	1.167462	0.000138
 147	1.4527e+01	5.7849	4.788043	0.000456	4.560592	1.545170	0.000183
 148	1.4627e+01	5.8330	4.921268	0.000334	3.344434	1.133125	0.000134
 149	1.4726e+01	5.8699	5.086791	0.000416	4.155206	1.407822	0.000166
 150	1.4825e+01	5.9148	5.232128	0.000365	3.648473	1.236136	0.000146
 151	1.4925e+01	5.9613	5.429948	0.000497	4.965978	1.682519	0.000199
 152	1.5024e+01	5.9870	5.571247	0.000355	3.547127	1.201799	0.000142
 153	1.5124e+01	6.0447	5.748881	0.000446	4.459245	1.510833	0.000179
 154	1.5223e+01	6.0736	5.894218	0.000365	3.648473	1.236136	0.000146
 155	1.5323e+01	6.1169	6.043592	0.000375	3.749820	1.270473	0.000150
 156	1.5422e+01	6.1490	6.241412	0.000497	4.965978	1.682519	0.000199
 157	1.5522e+01	6.1955	6.362526	0.000304	3.040395	1.030114	0.000122
 158	1.5621e+01	6.2421	6.560346	0.000497	4.965978	1.682519	0.000199
 159	1.5721e+01	6.2709	6.713757	0.000385	3.851166	1.304810	0.000154
 160	1.5820e+01	6.3159	6.871205	0.000395	3.952513	1.339148	0.000158
 161	1.5920e+01	6.3560	7.008468	0.000345	3.445780	1.167462	0.000138
 162	1.6020e+01	6.3993	7.186102	0.000446	4.459245	1.510833	0.000179
 163	1.6119e+01	6.4426	7.351624	0.000416	4.155206	1.407822	0.000166
 164	1.6218e+01	6.4715	7.492924	0.000355	3.547127	1.201799	0.000142
 165	1.6318e+01	6.5132	7.638261	0.000365	3.648473	1.236136	0.000146
 166	1.6418e+01	6.5501	7.823969	0.000466	4.661938	1.579507	0.000187
 167	1.6517e+01	6.5870	7.961232	0.000345	3.445780	1.167462	0.000138
 168	1.6616e+01	6.6303	8.159051	0.000497	4.965978	1.682519	0.000199
 169	1.6716e+01	6.6640	8.288240	0.000324	3.243087	1.098788	0.000130
 170	1.6816e+01	6.7153	8.461837	0.000436	4.357899	1.476496	0.000174
 171	1.6915e+01	6.7474	8.619285	0.000395	3.952513	1.339148	0.000158
 172	1.7015e+01	6.7843	8.768659	0.000375	3.749820	1.270473	0.000150
 173	1.7114e+01	6.8324	8.938219	0.000426	4.256552	1.442159	0.000170
 174	1.7213e+01	6.8693	9.095667	0.000395	3.952513	1.339148	0.000158
 175	1.7313e+01	6.9094	9.241004	0.000365	3.648473	1.236136	0.000146
 176	1.7413e+01	6.9543	9.426712	0.000466	4.661938	1.579507	0.000187
 177	1.7512e+01	6.9896	9.568012	0.000355	3.547127	1.201799	0.000142
 178	1.7611e+01	7.0314	9.709311	0.000355	3.547127	1.201799	0.000142
 179	1.7711e+01	7.0682	9.919243	0.000527	5.270017	1.785530	0.000211
 180	1.7811e+01	7.1051	10.012097	0.000233	2.330969	0.789754	0.000093
 181	1.7910e+01	7.1420	10.189731	0.000446	4.459245	1.510833	0.000179
 182	1.8009e+01	7.1902	10.375439	0.000466	4.661938	1.579507	0.000187
 183	1.8109e+01	7.2351	10.524813	0.000375	3.749820	1.270473	0.000150
 184	1.8209e+01	7.2688	10.690335	0.000416	4.155206	1.407822	0.000166
 185	1.8308e+01	7.3073	10.859895	0.000426	4.256552	1.442159	0.000170
 186	1.8407e+01	7.3522	10.993121	0.000334	3.344434	1.133125	0.000134
 187	1.8507e+01	7.3875	11.170755	0.000446	4.459245	1.510833	0.000179
 188	1.8607e+01	7.4372	11.344351	0.000436	4.357899	1.476496	0.000174
 189	1.8706e+01	7.4709	11.493725	0.000375	3.749820	1.270473	0.000150
 190	1.8805e+01	7.5078	11.651174	0.000395	3.952513	1.339148	0.000158
 191	1.8905e+01	7.5431	11.788436	0.000345	3.445780	1.167462	0.000138
 192	1.9005e+01	7.5816	11.966070	0.000446	4.459245	1.510833	0.000179
 193	1.9104e+01	7.6217	12.107370	0.000355	3.547127	1.201799	0.000142
 194	1.9203e+01	7.6811	12.280967	0.000436	4.357899	1.476496	0.000174
 195	1.9303e+01	7.7051	12.422267	0.000355	3.547127	1.201799	0.000142
 196	1.9402e+01	7.7549	12.620086	0.000497	4.965978	1.682519	0.000199
 197	1.9502e+01	7.7805	12.801757	0.000456	4.560592	1.545170	0.000183
 198	1.9602e+01	7.8319	12.975354	0.000436	4.357899	1.476496	0.000174
 199	1.9701e+01	7.8639	13.120691	0.000365	3.648473	1.236136	0.000146
 200	1.9800e+01	7.9041	13.225657	0.000264	2.635009	0.892765	0.000105
 201	1.9900e+01	7.9506	13.411365	0.000466	4.661938	1.579507	0.000187
 202	2.0000e+01	7.9811	13.593036	0.000456	4.560592	1.545170	0.000183
 203	2.0099e+01	8.0244	13.702039	0.000274	2.736355	0.927102	0.000110
 204	2.0198e+01	8.0693	13.891784	0.000476	4.763285	1.613845	0.000191
 205	2.0298e+01	8.1062	14.045195	0.000385	3.851166	1.304810	0.000154
 206	2.0398e+01	8.1447	14.210718	0.000416	4.155206	1.407822	0.000166
 207	2.0497e+01	8.1784	14.372203	0.000405	4.053859	1.373485	0.000162
 208	2.0596e+01	8.2345	14.505429	0.000334	3.344434	1.133125	0.000134
 209	2.0696e+01	8.2634	14.662877	0.000395	3.952513	1.339148	0.000158
 210	2.0796e+01	8.3019	14.880882	0.000547	5.472710	1.854204	0.000219
 211	2.0895e+01	8.3484	14.973736	0.000233	2.330969	0.789754	0.000093
 212	2.0994e+01	8.3869	15.131185	0.000395	3.952513	1.339148	0.000158
 213	2.1094e+01	8.4174	15.284596	0.000385	3.851166	1.304810	0.000154
 214	2.1194e+01	8.4607	15.470304	0.000466	4.661938	1.579507	0.000187
 215	2.1293e+01	8.4976	15.623715	0.000385	3.851166	1.304810	0.000154
 216	2.1392e+01	8.5361	15.773089	0.000375	3.749820	1.270473	0.000150
 217	2.1492e+01	8.5842	15.954760	0.000456	4.560592	1.545170	0.000183
 218	2.1591e+01	8.6163	16.092023	0.000345	3.445780	1.167462	0.000138
 219	2.1691e+01	8.6661	16.237360	0.000365	3.648473	1.236136	0.000146
 220	2.1791e+01	8.7030	16.431142	0.000486	4.864631	1.648182	0.000195
 221	2.1890e+01	8.7350	16.608776	0.000446	4.459245	1.510833	0.000179
 222	2.1989e+01	8.7832	16.709705	0.000253	2.533662	0.858428	0.000101
 223	2.2089e+01	8.8217	16.879265	0.000426	4.256552	1.442159	0.000170
 224	2.2189e+01	8.8538	17.012490	0.000334	3.344434	1.133125	0.000134
 225	2.2288e+01	8.9003	17.173975	0.000405	4.053859	1.373485	0.000162
 226	2.2387e+01	8.9468	17.363721	0.000476	4.763285	1.613845	0.000191
 227	2.2487e+01	8.9933	17.500983	0.000345	3.445780	1.167462	0.000138
 228	2.2587e+01	9.0174	17.670543	0.000426	4.256552	1.442159	0.000170
 229	2.2686e+01	9.0511	17.775509	0.000264	2.635009	0.892765	0.000105
 230	2.2785e+01	9.0960	17.904697	0.000324	3.243087	1.098788	0.000130
 231	2.2885e+01	9.1457	18.102517	0.000497	4.965978	1.682519	0.000199
 232	2.2985e+01	9.1858	18.280151	0.000446	4.459245	1.510833	0.000179
 233	2.3084e+01	9.2227	18.425488	0.000365	3.648473	1.236136	0.000146
 234	2.3183e+01	9.2564	18.550639	0.000314	3.141741	1.064451	0.000126
 235	2.3283e+01	9.2997	18.720198	0.000426	4.256552	1.442159	0.000170
 236	2.3383e+01	9.3350	18.845350	0.000314	3.141741	1.064451	0.000126
 237	2.3482e+01	9.3783	19.002798	0.000395	3.952513	1.339148	0.000158
 238	2.3581e+01	9.4185	19.168320	0.000416	4.155206	1.407822	0.000166
 239	2.3681e+01	9.4570	19.317695	0.000375	3.749820	1.270473	0.000150
 240	2.3780e+01	9.4890	19.503403	0.000466	4.661938	1.579507	0.000187
 241	2.3880e+01	9.5452	19.628554	0.000314	3.141741	1.064451	0.000126
 242	2.3980e+01	9.5757	19.794077	0.000416	4.155206	1.407822	0.000166
 243	2.4079e+01	9.6254	19.939413	0.000365	3.648473	1.236136	0.000146
 244	2.4178e+01	9.6511	20.076676	0.000345	3.445780	1.167462	0.000138
 245	2.4278e+01	9.7088	20.222013	0.000365	3.648473	1.236136	0.000146
 246	2.4378e+01	9.7377	20.419833	0.000497	4.965978	1.682519	0.000199
 247	2.4477e+01	9.7762	20.536909	0.000294	2.939048	0.995776	0.000118
 248	2.4576e+01	9.8163	20.706469	0.000426	4.256552	1.442159	0.000170
 249	2.4676e+01	9.8580	20.884103	0.000446	4.459245	1.510833	0.000179
 250	2.4776e+01	9.8933	21.013292	0.000324	3.243087	1.098788	0.000130
 251	2.4875e+01	9.9430	21.150554	0.000345	3.445780	1.167462	0.000138
 252	2.4974e+01	9.9751	21.299928	0.000375	3.749820	1.270473	0.000150
 253	2.5074e+01	10.0152	21.449302	0.000375	3.749820	1.270473	0.000150
 254	2.5174e+01	10.0601	21.590602	0.000355	3.547127	1.201799	0.000142
 255	2.5273e+01	10.1019	21.764199	0.000436	4.357899	1.476496	0.000174
 256	2.5372e+01	10.1371	21.861090	0.000243	2.432316	0.824091	0.000097
 257	2.5472e+01	10.1805	22.091207	0.000578	5.776750	1.957216	0.000231
 258	2.5572e+01	10.2190	22.171949	0.000203	2.026930	0.686742	0.000081
 259	2.5671e+01	10.2510	22.337472	0.000416	4.155206	1.407822	0.000166
 260	2.5770e+01	10.3008	22.498957	0.000405	4.053859	1.373485	0.000162
 261	2.5870e+01	10.3441	22.648331	0.000375	3.749820	1.270473	0.000150
 262	2.5970e+01	10.3778	22.809817	0.000405	4.053859	1.373485	0.000162
 263	2.6069e+01	10.4147	22.910745	0.000253	2.533662	0.858428	0.000101
 264	2.6169e+01	10.4628	23.096454	0.000466	4.661938	1.579507	0.000187
 265	2.6268e+01	10.4949	23.225642	0.000324	3.243087	1.098788	0.000130
