»»»»»»»»»»»»»»»»»»»»»»»»»»»»»»»»»»»» Hysteresis ««««««««««««««««««««««««««««««««««««
»»»  Executed Version:	5.48.1
»»»  Vision Version:	5.48.4 (R)
»»»  Vision Compiled:	9/18/24
»»»  Driver Version:	5.47.0
»»»  Windows Version:	Windows 8 or 8.1
»»»  Processor Information:	x86 (AMD or Intel) - 32 Processors
»»»  Tester Name:	PMF21124-494 (100V)
»»»  Tester S/N:	PMF21124-494
»»»  Internal Amp Type:	100V RevK 270k
»»»  Internal Amp S/N:	iAB2-596/K     
»»»  Execution Count:	1
»»»»»»»»»»»»»»»»»»»»»»»»»»»»»»»»»»»»»»»»»»««««««««««««««««««««««««««««««««««««««««««

Stored:	6/3/2025 - 17:48:6
Configured:	06/03/25 04:16:08 PM
Executed:	06/03/25 05:46:07 PM

»»»»»»»»»»»»»»»»»»»»»»»»»»»»»»»»»»» Sample Info ««««««««««««««««««««««««««««««««««««
Sample Name:	
Lot Name:	
Wafer Name:	
Die Row/Column:	0/0
Capacitor Number:	0
Sample Area (cm2):	1.00e-04
Sample Thickness (microns):	3.00e-01

Amplifier:	Internal

»»»»»»»»»»»»»»»»»»»»»»»»»»»»»»»»»»» Tester Info «««««««««««««««««««««««««««««««««««
Tester Name:	PMF21124-494 (100V)
Tester Serial Number:	PMF21124-494
Return Signal Amp. Level:	0.2 [Index: 1]

»»»»»»»»»»»»»»»»»»»»»»»»»»»»»»»» Hysteresis Info ««««««««««««««««««««««««««««««««««
Task Name:	Hyst-2
Volts:	20.00
Field:	666.67 (kV/cm)
DCBias:	0.00
DCField:	0.00 (kV/cm)
Hysteresis Period (ms):	1.00e-02
Preset:	Enabled
Preset Delay (ms):	1.00e+03
Profile:	Standard Bipolar

»»»»»»»»»»»»»»»»»»»»»»»»»»»»»»»»»»»»»» Data «««««««««««««««««««««««««««««««««««««««
Points:	101

Valid Data

Point	Time (ms)	Drive Voltage	Measured Polarization (uC/cm2)	Capacitance (uF)	Normalized Capacitance (uF/cm2)	Dielectric Constant	Instantaneous Current (mA)
   1	0.0000e+00	0.0770	-0.733633	0.000034	0.341304	0.115637	0.269423
   2	1.0000e-04	0.6080	-0.464209	0.000034	0.341304	0.115637	0.269423
   3	2.0000e-04	1.5882	1.611080	0.000263	2.628962	0.890716	2.075289
   4	3.0000e-04	2.2523	3.442431	0.000232	2.319944	0.786018	1.831351
   5	4.0000e-04	3.0657	5.616023	0.000275	2.753492	0.932908	2.173592
   6	5.0000e-04	3.8662	7.447374	0.000232	2.319944	0.786018	1.831351
   7	6.0000e-04	4.6330	9.264162	0.000230	2.301495	0.779768	1.816788
   8	7.0000e-04	5.4448	11.750868	0.000315	3.150142	1.067297	2.486706
   9	8.0000e-04	6.2629	13.571297	0.000231	2.306107	0.781330	1.820429
  10	9.0000e-04	7.0779	16.028876	0.000311	3.113244	1.054796	2.457579
  11	1.0000e-03	7.8335	17.933045	0.000241	2.412188	0.817271	1.904169
  12	1.1000e-03	8.6532	19.713424	0.000226	2.255373	0.764141	1.780379
  13	1.2000e-03	9.4489	22.353046	0.000334	3.343855	1.132929	2.639622
  14	1.3000e-03	10.2462	24.188038	0.000232	2.324556	0.787581	1.834992
  15	1.4000e-03	11.0676	26.631054	0.000309	3.094795	1.048545	2.443016
  16	1.5000e-03	11.8120	28.527940	0.000240	2.402963	0.814146	1.896887
  17	1.6000e-03	12.6462	30.504926	0.000250	2.504432	0.848525	1.976986
  18	1.7000e-03	13.4884	33.137266	0.000333	3.334631	1.129803	2.632340
  19	1.8000e-03	14.2536	35.074203	0.000245	2.453698	0.831335	1.936936
  20	1.9000e-03	15.0285	37.389788	0.000293	2.933368	0.993852	2.315585
  21	2.0000e-03	15.8659	39.395901	0.000254	2.541330	0.861026	2.006113
  22	2.1000e-03	16.6487	41.205407	0.000229	2.292270	0.776642	1.809506
  23	2.2000e-03	17.4557	43.717599	0.000318	3.182428	1.078236	2.512192
  24	2.3000e-03	18.2417	45.490696	0.000225	2.246148	0.761016	1.773098
  25	2.4000e-03	19.0615	47.828127	0.000296	2.961041	1.003228	2.337431
  26	2.5000e-03	19.8219	49.750500	0.000244	2.435249	0.825085	1.922373
  27	2.6000e-03	19.5572	50.839116	-0.000138	-1.379052	-0.467235	1.088616
  28	2.7000e-03	18.2674	49.189808	0.000209	2.089333	0.707885	-1.649309
  29	2.8000e-03	17.7942	47.052624	0.000271	2.707369	0.917282	-2.137183
  30	2.9000e-03	17.0145	46.018621	0.000131	1.309869	0.443796	-1.034004
  31	3.0000e-03	16.1434	44.340185	0.000213	2.126231	0.720386	-1.678435
  32	3.1000e-03	15.4087	42.436017	0.000241	2.412188	0.817271	-1.904169
  33	3.2000e-03	14.6017	40.564616	0.000237	2.370678	0.803207	-1.871401
  34	3.3000e-03	13.7788	38.645884	0.000243	2.430637	0.823522	-1.918732
  35	3.4000e-03	12.9542	36.534187	0.000268	2.675084	0.906343	-2.111697
  36	3.5000e-03	12.2098	35.005026	0.000194	1.937130	0.656317	-1.529160
  37	3.6000e-03	11.4510	33.202802	0.000228	2.283046	0.773517	-1.802225
  38	3.7000e-03	10.5799	30.748864	0.000311	3.108632	1.053233	-2.453938
  39	3.8000e-03	9.8083	28.826491	0.000244	2.435249	0.825085	-1.922373
  40	3.9000e-03	9.0238	26.667462	0.000274	2.735043	0.926658	-2.159029
  41	4.0000e-03	8.2137	25.105534	0.000198	1.978640	0.670381	-1.561928
  42	4.1000e-03	7.4003	22.855484	0.000285	2.850348	0.965724	-2.250050
  43	4.2000e-03	6.5758	20.463441	0.000303	3.030224	1.026668	-2.392044
  44	4.3000e-03	5.8266	18.399074	0.000262	2.615125	0.886028	-2.064366
  45	4.4000e-03	5.0373	16.312863	0.000264	2.642798	0.895404	-2.086211
  46	4.5000e-03	4.2095	14.441462	0.000237	2.370678	0.803207	-1.871401
  47	4.6000e-03	3.4138	12.187771	0.000285	2.854960	0.967287	-2.253691
  48	4.7000e-03	2.6149	9.875827	0.000293	2.928756	0.992289	-2.311945
  49	4.8000e-03	1.7983	7.716798	0.000274	2.735043	0.926658	-2.159029
  50	4.9000e-03	1.0123	5.477670	0.000284	2.836511	0.961036	-2.239127
  51	5.0000e-03	0.1957	3.562579	0.000243	2.426024	0.821959	-1.915091
  52	5.1000e-03	-0.5807	1.265198	0.000291	2.910307	0.986039	-2.297381
  53	5.2000e-03	-1.3652	-0.984852	0.000285	2.850348	0.965724	-2.250050
  54	5.3000e-03	-2.2187	-3.191212	0.000280	2.795002	0.946972	-2.206360
  55	5.4000e-03	-2.9582	-5.430339	0.000284	2.836511	0.961036	-2.239127
  56	5.5000e-03	-3.7860	-7.338149	0.000242	2.416800	0.818834	-1.907809
  57	5.6000e-03	-4.5913	-9.588199	0.000285	2.850348	0.965724	-2.250050
  58	5.7000e-03	-5.3662	-11.816404	0.000282	2.822675	0.956348	-2.228205
  59	5.8000e-03	-6.2164	-14.022763	0.000280	2.795002	0.946972	-2.206360
  60	5.9000e-03	-7.0233	-16.291018	0.000287	2.873409	0.973537	-2.268254
  61	6.0000e-03	-7.7597	-18.166059	0.000238	2.375290	0.804770	-1.875042
  62	6.1000e-03	-8.5698	-20.285039	0.000268	2.684308	0.909468	-2.118979
  63	6.2000e-03	-9.3896	-22.684364	0.000304	3.039449	1.029793	-2.399325
  64	6.3000e-03	-10.1917	-24.781498	0.000266	2.656635	0.900092	-2.097134
  65	6.4000e-03	-11.0147	-27.071597	0.000290	2.901082	0.982913	-2.290099
  66	6.5000e-03	-11.7815	-29.001252	0.000244	2.444473	0.828210	-1.929655
  67	6.6000e-03	-12.5964	-31.167562	0.000274	2.744267	0.929783	-2.166310
  68	6.7000e-03	-13.4322	-33.508634	0.000297	2.965653	1.004791	-2.341071
  69	6.8000e-03	-14.1862	-35.543873	0.000258	2.578227	0.873527	-2.035239
  70	6.9000e-03	-15.0028	-37.466246	0.000244	2.435249	0.825085	-1.922373
  71	7.0000e-03	-15.7937	-39.617993	0.000273	2.725818	0.923532	-2.151747
  72	7.1000e-03	-16.6086	-41.594979	0.000250	2.504432	0.848525	-1.976986
  73	7.2000e-03	-17.4107	-43.662986	0.000262	2.619737	0.887591	-2.068007
  74	7.3000e-03	-18.2064	-45.545309	0.000238	2.384515	0.807895	-1.882323
  75	7.4000e-03	-19.0086	-47.562345	0.000256	2.555166	0.865714	-2.017035
  76	7.5000e-03	-19.7754	-49.633993	0.000262	2.624350	0.889154	-2.071648
  77	7.6000e-03	-19.4289	-50.839116	-0.000153	-1.526643	-0.517241	-1.205124
  78	7.7000e-03	-18.2674	-48.920384	0.000243	2.430637	0.823522	1.918732
  79	7.8000e-03	-17.7284	-47.198259	0.000218	2.181577	0.739138	1.722126
  80	7.9000e-03	-16.9247	-45.971290	0.000155	1.554316	0.526617	1.226969
  81	8.0000e-03	-16.1033	-44.773448	0.000152	1.517418	0.514115	1.197842
  82	8.1000e-03	-15.3220	-42.843793	0.000244	2.444473	0.828210	1.929655
  83	8.2000e-03	-14.5327	-40.997878	0.000234	2.338392	0.792269	1.845915
  84	8.3000e-03	-13.7290	-39.264830	0.000220	2.195414	0.743826	1.733048
  85	8.4000e-03	-12.9077	-37.287844	0.000250	2.504432	0.848525	1.976986
  86	8.5000e-03	-12.1601	-36.086361	0.000152	1.522031	0.515678	1.201483
  87	8.6000e-03	-11.3516	-34.040199	0.000259	2.592064	0.878215	2.046162
  88	8.7000e-03	-10.5093	-31.797431	0.000284	2.841124	0.962599	2.242768
  89	8.8000e-03	-9.7361	-29.966079	0.000232	2.319944	0.786018	1.831351
  90	8.9000e-03	-8.9532	-27.843459	0.000269	2.688921	0.911031	2.122620
  91	9.0000e-03	-8.1319	-26.569159	0.000161	1.614275	0.546931	1.274300
  92	9.1000e-03	-7.3346	-24.209883	0.000299	2.988715	1.012604	2.359276
  93	9.2000e-03	-6.5084	-21.967115	0.000284	2.841124	0.962599	2.242768
  94	9.3000e-03	-5.7496	-20.019256	0.000247	2.467534	0.836023	1.947859
  95	9.4000e-03	-4.9651	-17.874791	0.000272	2.716594	0.920407	2.144465
  96	9.5000e-03	-4.1710	-16.378398	0.000190	1.895620	0.642253	1.496393
  97	9.6000e-03	-3.3480	-13.902615	0.000314	3.136305	1.062609	2.475783
  98	9.7000e-03	-2.5331	-11.659847	0.000284	2.841124	0.962599	2.242768
  99	9.8000e-03	-1.7454	-9.686502	0.000250	2.499820	0.846962	1.973345
 100	9.9000e-03	-0.9433	-7.218000	0.000313	3.127081	1.059484	2.468502
 101	1.0000e-02	-0.1781	-5.965545	0.000313	3.127081	1.059484	1.252455

PMax (uC/cm2):	5.05e+01
Pr (uC/cm2):	3.76e+00
-Pr (uC/cm2):	-5.19e+00
PLoss (uC/cm2):	-5.23e+00
-Vc:	-1.29e+00
C (Max-Eff) (nF):	2.55e-01
K (Eff):	8.64e+02
Vert. (+/-Pr) Shift (uC/cm2):	-7.17e-01
Offset (uC/cm2):	7.74e-01

A (Loop Area - uC/cm2·Volts):	-3.56e-01



Hysteresis Version: 5.48.1 - Radiant Technologies, Inc., 1999 - 9/12/24

