»»»»»»»»»»»»»»»»»»»»»»»»»»»»»»»»»»»» Hysteresis ««««««««««««««««««««««««««««««««««««
»»»  Executed Version:	5.48.1
»»»  Vision Version:	5.48.4 (R)
»»»  Vision Compiled:	9/18/24
»»»  Driver Version:	5.47.0
»»»  Windows Version:	Windows 8 or 8.1
»»»  Processor Information:	x86 (AMD or Intel) - 32 Processors
»»»  Tester Name:	PMF21124-494 (100V)
»»»  Tester S/N:	PMF21124-494
»»»  Internal Amp Type:	100V RevK 270k
»»»  Internal Amp S/N:	iAB2-596/K     
»»»  Execution Count:	1
»»»»»»»»»»»»»»»»»»»»»»»»»»»»»»»»»»»»»»»»»»««««««««««««««««««««««««««««««««««««««««««

Stored:	6/4/2025 - 14:27:29
Configured:	06/04/25 01:46:06 PM
Executed:	06/04/25 02:26:48 PM

»»»»»»»»»»»»»»»»»»»»»»»»»»»»»»»»»»» Sample Info ««««««««««««««««««««««««««««««««««««
Sample Name:	
Lot Name:	
Wafer Name:	
Die Row/Column:	0/0
Capacitor Number:	0
Sample Area (cm2):	1.00e-04
Sample Thickness (microns):	3.00e-01

Amplifier:	Internal

»»»»»»»»»»»»»»»»»»»»»»»»»»»»»»»»»»» Tester Info «««««««««««««««««««««««««««««««««««
Tester Name:	PMF21124-494 (100V)
Tester Serial Number:	PMF21124-494
Return Signal Amp. Level:	0.19 [Index: 3]

»»»»»»»»»»»»»»»»»»»»»»»»»»»»»»»» Hysteresis Info ««««««««««««««««««««««««««««««««««
Task Name:	Hyst-37
Volts:	20.00
Field:	666.67 (kV/cm)
DCBias:	0.00
DCField:	0.00 (kV/cm)
Hysteresis Period (ms):	2.00e+02
Preset:	Enabled
Preset Delay (ms):	1.00e+03
Profile:	Standard Bipolar

»»»»»»»»»»»»»»»»»»»»»»»»»»»»»»»»»»»»»» Data «««««««««««««««««««««««««««««««««««««««
Points:	2009

Valid Data

Point	Time (ms)	Drive Voltage	Measured Polarization (uC/cm2)	Capacitance (uF)	Normalized Capacitance (uF/cm2)	Dielectric Constant	Instantaneous Current (mA)
   1	0.0000e+00	-0.0016	-4.186510	0.000304	3.039175	1.029701	0.000122
   2	9.9500e-02	0.0289	-4.065396	0.000304	3.039175	1.029701	0.000122
   3	1.9900e-01	0.0706	-3.871613	0.000486	4.862681	1.647521	0.000195
   4	2.9850e-01	0.1075	-3.722239	0.000375	3.748316	1.269964	0.000150
   5	3.9800e-01	0.1572	-3.528457	0.000486	4.862681	1.647521	0.000195
   6	4.9750e-01	0.1877	-3.358897	0.000425	4.254846	1.441581	0.000170
   7	5.9700e-01	0.2262	-3.161077	0.000496	4.963987	1.681844	0.000199
   8	6.9650e-01	0.2615	-2.934998	0.000567	5.673128	1.922108	0.000227
   9	7.9600e-01	0.3096	-2.781587	0.000385	3.849622	1.304287	0.000154
  10	8.9550e-01	0.3545	-2.620101	0.000405	4.052234	1.372934	0.000162
  11	9.9500e-01	0.3850	-2.434393	0.000466	4.660069	1.578874	0.000187
  12	1.0945e+00	0.4251	-2.244647	0.000476	4.761375	1.613197	0.000191
  13	1.1940e+00	0.4652	-1.994345	0.000628	6.280963	2.128048	0.000252
  14	1.2935e+00	0.5053	-1.853045	0.000355	3.545705	1.201317	0.000142
  15	1.3930e+00	0.5503	-1.731931	0.000304	3.039175	1.029701	0.000122
  16	1.4925e+00	0.5855	-1.534112	0.000496	4.963987	1.681844	0.000199
  17	1.5920e+00	0.6273	-1.295921	0.000598	5.977045	2.025078	0.000239
  18	1.6915e+00	0.6658	-1.102138	0.000486	4.862681	1.647521	0.000195
  19	1.7910e+00	0.7075	-0.924504	0.000446	4.457457	1.510227	0.000179
  20	1.8905e+00	0.7444	-0.758982	0.000415	4.153540	1.407257	0.000166
  21	1.9900e+00	0.7781	-0.565199	0.000486	4.862681	1.647521	0.000195
  22	2.0895e+00	0.8246	-0.359305	0.000517	5.166598	1.750491	0.000207
  23	2.1890e+00	0.8551	-0.157448	0.000507	5.065292	1.716168	0.000203
  24	2.2885e+00	0.9064	0.012111	0.000425	4.254846	1.441581	0.000170
  25	2.3880e+00	0.9353	0.218005	0.000517	5.166598	1.750491	0.000207
  26	2.4875e+00	0.9802	0.403714	0.000466	4.660069	1.578874	0.000187
  27	2.5870e+00	1.0267	0.528865	0.000314	3.140481	1.064024	0.000126
  28	2.6865e+00	1.0572	0.734759	0.000517	5.166598	1.750491	0.000207
  29	2.7860e+00	1.1021	0.940653	0.000517	5.166598	1.750491	0.000207
  30	2.8855e+00	1.1534	1.126361	0.000466	4.660069	1.578874	0.000187
  31	2.9850e+00	1.1791	1.344366	0.000547	5.470516	1.853461	0.000219
  32	3.0845e+00	1.2224	1.509889	0.000415	4.153540	1.407257	0.000166
  33	3.1840e+00	1.2657	1.752117	0.000608	6.078351	2.059401	0.000243
  34	3.2835e+00	1.3042	1.921677	0.000425	4.254846	1.441581	0.000170
  35	3.3830e+00	1.3395	2.083162	0.000405	4.052234	1.372934	0.000162
  36	3.4825e+00	1.3780	2.305205	0.000557	5.571822	1.887784	0.000223
  37	3.5820e+00	1.4214	2.470727	0.000415	4.153540	1.407257	0.000166
  38	3.6815e+00	1.4647	2.672584	0.000507	5.065292	1.716168	0.000203
  39	3.7810e+00	1.4935	2.862329	0.000476	4.761375	1.613197	0.000191
  40	3.8805e+00	1.5465	3.076297	0.000537	5.369210	1.819138	0.000215
  41	3.9800e+00	1.5850	3.249894	0.000436	4.356152	1.475904	0.000174
  42	4.0795e+00	1.6219	3.415417	0.000415	4.153540	1.407257	0.000166
  43	4.1790e+00	1.6620	3.605162	0.000476	4.761375	1.613197	0.000191
  44	4.2785e+00	1.7005	3.807019	0.000507	5.065292	1.716168	0.000203
  45	4.3780e+00	1.7438	4.037136	0.000577	5.774433	1.956431	0.000231
  46	4.4775e+00	1.7887	4.190547	0.000385	3.849622	1.304287	0.000154
  47	4.5770e+00	1.8256	4.412589	0.000557	5.571822	1.887784	0.000223
  48	4.6765e+00	1.8641	4.598298	0.000466	4.660069	1.578874	0.000187
  49	4.7760e+00	1.8962	4.779969	0.000456	4.558763	1.544551	0.000183
  50	4.8755e+00	1.9427	4.965677	0.000466	4.660069	1.578874	0.000187
  51	4.9750e+00	1.9828	5.147348	0.000456	4.558763	1.544551	0.000183
  52	5.0745e+00	2.0165	5.369391	0.000557	5.571822	1.887784	0.000223
  53	5.1740e+00	2.0630	5.599507	0.000577	5.774433	1.956431	0.000231
  54	5.2735e+00	2.1015	5.712547	0.000284	2.836564	0.961054	0.000114
  55	5.3730e+00	2.1400	5.938627	0.000567	5.673128	1.922108	0.000227
  56	5.4725e+00	2.1850	6.148558	0.000527	5.267904	1.784814	0.000211
  57	5.5720e+00	2.2187	6.322155	0.000436	4.356152	1.475904	0.000174
  58	5.6715e+00	2.2620	6.532086	0.000527	5.267904	1.784814	0.000211
  59	5.7710e+00	2.2924	6.693571	0.000405	4.052234	1.372934	0.000162
  60	5.8705e+00	2.3454	6.911576	0.000547	5.470516	1.853461	0.000219
  61	5.9700e+00	2.3791	7.081136	0.000425	4.254846	1.441581	0.000170
  62	6.0695e+00	2.4272	7.303179	0.000557	5.571822	1.887784	0.000223
  63	6.1690e+00	2.4577	7.484850	0.000456	4.558763	1.544551	0.000183
  64	6.2685e+00	2.4962	7.706892	0.000557	5.571822	1.887784	0.000223
  65	6.3680e+00	2.5443	7.876452	0.000425	4.254846	1.441581	0.000170
  66	6.4675e+00	2.5780	8.102531	0.000567	5.673128	1.922108	0.000227
  67	6.5670e+00	2.6261	8.280165	0.000446	4.457457	1.510227	0.000179
  68	6.6665e+00	2.6727	8.494134	0.000537	5.369210	1.819138	0.000215
  69	6.7660e+00	2.7015	8.700028	0.000517	5.166598	1.750491	0.000207
  70	6.8655e+00	2.7384	8.893810	0.000486	4.862681	1.647521	0.000195
  71	6.9650e+00	2.7753	9.083555	0.000476	4.761375	1.613197	0.000191
  72	7.0645e+00	2.8218	9.253115	0.000425	4.254846	1.441581	0.000170
  73	7.1640e+00	2.8620	9.459009	0.000517	5.166598	1.750491	0.000207
  74	7.2635e+00	2.9037	9.664903	0.000517	5.166598	1.750491	0.000207
  75	7.3630e+00	2.9357	9.862723	0.000496	4.963987	1.681844	0.000199
  76	7.4625e+00	2.9726	10.080728	0.000547	5.470516	1.853461	0.000219
  77	7.5620e+00	3.0176	10.286622	0.000517	5.166598	1.750491	0.000207
  78	7.6615e+00	3.0561	10.504627	0.000547	5.470516	1.853461	0.000219
  79	7.7610e+00	3.0978	10.666113	0.000405	4.052234	1.372934	0.000162
  80	7.8605e+00	3.1379	10.855858	0.000476	4.761375	1.613197	0.000191
  81	7.9600e+00	3.1844	11.061752	0.000517	5.166598	1.750491	0.000207
  82	8.0595e+00	3.2133	11.267646	0.000517	5.166598	1.750491	0.000207
  83	8.1590e+00	3.2486	11.501800	0.000588	5.875739	1.990754	0.000235
  84	8.2585e+00	3.2903	11.707694	0.000517	5.166598	1.750491	0.000207
  85	8.3580e+00	3.3400	11.921662	0.000537	5.369210	1.819138	0.000215
  86	8.4575e+00	3.3705	12.058924	0.000344	3.444399	1.166994	0.000138
  87	8.5570e+00	3.4154	12.272893	0.000537	5.369210	1.819138	0.000215
  88	8.6565e+00	3.4587	12.494935	0.000557	5.571822	1.887784	0.000223
  89	8.7560e+00	3.4908	12.733126	0.000598	5.977045	2.025078	0.000239
  90	8.8555e+00	3.5405	12.878463	0.000365	3.647011	1.235641	0.000146
  91	8.9550e+00	3.5758	13.076283	0.000496	4.963987	1.681844	0.000199
  92	9.0545e+00	3.6175	13.298325	0.000557	5.571822	1.887784	0.000223
  93	9.1540e+00	3.6496	13.463848	0.000415	4.153540	1.407257	0.000166
  94	9.2535e+00	3.6945	13.669742	0.000517	5.166598	1.750491	0.000207
  95	9.3530e+00	3.7330	13.887747	0.000547	5.470516	1.853461	0.000219
  96	9.4525e+00	3.7764	14.041158	0.000385	3.849622	1.304287	0.000154
  97	9.5520e+00	3.8133	14.263201	0.000557	5.571822	1.887784	0.000223
  98	9.6515e+00	3.8453	14.473132	0.000527	5.267904	1.784814	0.000211
  99	9.7510e+00	3.8871	14.683063	0.000527	5.267904	1.784814	0.000211
 100	9.8505e+00	3.9304	14.884919	0.000507	5.065292	1.716168	0.000203
 101	9.9500e+00	3.9785	15.086776	0.000507	5.065292	1.716168	0.000203
 102	1.0050e+01	4.0042	15.308819	0.000557	5.571822	1.887784	0.000223
 103	1.0149e+01	4.0587	15.506638	0.000496	4.963987	1.681844	0.000199
 104	1.0248e+01	4.0972	15.708495	0.000507	5.065292	1.716168	0.000203
 105	1.0348e+01	4.1261	15.857869	0.000375	3.748316	1.269964	0.000150
 106	1.0447e+01	4.1742	16.108172	0.000628	6.280963	2.128048	0.000252
 107	1.0547e+01	4.1983	16.265620	0.000395	3.950928	1.338611	0.000158
 108	1.0646e+01	4.2544	16.499774	0.000588	5.875739	1.990754	0.000235
 109	1.0746e+01	4.2961	16.705668	0.000517	5.166598	1.750491	0.000207
 110	1.0845e+01	4.3314	16.846967	0.000355	3.545705	1.201317	0.000142
 111	1.0945e+01	4.3699	17.060936	0.000537	5.369210	1.819138	0.000215
 112	1.1044e+01	4.4020	17.262792	0.000507	5.065292	1.716168	0.000203
 113	1.1144e+01	4.4453	17.496946	0.000588	5.875739	1.990754	0.000235
 114	1.1243e+01	4.4999	17.682655	0.000466	4.660069	1.578874	0.000187
 115	1.1343e+01	4.5432	17.864326	0.000456	4.558763	1.544551	0.000183
 116	1.1443e+01	4.5769	18.062145	0.000496	4.963987	1.681844	0.000199
 117	1.1542e+01	4.6122	18.255928	0.000486	4.862681	1.647521	0.000195
 118	1.1642e+01	4.6619	18.473933	0.000547	5.470516	1.853461	0.000219
 119	1.1741e+01	4.6924	18.659641	0.000466	4.660069	1.578874	0.000187
 120	1.1841e+01	4.7229	18.849387	0.000476	4.761375	1.613197	0.000191
 121	1.1940e+01	4.7694	19.083541	0.000588	5.875739	1.990754	0.000235
 122	1.2040e+01	4.8191	19.309620	0.000567	5.673128	1.922108	0.000227
 123	1.2139e+01	4.8512	19.495328	0.000466	4.660069	1.578874	0.000187
 124	1.2239e+01	4.8929	19.709297	0.000537	5.369210	1.819138	0.000215
 125	1.2338e+01	4.9250	19.850596	0.000355	3.545705	1.201317	0.000142
 126	1.2438e+01	4.9587	20.080713	0.000577	5.774433	1.956431	0.000231
 127	1.2537e+01	5.0020	20.270459	0.000476	4.761375	1.613197	0.000191
 128	1.2636e+01	5.0501	20.528835	0.000648	6.483574	2.196694	0.000260
 129	1.2736e+01	5.0902	20.682246	0.000385	3.849622	1.304287	0.000154
 130	1.2835e+01	5.1287	20.871992	0.000476	4.761375	1.613197	0.000191
 131	1.2935e+01	5.1720	21.081923	0.000527	5.267904	1.784814	0.000211
 132	1.3034e+01	5.2105	21.299928	0.000547	5.470516	1.853461	0.000219
 133	1.3134e+01	5.2523	21.493711	0.000486	4.862681	1.647521	0.000195
 134	1.3233e+01	5.2924	21.675382	0.000456	4.558763	1.544551	0.000183
 135	1.3333e+01	5.3244	21.873201	0.000496	4.963987	1.681844	0.000199
 136	1.3432e+01	5.3678	22.099281	0.000567	5.673128	1.922108	0.000227
 137	1.3532e+01	5.4079	22.297101	0.000496	4.963987	1.681844	0.000199
 138	1.3632e+01	5.4528	22.454549	0.000395	3.950928	1.338611	0.000158
 139	1.3731e+01	5.4849	22.644294	0.000476	4.761375	1.613197	0.000191
 140	1.3831e+01	5.5298	22.870374	0.000567	5.673128	1.922108	0.000227
 141	1.3930e+01	5.5651	23.104528	0.000588	5.875739	1.990754	0.000235
 142	1.4030e+01	5.6052	23.278125	0.000436	4.356152	1.475904	0.000174
 143	1.4129e+01	5.6501	23.447684	0.000425	4.254846	1.441581	0.000170
 144	1.4229e+01	5.6870	23.677801	0.000577	5.774433	1.956431	0.000231
 145	1.4328e+01	5.7255	23.831212	0.000385	3.849622	1.304287	0.000154
 146	1.4428e+01	5.7544	24.045180	0.000537	5.369210	1.819138	0.000215
 147	1.4527e+01	5.7993	24.247037	0.000507	5.065292	1.716168	0.000203
 148	1.4627e+01	5.8410	24.440820	0.000486	4.862681	1.647521	0.000195
 149	1.4726e+01	5.8891	24.662862	0.000557	5.571822	1.887784	0.000223
 150	1.4825e+01	5.9357	24.852608	0.000476	4.761375	1.613197	0.000191
 151	1.4925e+01	5.9661	25.078687	0.000567	5.673128	1.922108	0.000227
 152	1.5024e+01	6.0127	25.256321	0.000446	4.457457	1.510227	0.000179
 153	1.5124e+01	6.0447	25.433955	0.000446	4.457457	1.510227	0.000179
 154	1.5223e+01	6.0913	25.583329	0.000375	3.748316	1.269964	0.000150
 155	1.5323e+01	6.1362	25.829594	0.000618	6.179657	2.093724	0.000248
 156	1.5422e+01	6.1651	25.995117	0.000415	4.153540	1.407257	0.000166
 157	1.5522e+01	6.2148	26.192937	0.000496	4.963987	1.681844	0.000199
 158	1.5621e+01	6.2549	26.374608	0.000456	4.558763	1.544551	0.000183
 159	1.5721e+01	6.2774	26.580502	0.000517	5.166598	1.750491	0.000207
 160	1.5820e+01	6.3255	26.782358	0.000507	5.065292	1.716168	0.000203
 161	1.5920e+01	6.3624	26.988252	0.000517	5.166598	1.750491	0.000207
 162	1.6020e+01	6.4073	27.198183	0.000527	5.267904	1.784814	0.000211
 163	1.6119e+01	6.4490	27.355632	0.000395	3.950928	1.338611	0.000158
 164	1.6218e+01	6.4843	27.545377	0.000476	4.761375	1.613197	0.000191
 165	1.6318e+01	6.5212	27.751271	0.000517	5.166598	1.750491	0.000207
 166	1.6418e+01	6.5597	27.928905	0.000446	4.457457	1.510227	0.000179
 167	1.6517e+01	6.6046	28.118650	0.000476	4.761375	1.613197	0.000191
 168	1.6616e+01	6.6495	28.300322	0.000456	4.558763	1.544551	0.000183
 169	1.6716e+01	6.6897	28.550624	0.000628	6.280963	2.128048	0.000252
 170	1.6816e+01	6.7249	28.691924	0.000355	3.545705	1.201317	0.000142
 171	1.6915e+01	6.7570	28.893780	0.000507	5.065292	1.716168	0.000203
 172	1.7015e+01	6.8068	29.083526	0.000476	4.761375	1.613197	0.000191
 173	1.7114e+01	6.8453	29.301531	0.000547	5.470516	1.853461	0.000219
 174	1.7213e+01	6.8806	29.487239	0.000466	4.660069	1.578874	0.000187
 175	1.7313e+01	6.9255	29.656799	0.000425	4.254846	1.441581	0.000170
 176	1.7413e+01	6.9656	29.874804	0.000547	5.470516	1.853461	0.000219
 177	1.7512e+01	6.9993	30.080698	0.000517	5.166598	1.750491	0.000207
 178	1.7611e+01	7.0442	30.274481	0.000486	4.862681	1.647521	0.000195
 179	1.7711e+01	7.0843	30.448078	0.000436	4.356152	1.475904	0.000174
 180	1.7811e+01	7.1196	30.625712	0.000446	4.457457	1.510227	0.000179
 181	1.7910e+01	7.1613	30.843717	0.000547	5.470516	1.853461	0.000219
 182	1.8009e+01	7.1950	31.037500	0.000486	4.862681	1.647521	0.000195
 183	1.8109e+01	7.2383	31.239356	0.000507	5.065292	1.716168	0.000203
 184	1.8209e+01	7.2736	31.437176	0.000496	4.963987	1.681844	0.000199
 185	1.8308e+01	7.3201	31.610773	0.000436	4.356152	1.475904	0.000174
 186	1.8407e+01	7.3666	31.836852	0.000567	5.673128	1.922108	0.000227
 187	1.8507e+01	7.4035	31.994301	0.000395	3.950928	1.338611	0.000158
 188	1.8607e+01	7.4468	32.175972	0.000456	4.558763	1.544551	0.000183
 189	1.8706e+01	7.4757	32.393977	0.000547	5.470516	1.853461	0.000219
 190	1.8805e+01	7.5239	32.587760	0.000486	4.862681	1.647521	0.000195
 191	1.8905e+01	7.5511	32.737134	0.000375	3.748316	1.269964	0.000150
 192	1.9005e+01	7.5976	32.955139	0.000547	5.470516	1.853461	0.000219
 193	1.9104e+01	7.6394	33.132773	0.000446	4.457457	1.510227	0.000179
 194	1.9203e+01	7.6827	33.383075	0.000628	6.280963	2.128048	0.000252
 195	1.9303e+01	7.7292	33.524375	0.000355	3.545705	1.201317	0.000142
 196	1.9402e+01	7.7613	33.722195	0.000496	4.963987	1.681844	0.000199
 197	1.9502e+01	7.7966	33.948274	0.000567	5.673128	1.922108	0.000227
 198	1.9602e+01	7.8335	34.138020	0.000476	4.761375	1.613197	0.000191
 199	1.9701e+01	7.8768	34.311617	0.000436	4.356152	1.475904	0.000174
 200	1.9800e+01	7.9185	34.448879	0.000344	3.444399	1.166994	0.000138
 201	1.9900e+01	7.9602	34.715330	0.000669	6.686186	2.265341	0.000268
 202	2.0000e+01	8.0083	34.888927	0.000436	4.356152	1.475904	0.000174
 203	2.0099e+01	8.0372	35.074635	0.000466	4.660069	1.578874	0.000187
 204	2.0198e+01	8.0789	35.260344	0.000466	4.660069	1.578874	0.000187
 205	2.0298e+01	8.1206	35.450089	0.000476	4.761375	1.613197	0.000191
 206	2.0398e+01	8.1607	35.680206	0.000577	5.774433	1.956431	0.000231
 207	2.0497e+01	8.1944	35.833617	0.000385	3.849622	1.304287	0.000154
 208	2.0596e+01	8.2409	36.007214	0.000436	4.356152	1.475904	0.000174
 209	2.0696e+01	8.2746	36.217145	0.000527	5.267904	1.784814	0.000211
 210	2.0796e+01	8.3196	36.386704	0.000425	4.254846	1.441581	0.000170
 211	2.0895e+01	8.3581	36.596635	0.000527	5.267904	1.784814	0.000211
 212	2.0994e+01	8.3933	36.790418	0.000486	4.862681	1.647521	0.000195
 213	2.1094e+01	8.4399	36.972089	0.000456	4.558763	1.544551	0.000183
 214	2.1194e+01	8.4800	37.113389	0.000355	3.545705	1.201317	0.000142
 215	2.1293e+01	8.5249	37.363691	0.000628	6.280963	2.128048	0.000252
 216	2.1392e+01	8.5570	37.541325	0.000446	4.457457	1.510227	0.000179
 217	2.1492e+01	8.5907	37.702811	0.000405	4.052234	1.372934	0.000162
 218	2.1591e+01	8.6404	37.888519	0.000466	4.660069	1.578874	0.000187
 219	2.1691e+01	8.6789	38.094413	0.000517	5.166598	1.750491	0.000207
 220	2.1791e+01	8.7094	38.259935	0.000415	4.153540	1.407257	0.000166
 221	2.1890e+01	8.7591	38.473904	0.000537	5.369210	1.819138	0.000215
 222	2.1989e+01	8.7880	38.667686	0.000486	4.862681	1.647521	0.000195
 223	2.2089e+01	8.8361	38.829172	0.000405	4.052234	1.372934	0.000162
 224	2.2189e+01	8.8666	39.059288	0.000577	5.774433	1.956431	0.000231
 225	2.2288e+01	8.9211	39.232885	0.000436	4.356152	1.475904	0.000174
 226	2.2387e+01	8.9548	39.426668	0.000486	4.862681	1.647521	0.000195
 227	2.2487e+01	8.9981	39.592190	0.000415	4.153540	1.407257	0.000166
 228	2.2587e+01	9.0382	39.790010	0.000496	4.963987	1.681844	0.000199
 229	2.2686e+01	9.0751	39.975718	0.000466	4.660069	1.578874	0.000187
 230	2.2785e+01	9.1169	40.193723	0.000547	5.470516	1.853461	0.000219
 231	2.2885e+01	9.1505	40.322912	0.000324	3.241787	1.098347	0.000130
 232	2.2985e+01	9.1842	40.569177	0.000618	6.179657	2.093724	0.000248
 233	2.3084e+01	9.2340	40.734700	0.000415	4.153540	1.407257	0.000166
 234	2.3183e+01	9.2677	40.924445	0.000476	4.761375	1.613197	0.000191
 235	2.3283e+01	9.3158	41.094005	0.000425	4.254846	1.441581	0.000170
 236	2.3383e+01	9.3511	41.287787	0.000486	4.862681	1.647521	0.000195
 237	2.3482e+01	9.3928	41.493681	0.000517	5.166598	1.750491	0.000207
 238	2.3581e+01	9.4265	41.691501	0.000496	4.963987	1.681844	0.000199
 239	2.3681e+01	9.4762	41.897395	0.000517	5.166598	1.750491	0.000207
 240	2.3780e+01	9.5083	42.050806	0.000385	3.849622	1.304287	0.000154
 241	2.3880e+01	9.5468	42.240551	0.000476	4.761375	1.613197	0.000191
 242	2.3980e+01	9.5917	42.418185	0.000446	4.457457	1.510227	0.000179
 243	2.4079e+01	9.6286	42.628116	0.000527	5.267904	1.784814	0.000211
 244	2.4178e+01	9.6783	42.809787	0.000456	4.558763	1.544551	0.000183
 245	2.4278e+01	9.7152	43.003570	0.000486	4.862681	1.647521	0.000195
 246	2.4378e+01	9.7585	43.201390	0.000496	4.963987	1.681844	0.000199
 247	2.4477e+01	9.7890	43.374986	0.000436	4.356152	1.475904	0.000174
 248	2.4576e+01	9.8339	43.572806	0.000496	4.963987	1.681844	0.000199
 249	2.4676e+01	9.8660	43.774663	0.000507	5.065292	1.716168	0.000203
 250	2.4776e+01	9.9045	43.940185	0.000415	4.153540	1.407257	0.000166
 251	2.4875e+01	9.9527	44.121856	0.000456	4.558763	1.544551	0.000183
 252	2.4974e+01	9.9944	44.327750	0.000517	5.166598	1.750491	0.000207
 253	2.5074e+01	10.0313	44.533644	0.000517	5.166598	1.750491	0.000207
 254	2.5174e+01	10.0682	44.703204	0.000425	4.254846	1.441581	0.000170
 255	2.5273e+01	10.1147	44.868727	0.000415	4.153540	1.407257	0.000166
 256	2.5372e+01	10.1580	45.110955	0.000608	6.078351	2.059401	0.000243
 257	2.5472e+01	10.1837	45.252254	0.000355	3.545705	1.201317	0.000142
 258	2.5572e+01	10.2254	45.466223	0.000537	5.369210	1.819138	0.000215
 259	2.5671e+01	10.2687	45.607522	0.000355	3.545705	1.201317	0.000142
 260	2.5770e+01	10.3104	45.833602	0.000567	5.673128	1.922108	0.000227
 261	2.5870e+01	10.3521	45.995087	0.000405	4.052234	1.372934	0.000162
 262	2.5970e+01	10.3842	46.188870	0.000486	4.862681	1.647521	0.000195
 263	2.6069e+01	10.4259	46.374578	0.000466	4.660069	1.578874	0.000187
 264	2.6169e+01	10.4644	46.556249	0.000456	4.558763	1.544551	0.000183
 265	2.6268e+01	10.5109	46.745995	0.000476	4.761375	1.613197	0.000191
 266	2.6367e+01	10.5462	46.927666	0.000456	4.558763	1.544551	0.000183
