»»»»»»»»»»»»»»»»»»»»»»»»»»»»»»»»»»»» Hysteresis ««««««««««««««««««««««««««««««««««««
»»»  Executed Version:	5.48.1
»»»  Vision Version:	5.48.4 (R)
»»»  Vision Compiled:	9/18/24
»»»  Driver Version:	5.47.0
»»»  Windows Version:	Windows 8 or 8.1
»»»  Processor Information:	x86 (AMD or Intel) - 32 Processors
»»»  Tester Name:	PMF21124-494 (100V)
»»»  Tester S/N:	PMF21124-494
»»»  Internal Amp Type:	100V RevK 270k
»»»  Internal Amp S/N:	iAB2-596/K     
»»»  Execution Count:	1
»»»»»»»»»»»»»»»»»»»»»»»»»»»»»»»»»»»»»»»»»»««««««««««««««««««««««««««««««««««««««««««

Stored:	6/4/2025 - 16:54:16
Configured:	06/04/25 04:39:58 PM
Executed:	06/04/25 04:53:44 PM

»»»»»»»»»»»»»»»»»»»»»»»»»»»»»»»»»»» Sample Info ««««««««««««««««««««««««««««««««««««
Sample Name:	
Lot Name:	
Wafer Name:	
Die Row/Column:	0/0
Capacitor Number:	0
Sample Area (cm2):	1.00e-04
Sample Thickness (microns):	3.00e-01

Amplifier:	Internal

»»»»»»»»»»»»»»»»»»»»»»»»»»»»»»»»»»» Tester Info «««««««««««««««««««««««««««««««««««
Tester Name:	PMF21124-494 (100V)
Tester Serial Number:	PMF21124-494
Return Signal Amp. Level:	0.19 [Index: 3]

»»»»»»»»»»»»»»»»»»»»»»»»»»»»»»»» Hysteresis Info ««««««««««««««««««««««««««««««««««
Task Name:	Hyst-147
Volts:	20.00
Field:	666.67 (kV/cm)
DCBias:	0.00
DCField:	0.00 (kV/cm)
Hysteresis Period (ms):	1.00e+00
Preset:	Enabled
Preset Delay (ms):	1.00e+03
Profile:	Standard Bipolar

»»»»»»»»»»»»»»»»»»»»»»»»»»»»»»»»»»»»»» Data «««««««««««««««««««««««««««««««««««««««
Points:	2001

Valid Data

Point	Time (ms)	Drive Voltage	Measured Polarization (uC/cm2)	Capacitance (uF)	Normalized Capacitance (uF/cm2)	Dielectric Constant	Instantaneous Current (mA)
   1	0.0000e+00	0.0064	-3.208330	0.000202	2.020807	0.684668	0.016132
   2	5.0000e-04	0.0128	-3.127668	0.000202	2.020807	0.684668	0.016132
   3	1.0000e-03	0.0513	-2.893748	0.000586	5.860341	1.985537	0.046784
   4	1.5000e-03	0.0738	-2.837285	0.000141	1.414565	0.479268	0.011293
   5	2.0000e-03	0.1027	-2.554968	0.000707	7.072825	2.396338	0.056463
   6	2.5000e-03	0.1492	-2.429942	0.000313	3.132251	1.061235	0.025005
   7	3.0000e-03	0.1973	-2.191989	0.000596	5.961381	2.019771	0.047591
   8	3.5000e-03	0.2406	-1.950003	0.000606	6.062422	2.054004	0.048397
   9	4.0000e-03	0.2679	-1.655587	0.000738	7.375946	2.499038	0.058883
  10	4.5000e-03	0.3176	-1.413601	0.000606	6.062422	2.054004	0.048397
  11	5.0000e-03	0.3593	-1.203880	0.000525	5.254099	1.780137	0.041944
  12	5.5000e-03	0.3962	-0.941729	0.000657	6.567624	2.225171	0.052430
  13	6.0000e-03	0.4347	-0.711842	0.000576	5.759301	1.951304	0.045977
  14	6.5000e-03	0.4797	-0.550518	0.000404	4.041614	1.369336	0.032265
  15	7.0000e-03	0.5085	-0.324664	0.000566	5.658260	1.917070	0.045171
  16	7.5000e-03	0.5503	-0.054447	0.000677	6.769704	2.293638	0.054044
  17	8.0000e-03	0.5936	0.244002	0.000748	7.476987	2.533272	0.059690
  18	8.5000e-03	0.6449	0.413393	0.000424	4.243695	1.437803	0.033878
  19	9.0000e-03	0.6722	0.679577	0.000667	6.668664	2.259404	0.053237
  20	9.5000e-03	0.7155	0.861067	0.000455	4.546816	1.540503	0.036298
  21	1.0000e-02	0.7524	1.155483	0.000738	7.375946	2.499038	0.058883
  22	1.0500e-02	0.7973	1.381336	0.000566	5.658260	1.917070	0.045171
  23	1.1000e-02	0.8342	1.663653	0.000707	7.072825	2.396338	0.056463
  24	1.1500e-02	0.8743	1.950003	0.000717	7.173866	2.430571	0.057270
  25	1.2000e-02	0.9096	2.095195	0.000364	3.637453	1.232402	0.029038
  26	1.2500e-02	0.9545	2.361379	0.000667	6.668664	2.259404	0.053237
  27	1.3000e-02	0.9930	2.659829	0.000748	7.476987	2.533272	0.059690
  28	1.3500e-02	1.0331	2.901814	0.000606	6.062422	2.054004	0.048397
  29	1.4000e-02	1.0748	3.087337	0.000465	4.647857	1.574736	0.037105
  30	1.4500e-02	1.1133	3.220429	0.000333	3.334332	1.129702	0.026618
  31	1.5000e-02	1.1567	3.547110	0.000818	8.184269	2.772906	0.065336
  32	1.5500e-02	1.1903	3.861692	0.000788	7.881148	2.670205	0.062916
  33	1.6000e-02	1.2433	4.099645	0.000596	5.961381	2.019771	0.047591
  34	1.6500e-02	1.2689	4.402127	0.000758	7.578027	2.567505	0.060496
  35	1.7000e-02	1.3155	4.587650	0.000465	4.647857	1.574736	0.037105
  36	1.7500e-02	1.3588	4.918364	0.000829	8.285310	2.807139	0.066143
  37	1.8000e-02	1.3989	5.160350	0.000606	6.062422	2.054004	0.048397
  38	1.8500e-02	1.4390	5.313607	0.000384	3.839534	1.300869	0.030652
  39	1.9000e-02	1.4775	5.624156	0.000778	7.780108	2.635972	0.062110
  40	1.9500e-02	1.5176	5.858076	0.000586	5.860341	1.985537	0.046784
  41	2.0000e-02	1.5561	6.079896	0.000556	5.557220	1.882837	0.044364
  42	2.0500e-02	1.5898	6.253319	0.000434	4.344736	1.472036	0.034685
  43	2.1000e-02	1.6283	6.551769	0.000748	7.476987	2.533272	0.059690
  44	2.1500e-02	1.6748	6.773589	0.000556	5.557220	1.882837	0.044364
  45	2.2000e-02	1.7181	7.148667	0.000940	9.396754	3.183706	0.075016
  46	2.2500e-02	1.7534	7.390653	0.000606	6.062422	2.054004	0.048397
  47	2.3000e-02	1.8016	7.543911	0.000384	3.839534	1.300869	0.030652
  48	2.3500e-02	1.8320	7.818162	0.000687	6.870745	2.327871	0.054850
  49	2.4000e-02	1.8786	8.052081	0.000586	5.860341	1.985537	0.046784
  50	2.4500e-02	1.9138	8.281968	0.000576	5.759301	1.951304	0.045977
  51	2.5000e-02	1.9668	8.544119	0.000657	6.567624	2.225171	0.052430
  52	2.5500e-02	1.9941	8.798205	0.000637	6.365543	2.156704	0.050817
  53	2.6000e-02	2.0406	9.020025	0.000556	5.557220	1.882837	0.044364
  54	2.6500e-02	2.0807	9.262011	0.000606	6.062422	2.054004	0.048397
  55	2.7000e-02	2.1176	9.508030	0.000616	6.163462	2.088237	0.049204
  56	2.7500e-02	2.1625	9.745983	0.000596	5.961381	2.019771	0.047591
  57	2.8000e-02	2.1930	9.979902	0.000586	5.860341	1.985537	0.046784
  58	2.8500e-02	2.2427	10.250120	0.000677	6.769704	2.293638	0.054044
  59	2.9000e-02	2.2812	10.480007	0.000576	5.759301	1.951304	0.045977
  60	2.9500e-02	2.3101	10.681662	0.000505	5.052018	1.711670	0.040331
  61	3.0000e-02	2.3422	11.012376	0.000829	8.285310	2.807139	0.066143
  62	3.0500e-02	2.3887	11.347123	0.000839	8.386350	2.841372	0.066949
  63	3.1000e-02	2.4368	11.488281	0.000354	3.536413	1.198169	0.028232
  64	3.1500e-02	2.4817	11.706069	0.000546	5.456180	1.848604	0.043557
  65	3.2000e-02	2.5219	11.919823	0.000536	5.355139	1.814370	0.042751
  66	3.2500e-02	2.5636	12.210206	0.000727	7.274906	2.464805	0.058077
  67	3.3000e-02	2.5956	12.504622	0.000738	7.375946	2.499038	0.058883
  68	3.3500e-02	2.6358	12.774840	0.000677	6.769704	2.293638	0.054044
  69	3.4000e-02	2.6807	12.992627	0.000546	5.456180	1.848604	0.043557
  70	3.4500e-02	2.7144	13.174117	0.000455	4.546816	1.540503	0.036298
  71	3.5000e-02	2.7577	13.452400	0.000697	6.971785	2.362105	0.055657
  72	3.5500e-02	2.8026	13.742783	0.000727	7.274906	2.464805	0.058077
  73	3.6000e-02	2.8443	13.968637	0.000566	5.658260	1.917070	0.045171
  74	3.6500e-02	2.8796	14.246921	0.000697	6.971785	2.362105	0.055657
  75	3.7000e-02	2.9165	14.351781	0.000263	2.627049	0.890068	0.020972
  76	3.7500e-02	2.9614	14.621999	0.000677	6.769704	2.293638	0.054044
  77	3.8000e-02	3.0031	14.940614	0.000798	7.982189	2.704439	0.063723
  78	3.8500e-02	3.0320	15.174533	0.000586	5.860341	1.985537	0.046784
  79	3.9000e-02	3.0657	15.452817	0.000697	6.971785	2.362105	0.055657
  80	3.9500e-02	3.1154	15.714969	0.000657	6.567624	2.225171	0.052430
  81	4.0000e-02	3.1539	15.860160	0.000364	3.637453	1.232402	0.029038
  82	4.0500e-02	3.1876	16.174742	0.000788	7.881148	2.670205	0.062916
  83	4.1000e-02	3.2389	16.432860	0.000647	6.466583	2.190938	0.051624
  84	4.1500e-02	3.2726	16.674846	0.000606	6.062422	2.054004	0.048397
  85	4.2000e-02	3.3192	16.880534	0.000515	5.153058	1.745903	0.041138
  86	4.2500e-02	3.3464	17.086222	0.000515	5.153058	1.745903	0.041138
  87	4.3000e-02	3.3946	17.263679	0.000445	4.445776	1.506270	0.035491
  88	4.3500e-02	3.4347	17.586326	0.000808	8.083229	2.738672	0.064530
  89	4.4000e-02	3.4732	17.820246	0.000586	5.860341	1.985537	0.046784
  90	4.4500e-02	3.5181	18.118695	0.000748	7.476987	2.533272	0.059690
  91	4.5000e-02	3.5470	18.384880	0.000667	6.668664	2.259404	0.053237
  92	4.5500e-02	3.5967	18.711561	0.000818	8.184269	2.772906	0.065336
  93	4.6000e-02	3.6416	18.800289	0.000222	2.222888	0.753135	0.017746
  94	4.6500e-02	3.6881	19.090672	0.000727	7.274906	2.464805	0.058077
  95	4.7000e-02	3.7170	19.336691	0.000616	6.163462	2.088237	0.049204
  96	4.7500e-02	3.7539	19.619008	0.000707	7.072825	2.396338	0.056463
  97	4.8000e-02	3.7924	19.772266	0.000384	3.839534	1.300869	0.030652
  98	4.8500e-02	3.8341	20.050550	0.000697	6.971785	2.362105	0.055657
  99	4.9000e-02	3.8742	20.344966	0.000738	7.375946	2.499038	0.058883
 100	4.9500e-02	3.9207	20.586952	0.000606	6.062422	2.054004	0.048397
 101	5.0000e-02	3.9592	20.828938	0.000606	6.062422	2.054004	0.048397
 102	5.0500e-02	3.9945	21.002361	0.000434	4.344736	1.472036	0.034685
 103	5.1000e-02	4.0362	21.252413	0.000626	6.264502	2.122471	0.050010
 104	5.1500e-02	4.0748	21.502465	0.000626	6.264502	2.122471	0.050010
 105	5.2000e-02	4.1149	21.740418	0.000596	5.961381	2.019771	0.047591
 106	5.2500e-02	4.1598	21.986437	0.000616	6.163462	2.088237	0.049204
 107	5.3000e-02	4.2015	22.228423	0.000606	6.062422	2.054004	0.048397
 108	5.3500e-02	4.2336	22.619634	0.000980	9.800915	3.320640	0.078242
 109	5.4000e-02	4.2769	22.732560	0.000283	2.829130	0.958535	0.022585
 110	5.4500e-02	4.3154	22.885818	0.000384	3.839534	1.300869	0.030652
 111	5.5000e-02	4.3571	23.240731	0.000889	8.891552	3.012539	0.070983
 112	5.5500e-02	4.3988	23.478684	0.000596	5.961381	2.019771	0.047591
 113	5.6000e-02	4.4373	23.676305	0.000495	4.950978	1.677437	0.039524
 114	5.6500e-02	4.4822	23.950556	0.000687	6.870745	2.327871	0.054850
 115	5.7000e-02	4.5159	24.212707	0.000657	6.567624	2.225171	0.052430
 116	5.7500e-02	4.5544	24.365965	0.000384	3.839534	1.300869	0.030652
 117	5.8000e-02	4.5961	24.620050	0.000637	6.365543	2.156704	0.050817
 118	5.8500e-02	4.6426	24.898334	0.000697	6.971785	2.362105	0.055657
 119	5.9000e-02	4.6763	25.132254	0.000586	5.860341	1.985537	0.046784
 120	5.9500e-02	4.7197	25.374240	0.000606	6.062422	2.054004	0.048397
 121	6.0000e-02	4.7533	25.648491	0.000687	6.870745	2.327871	0.054850
 122	6.0500e-02	4.8047	25.914675	0.000667	6.668664	2.259404	0.053237
 123	6.1000e-02	4.8512	26.043734	0.000323	3.233292	1.095469	0.025812
 124	6.1500e-02	4.8833	26.350250	0.000768	7.679068	2.601738	0.061303
 125	6.2000e-02	4.9138	26.640633	0.000727	7.274906	2.464805	0.058077
 126	6.2500e-02	4.9619	26.874553	0.000586	5.860341	1.985537	0.046784
 127	6.3000e-02	5.0020	27.043943	0.000424	4.243695	1.437803	0.033878
 128	6.3500e-02	5.0293	27.346425	0.000758	7.578027	2.567505	0.060496
 129	6.4000e-02	5.0806	27.560179	0.000536	5.355139	1.814370	0.042751
 130	6.4500e-02	5.1191	27.802165	0.000606	6.062422	2.054004	0.048397
 131	6.5000e-02	5.1560	28.032052	0.000576	5.759301	1.951304	0.045977
 132	6.5500e-02	5.1961	28.209508	0.000445	4.445776	1.506270	0.035491
 133	6.6000e-02	5.2394	28.455527	0.000616	6.163462	2.088237	0.049204
 134	6.6500e-02	5.2779	28.770109	0.000788	7.881148	2.670205	0.062916
 135	6.7000e-02	5.3196	29.028227	0.000647	6.466583	2.190938	0.051624
 136	6.7500e-02	5.3549	29.181485	0.000384	3.839534	1.300869	0.030652
 137	6.8000e-02	5.3998	29.504133	0.000808	8.083229	2.738672	0.064530
 138	6.8500e-02	5.4383	29.790483	0.000717	7.173866	2.430571	0.057270
 139	6.9000e-02	5.4704	29.923575	0.000333	3.334332	1.129702	0.026618
 140	6.9500e-02	5.5170	30.185726	0.000657	6.567624	2.225171	0.052430
 141	7.0000e-02	5.5571	30.480143	0.000738	7.375946	2.499038	0.058883
 142	7.0500e-02	5.6004	30.697930	0.000546	5.456180	1.848604	0.043557
 143	7.1000e-02	5.6309	30.923784	0.000566	5.658260	1.917070	0.045171
 144	7.1500e-02	5.6838	31.044776	0.000303	3.031211	1.027002	0.024199
 145	7.2000e-02	5.7319	31.355325	0.000778	7.780108	2.635972	0.062110
 146	7.2500e-02	5.7560	31.504550	0.000374	3.738493	1.266636	0.029845
 147	7.3000e-02	5.7993	31.895760	0.000980	9.800915	3.320640	0.078242
 148	7.3500e-02	5.8330	32.032886	0.000344	3.435372	1.163936	0.027425
 149	7.4000e-02	5.8779	32.278905	0.000616	6.163462	2.088237	0.049204
 150	7.4500e-02	5.9100	32.613652	0.000839	8.386350	2.841372	0.066949
 151	7.5000e-02	5.9501	32.718512	0.000263	2.627049	0.890068	0.020972
 152	7.5500e-02	5.9966	32.984697	0.000667	6.668664	2.259404	0.053237
 153	7.6000e-02	6.0415	33.291212	0.000768	7.679068	2.601738	0.061303
 154	7.6500e-02	6.0881	33.513033	0.000556	5.557220	1.882837	0.044364
 155	7.7000e-02	6.1185	33.755019	0.000606	6.062422	2.054004	0.048397
 156	7.7500e-02	6.1538	34.029269	0.000687	6.870745	2.327871	0.054850
 157	7.8000e-02	6.2068	34.170428	0.000354	3.536413	1.198169	0.028232
 158	7.8500e-02	6.2437	34.408381	0.000596	5.961381	2.019771	0.047591
 159	7.9000e-02	6.2758	34.646334	0.000596	5.961381	2.019771	0.047591
 160	7.9500e-02	6.3239	34.932684	0.000717	7.173866	2.430571	0.057270
 161	8.0000e-02	6.3512	35.138372	0.000515	5.153058	1.745903	0.041138
 162	8.0500e-02	6.3993	35.356159	0.000546	5.456180	1.848604	0.043557
 163	8.1000e-02	6.4426	35.686873	0.000829	8.285310	2.807139	0.066143
 164	8.1500e-02	6.4795	35.900627	0.000536	5.355139	1.814370	0.042751
 165	8.2000e-02	6.5212	36.061951	0.000404	4.041614	1.369336	0.032265
 166	8.2500e-02	6.5533	36.291838	0.000576	5.759301	1.951304	0.045977
 167	8.3000e-02	6.5950	36.562055	0.000677	6.769704	2.293638	0.054044
 168	8.3500e-02	6.6335	36.723379	0.000404	4.041614	1.369336	0.032265
 169	8.4000e-02	6.6848	36.945200	0.000556	5.557220	1.882837	0.044364
 170	8.4500e-02	6.7121	37.215417	0.000677	6.769704	2.293638	0.054044
 171	8.5000e-02	6.7683	37.441271	0.000566	5.658260	1.917070	0.045171
 172	8.5500e-02	6.8003	37.679224	0.000596	5.961381	2.019771	0.047591
 173	8.6000e-02	6.8404	37.856680	0.000445	4.445776	1.506270	0.035491
 174	8.6500e-02	6.8725	38.022037	0.000414	4.142655	1.403569	0.033071
 175	8.7000e-02	6.9175	38.300321	0.000697	6.971785	2.362105	0.055657
 176	8.7500e-02	6.9576	38.566505	0.000667	6.668664	2.259404	0.053237
 177	8.8000e-02	6.9896	38.760094	0.000485	4.849937	1.643203	0.038718
 178	8.8500e-02	7.0426	39.006113	0.000616	6.163462	2.088237	0.049204
 179	8.9000e-02	7.0843	39.195669	0.000475	4.748897	1.608970	0.037911
 180	8.9500e-02	7.1164	39.486052	0.000727	7.274906	2.464805	0.058077
 181	9.0000e-02	7.1453	39.699806	0.000536	5.355139	1.814370	0.042751
 182	9.0500e-02	7.2030	39.961958	0.000657	6.567624	2.225171	0.052430
 183	9.1000e-02	7.2319	40.151513	0.000475	4.748897	1.608970	0.037911
 184	9.1500e-02	7.2784	40.413665	0.000657	6.567624	2.225171	0.052430
 185	9.2000e-02	7.3217	40.615319	0.000505	5.052018	1.711670	0.040331
 186	9.2500e-02	7.3474	40.829074	0.000536	5.355139	1.814370	0.042751
 187	9.3000e-02	7.4003	40.998464	0.000424	4.243695	1.437803	0.033878
 188	9.3500e-02	7.4452	41.292880	0.000738	7.375946	2.499038	0.058883
 189	9.4000e-02	7.4854	41.466303	0.000434	4.344736	1.472036	0.034685
 190	9.4500e-02	7.5094	41.676024	0.000525	5.254099	1.780137	0.041944
 191	9.5000e-02	7.5624	41.922043	0.000616	6.163462	2.088237	0.049204
 192	9.5500e-02	7.5976	42.196294	0.000687	6.870745	2.327871	0.054850
 193	9.6000e-02	7.6426	42.458446	0.000657	6.567624	2.225171	0.052430
 194	9.6500e-02	7.6811	42.611703	0.000384	3.839534	1.300869	0.030652
 195	9.7000e-02	7.7164	42.910153	0.000748	7.476987	2.533272	0.059690
 196	9.7500e-02	7.7613	43.103741	0.000485	4.849937	1.643203	0.038718
 197	9.8000e-02	7.8014	43.377992	0.000687	6.870745	2.327871	0.054850
 198	9.8500e-02	7.8431	43.583680	0.000515	5.153058	1.745903	0.041138
 199	9.9000e-02	7.8768	43.712739	0.000323	3.233292	1.095469	0.025812
 200	9.9500e-02	7.9185	44.031354	0.000798	7.982189	2.704439	0.063723
 201	1.0000e-01	7.9618	44.176546	0.000364	3.637453	1.232402	0.029038
 202	1.0050e-01	7.9987	44.394333	0.000546	5.456180	1.848604	0.043557
 203	1.0100e-01	8.0436	44.672617	0.000697	6.971785	2.362105	0.055657
 204	1.0150e-01	8.0773	44.866205	0.000485	4.849937	1.643203	0.038718
 205	1.0200e-01	8.1206	45.071893	0.000515	5.153058	1.745903	0.041138
 206	1.0250e-01	8.1559	45.309846	0.000596	5.961381	2.019771	0.047591
 207	1.0300e-01	8.2024	45.551832	0.000606	6.062422	2.054004	0.048397
 208	1.0350e-01	8.2345	45.741388	0.000475	4.748897	1.608970	0.037911
 209	1.0400e-01	8.2730	45.995473	0.000637	6.365543	2.156704	0.050817
 210	1.0450e-01	8.3196	46.221327	0.000566	5.658260	1.917070	0.045171
 211	1.0500e-01	8.3613	46.463312	0.000606	6.062422	2.054004	0.048397
 212	1.0550e-01	8.4062	46.681100	0.000546	5.456180	1.848604	0.043557
 213	1.0600e-01	8.4383	46.874689	0.000485	4.849937	1.643203	0.038718
 214	1.0650e-01	8.4720	47.148939	0.000687	6.870745	2.327871	0.054850
 215	1.0700e-01	8.5153	47.290098	0.000354	3.536413	1.198169	0.028232
 216	1.0750e-01	8.5618	47.584514	0.000738	7.375946	2.499038	0.058883
 217	1.0800e-01	8.6035	47.701474	0.000293	2.930170	0.992769	0.023392
 218	1.0850e-01	8.6436	47.927327	0.000566	5.658260	1.917070	0.045171
 219	1.0900e-01	8.6789	48.229810	0.000758	7.578027	2.567505	0.060496
 220	1.0950e-01	8.7126	48.443564	0.000536	5.355139	1.814370	0.042751
 221	1.1000e-01	8.7479	48.633119	0.000475	4.748897	1.608970	0.037911
 222	1.1050e-01	8.7928	48.814609	0.000455	4.546816	1.540503	0.036298
 223	1.1100e-01	8.8393	49.068694	0.000637	6.365543	2.156704	0.050817
 224	1.1150e-01	8.8746	49.322779	0.000637	6.365543	2.156704	0.050817
 225	1.1200e-01	8.9147	49.480070	0.000394	3.940574	1.335103	0.031458
 226	1.1250e-01	8.9628	49.653493	0.000434	4.344736	1.472036	0.034685
 227	1.1300e-01	8.9965	49.847082	0.000485	4.849937	1.643203	0.038718
 228	1.1350e-01	9.0350	50.085035	0.000596	5.961381	2.019771	0.047591
 229	1.1400e-01	9.0751	50.355253	0.000677	6.769704	2.293638	0.054044
 230	1.1450e-01	9.1185	50.605305	0.000626	6.264502	2.122471	0.050010
 231	1.1500e-01	9.1602	50.810993	0.000515	5.153058	1.745903	0.041138
 232	1.1550e-01	9.1955	51.016681	0.000515	5.153058	1.745903	0.041138
 233	1.1600e-01	9.2404	51.307064	0.000727	7.274906	2.464805	0.058077
 234	1.1650e-01	9.2853	51.488553	0.000455	4.546816	1.540503	0.036298
 235	1.1700e-01	9.3142	51.674076	0.000465	4.647857	1.574736	0.037105
 236	1.1750e-01	9.3607	51.895896	0.000556	5.557220	1.882837	0.044364
 237	1.1800e-01	9.3928	52.101584	0.000515	5.153058	1.745903	0.041138
 238	1.1850e-01	9.4393	52.254842	0.000384	3.839534	1.300869	0.030652
 239	1.1900e-01	9.4826	52.428265	0.000434	4.344736	1.472036	0.034685
 240	1.1950e-01	9.5195	52.682350	0.000637	6.365543	2.156704	0.050817
 241	1.2000e-01	9.5532	52.879972	0.000495	4.950978	1.677437	0.039524
 242	1.2050e-01	9.6013	53.134058	0.000637	6.365543	2.156704	0.050817
 243	1.2100e-01	9.6446	53.380077	0.000616	6.163462	2.088237	0.049204
 244	1.2150e-01	9.6799	53.618029	0.000596	5.961381	2.019771	0.047591
 245	1.2200e-01	9.7249	53.799519	0.000455	4.546816	1.540503	0.036298
 246	1.2250e-01	9.7585	54.057637	0.000647	6.466583	2.190938	0.051624
 247	1.2300e-01	9.8003	54.174597	0.000293	2.930170	0.992769	0.023392
 248	1.2350e-01	9.8323	54.307689	0.000333	3.334332	1.129702	0.026618
 249	1.2400e-01	9.8773	54.594039	0.000717	7.173866	2.430571	0.057270
 250	1.2450e-01	9.9238	54.852158	0.000647	6.466583	2.190938	0.051624
 251	1.2500e-01	9.9543	55.078011	0.000566	5.658260	1.917070	0.045171
 252	1.2550e-01	9.9992	55.283699	0.000515	5.153058	1.745903	0.041138
 253	1.2600e-01	10.0345	55.324030	0.000101	1.010404	0.342334	0.008066
 254	1.2650e-01	10.0714	55.602314	0.000697	6.971785	2.362105	0.055657
 255	1.2700e-01	10.1211	55.779770	0.000445	4.445776	1.506270	0.035491
 256	1.2750e-01	10.1532	56.122584	0.000859	8.588431	2.909839	0.068563
 257	1.2800e-01	10.1949	56.336338	0.000536	5.355139	1.814370	0.042751
 258	1.2850e-01	10.2398	56.493629	0.000394	3.940574	1.335103	0.031458
 259	1.2900e-01	10.2767	56.860641	0.000919	9.194673	3.115240	0.073402
 260	1.2950e-01	10.3184	56.913071	0.000131	1.313525	0.445034	0.010486
 261	1.3000e-01	10.3617	57.215553	0.000758	7.578027	2.567505	0.060496
 262	1.3050e-01	10.4018	57.405109	0.000475	4.748897	1.608970	0.037911
 263	1.3100e-01	10.4339	57.550301	0.000364	3.637453	1.232402	0.029038
 264	1.3150e-01	10.4740	57.739856	0.000475	4.748897	1.608970	0.037911
 265	1.3200e-01	10.5206	57.985875	0.000616	6.163462	2.088237	0.049204
 266	1.3250e-01	10.5542	58.110901	0.000313	3.132251	1.061235	0.025005
