»»»»»»»»»»»»»»»»»»»»»»»»»»»»»»»»»»»» Hysteresis ««««««««««««««««««««««««««««««««««««
»»»  Executed Version:	5.48.1
»»»  Vision Version:	5.48.4 (R)
»»»  Vision Compiled:	9/18/24
»»»  Driver Version:	5.47.0
»»»  Windows Version:	Windows 8 or 8.1
»»»  Processor Information:	x86 (AMD or Intel) - 32 Processors
»»»  Tester Name:	PMF21124-494 (100V)
»»»  Tester S/N:	PMF21124-494
»»»  Internal Amp Type:	100V RevK 270k
»»»  Internal Amp S/N:	iAB2-596/K     
»»»  Execution Count:	1
»»»»»»»»»»»»»»»»»»»»»»»»»»»»»»»»»»»»»»»»»»««««««««««««««««««««««««««««««««««««««««««

Stored:	6/6/2025 - 11:49:32
Configured:	06/06/25 11:06:04 AM
Executed:	06/06/25 11:49:01 AM

»»»»»»»»»»»»»»»»»»»»»»»»»»»»»»»»»»» Sample Info ««««««««««««««««««««««««««««««««««««
Sample Name:	
Lot Name:	
Wafer Name:	
Die Row/Column:	0/0
Capacitor Number:	0
Sample Area (cm2):	1.00e-04
Sample Thickness (microns):	3.00e-01

Amplifier:	Internal

»»»»»»»»»»»»»»»»»»»»»»»»»»»»»»»»»»» Tester Info «««««««««««««««««««««««««««««««««««
Tester Name:	PMF21124-494 (100V)
Tester Serial Number:	PMF21124-494
Return Signal Amp. Level:	0.19 [Index: 3]

»»»»»»»»»»»»»»»»»»»»»»»»»»»»»»»» Hysteresis Info ««««««««««««««««««««««««««««««««««
Task Name:	Hyst-477
Volts:	20.00
Field:	666.67 (kV/cm)
DCBias:	0.00
DCField:	0.00 (kV/cm)
Hysteresis Period (ms):	1.00e+00
Preset:	Enabled
Preset Delay (ms):	1.00e+03
Profile:	Standard Bipolar

»»»»»»»»»»»»»»»»»»»»»»»»»»»»»»»»»»»»»» Data «««««««««««««««««««««««««««««««««««««««
Points:	2001

Valid Data

Point	Time (ms)	Drive Voltage	Measured Polarization (uC/cm2)	Capacitance (uF)	Normalized Capacitance (uF/cm2)	Dielectric Constant	Instantaneous Current (mA)
   1	0.0000e+00	0.0096	-0.608998	0.000687	6.869640	2.327497	0.054850
   2	5.0000e-04	0.0176	-0.334747	0.000687	6.869640	2.327497	0.054850
   3	1.0000e-03	0.0578	-0.266185	0.000172	1.717410	0.581874	0.013713
   4	1.5000e-03	0.0882	-0.173423	0.000232	2.323555	0.787242	0.018552
   5	2.0000e-03	0.1235	-0.048397	0.000313	3.131748	1.061065	0.025005
   6	2.5000e-03	0.1524	0.092761	0.000354	3.535844	1.197976	0.028232
   7	3.0000e-03	0.2053	0.334747	0.000606	6.061447	2.053674	0.048397
   8	3.5000e-03	0.2454	0.717892	0.000960	9.597291	3.251650	0.076629
   9	4.0000e-03	0.2775	0.988109	0.000677	6.768616	2.293269	0.054044
  10	4.5000e-03	0.3273	1.189764	0.000505	5.051206	1.711395	0.040331
  11	5.0000e-03	0.3610	1.560809	0.000929	9.294219	3.148967	0.074209
  12	5.5000e-03	0.4043	1.855225	0.000737	7.374761	2.498637	0.058883
  13	6.0000e-03	0.4412	1.778596	-0.000192	-1.919458	-0.650330	-0.015326
  14	6.5000e-03	0.4877	2.133509	0.000889	8.890123	3.012055	0.070983
  15	7.0000e-03	0.5214	2.484389	0.000879	8.789099	2.977827	0.070176
  16	7.5000e-03	0.5631	2.754606	0.000677	6.768616	2.293269	0.054044
  17	8.0000e-03	0.6032	2.879632	0.000313	3.131748	1.061065	0.025005
  18	8.5000e-03	0.6513	3.073221	0.000485	4.849158	1.642939	0.038718
  19	9.0000e-03	0.6802	3.258744	0.000465	4.647110	1.574483	0.037105
  20	9.5000e-03	0.7187	3.508796	0.000626	6.263496	2.122130	0.050010
  21	1.0000e-02	0.7540	3.851609	0.000859	8.587050	2.909371	0.068563
  22	1.0500e-02	0.7957	3.992768	0.000354	3.535844	1.197976	0.028232
  23	1.1000e-02	0.8390	4.162158	0.000424	4.243013	1.437572	0.033878
  24	1.1500e-02	0.8775	4.444475	0.000707	7.071688	2.395953	0.056463
  25	1.2000e-02	0.9192	4.666295	0.000556	5.556327	1.882534	0.044364
  26	1.2500e-02	0.9609	4.964744	0.000748	7.475785	2.532865	0.059690
  27	1.3000e-02	1.0042	5.113969	0.000374	3.737892	1.266432	0.029845
  28	1.3500e-02	1.0508	5.295458	0.000455	4.546085	1.540255	0.036298
  29	1.4000e-02	1.0829	5.460816	0.000414	4.141989	1.403344	0.033071
  30	1.4500e-02	1.1149	5.856059	0.000990	9.900364	3.354334	0.079049
  31	1.5000e-02	1.1647	6.142409	0.000717	7.172713	2.430181	0.057270
  32	1.5500e-02	1.1935	6.392461	0.000626	6.263496	2.122130	0.050010
  33	1.6000e-02	1.2385	6.650580	0.000647	6.465544	2.190586	0.051624
  34	1.6500e-02	1.2834	6.658646	0.000020	0.202048	0.068456	0.001613
  35	1.7000e-02	1.3155	7.033724	0.000940	9.395243	3.183195	0.075016
  36	1.7500e-02	1.3604	7.340239	0.000768	7.677833	2.601320	0.061303
  37	1.8000e-02	1.3973	7.521729	0.000455	4.546085	1.540255	0.036298
  38	1.8500e-02	1.4422	7.844377	0.000808	8.081930	2.738232	0.064530
  39	1.9000e-02	1.4791	8.138793	0.000737	7.374761	2.498637	0.058883
  40	1.9500e-02	1.5336	8.300117	0.000404	4.040965	1.369116	0.032265
  41	2.0000e-02	1.5641	8.376746	0.000192	1.919458	0.650330	0.015326
  42	2.0500e-02	1.6058	8.550169	0.000434	4.344037	1.471800	0.034685
  43	2.1000e-02	1.6459	8.949446	0.001000	10.001388	3.388562	0.079855
  44	2.1500e-02	1.6812	9.130935	0.000455	4.546085	1.540255	0.036298
  45	2.2000e-02	1.7278	9.433418	0.000758	7.576809	2.567092	0.060496
  46	2.2500e-02	1.7679	9.510047	0.000192	1.919458	0.650330	0.015326
  47	2.3000e-02	1.8128	9.691536	0.000455	4.546085	1.540255	0.036298
  48	2.3500e-02	1.8433	10.078713	0.000970	9.698316	3.285878	0.077435
  49	2.4000e-02	1.8786	10.292468	0.000535	5.354278	1.814079	0.042751
  50	2.4500e-02	1.9203	10.566718	0.000687	6.869640	2.327497	0.054850
  51	2.5000e-02	1.9636	10.828870	0.000657	6.566568	2.224813	0.052430
  52	2.5500e-02	2.0085	10.986161	0.000394	3.939941	1.334888	0.031458
  53	2.6000e-02	2.0486	11.337040	0.000879	8.789099	2.977827	0.070176
  54	2.6500e-02	2.0871	11.486265	0.000374	3.737892	1.266432	0.029845
  55	2.7000e-02	2.1240	11.776648	0.000727	7.273737	2.464409	0.058077
  56	2.7500e-02	2.1609	11.986369	0.000525	5.253254	1.779851	0.041944
  57	2.8000e-02	2.2058	12.373547	0.000970	9.698316	3.285878	0.077435
  58	2.8500e-02	2.2411	12.385646	0.000030	0.303072	0.102684	0.002420
  59	2.9000e-02	2.2780	12.619566	0.000586	5.859399	1.985218	0.046784
  60	2.9500e-02	2.3165	12.942213	0.000808	8.081930	2.738232	0.064530
  61	3.0000e-02	2.3630	13.224530	0.000707	7.071688	2.395953	0.056463
  62	3.0500e-02	2.3983	13.539112	0.000788	7.879881	2.669776	0.062916
  63	3.1000e-02	2.4416	13.740767	0.000505	5.051206	1.711395	0.040331
  64	3.1500e-02	2.4785	14.107779	0.000919	9.193195	3.114739	0.073402
  65	3.2000e-02	2.5219	14.216673	0.000273	2.727651	0.924153	0.021779
  66	3.2500e-02	2.5684	14.498989	0.000707	7.071688	2.395953	0.056463
  67	3.3000e-02	2.6037	14.607883	0.000273	2.727651	0.924153	0.021779
  68	3.3500e-02	2.6422	14.809538	0.000505	5.051206	1.711395	0.040331
  69	3.4000e-02	2.6903	15.019259	0.000525	5.253254	1.779851	0.041944
  70	3.4500e-02	2.7192	15.358039	0.000849	8.486026	2.875143	0.067756
  71	3.5000e-02	2.7641	15.511297	0.000384	3.838917	1.300660	0.030652
  72	3.5500e-02	2.8074	15.842011	0.000828	8.283978	2.806688	0.066143
  73	3.6000e-02	2.8395	16.152560	0.000778	7.778857	2.635548	0.062110
  74	3.6500e-02	2.8764	16.378413	0.000566	5.657351	1.916762	0.045171
  75	3.7000e-02	2.9213	16.576035	0.000495	4.950182	1.677167	0.039524
  76	3.7500e-02	2.9614	17.043875	0.001172	11.718798	3.970436	0.093568
  77	3.8000e-02	3.0015	17.051941	0.000020	0.202048	0.068456	0.001613
  78	3.8500e-02	3.0464	17.318125	0.000667	6.667592	2.259041	0.053237
  79	3.9000e-02	3.0785	17.616575	0.000748	7.475785	2.532865	0.059690
  80	3.9500e-02	3.1299	17.806130	0.000475	4.748134	1.608711	0.037911
  81	4.0000e-02	3.1668	17.878726	0.000182	1.818434	0.616102	0.014519
  82	4.0500e-02	3.2053	18.249771	0.000929	9.294219	3.148967	0.074209
  83	4.1000e-02	3.2406	18.540154	0.000727	7.273737	2.464409	0.058077
  84	4.1500e-02	3.2839	18.858769	0.000798	7.980906	2.704004	0.063723
  85	4.2000e-02	3.3208	19.112854	0.000636	6.364520	2.156358	0.050817
  86	4.2500e-02	3.3657	19.346774	0.000586	5.859399	1.985218	0.046784
  87	4.3000e-02	3.4106	19.342741	-0.000010	-0.101024	-0.034228	-0.000807
  88	4.3500e-02	3.4475	19.621025	0.000697	6.970664	2.361725	0.055657
  89	4.4000e-02	3.4748	19.826713	0.000515	5.152230	1.745623	0.041138
  90	4.4500e-02	3.5309	20.109030	0.000707	7.071688	2.395953	0.056463
  91	4.5000e-02	3.5662	20.637366	0.001323	13.234160	4.483855	0.105667
  92	4.5500e-02	3.6111	20.665597	0.000071	0.707169	0.239595	0.005646
  93	4.6000e-02	3.6528	20.911616	0.000616	6.162471	2.087902	0.049204
  94	4.6500e-02	3.6913	21.129404	0.000546	5.455303	1.848307	0.043557
  95	4.7000e-02	3.7330	21.302827	0.000434	4.344037	1.471800	0.034685
  96	4.7500e-02	3.7667	21.617409	0.000788	7.879881	2.669776	0.062916
  97	4.8000e-02	3.7956	22.000553	0.000960	9.597291	3.251650	0.076629
  98	4.8500e-02	3.8357	22.117513	0.000293	2.929700	0.992609	0.023392
  99	4.9000e-02	3.8855	22.387730	0.000677	6.768616	2.293269	0.054044
 100	4.9500e-02	3.9256	22.605518	0.000546	5.455303	1.848307	0.043557
 101	5.0000e-02	3.9673	22.867669	0.000657	6.566568	2.224813	0.052430
 102	5.0500e-02	4.0010	22.936232	0.000172	1.717410	0.581874	0.013713
 103	5.1000e-02	4.0427	23.456501	0.001303	13.032112	4.415399	0.104054
 104	5.1500e-02	4.0780	23.601693	0.000364	3.636868	1.232204	0.029038
 105	5.2000e-02	4.1149	23.924341	0.000808	8.081930	2.738232	0.064530
 106	5.2500e-02	4.1662	23.948540	0.000061	0.606145	0.205367	0.004840
 107	5.3000e-02	4.1951	24.359916	0.001030	10.304460	3.491246	0.082275
 108	5.3500e-02	4.2464	24.424445	0.000162	1.616386	0.547646	0.012906
 109	5.4000e-02	4.2817	24.819689	0.000990	9.900364	3.354334	0.079049
 110	5.4500e-02	4.3186	24.855987	0.000091	0.909217	0.308051	0.007260
 111	5.5000e-02	4.3667	25.263330	0.001020	10.203436	3.457018	0.081469
 112	5.5500e-02	4.4052	25.614209	0.000879	8.789099	2.977827	0.070176
 113	5.6000e-02	4.4501	25.658573	0.000111	1.111265	0.376507	0.008873
 114	5.6500e-02	4.4854	25.779566	0.000303	3.030724	1.026837	0.024199
 115	5.7000e-02	4.5239	26.037685	0.000647	6.465544	2.190586	0.051624
 116	5.7500e-02	4.5624	26.440994	0.001010	10.102412	3.422790	0.080662
 117	5.8000e-02	4.5993	26.711212	0.000677	6.768616	2.293269	0.054044
 118	5.8500e-02	4.6491	26.953198	0.000606	6.061447	2.053674	0.048397
 119	5.9000e-02	4.6844	27.179051	0.000566	5.657351	1.916762	0.045171
 120	5.9500e-02	4.7245	27.505732	0.000818	8.182954	2.772460	0.065336
 121	6.0000e-02	4.7678	27.900976	0.000990	9.900364	3.354334	0.079049
 122	6.0500e-02	4.7999	27.965506	0.000162	1.616386	0.547646	0.012906
 123	6.1000e-02	4.8480	28.235723	0.000677	6.768616	2.293269	0.054044
 124	6.1500e-02	4.8929	28.364782	0.000323	3.232772	1.095293	0.025812
 125	6.2000e-02	4.9314	28.518040	0.000384	3.838917	1.300660	0.030652
 126	6.2500e-02	4.9619	28.993946	0.001192	11.920846	4.038892	0.095181
 127	6.3000e-02	5.0116	29.090740	0.000242	2.424579	0.821470	0.019359
 128	6.3500e-02	5.0469	29.219799	0.000323	3.232772	1.095293	0.025812
 129	6.4000e-02	5.0870	29.655374	0.001091	10.910605	3.696613	0.087115
 130	6.4500e-02	5.1303	29.897360	0.000606	6.061447	2.053674	0.048397
 131	6.5000e-02	5.1688	30.054651	0.000394	3.939941	1.334888	0.031458
 132	6.5500e-02	5.2025	30.413597	0.000899	8.991147	3.046283	0.071789
 133	6.6000e-02	5.2426	30.502325	0.000222	2.222531	0.753014	0.017746
 134	6.6500e-02	5.2779	30.768509	0.000667	6.667592	2.259041	0.053237
 135	6.7000e-02	5.3293	31.030661	0.000657	6.566568	2.224813	0.052430
 136	6.7500e-02	5.3726	31.252481	0.000556	5.556327	1.882534	0.044364
 137	6.8000e-02	5.4031	31.421871	0.000424	4.243013	1.437572	0.033878
 138	6.8500e-02	5.4400	31.720321	0.000748	7.475785	2.532865	0.059690
 139	6.9000e-02	5.4785	31.897777	0.000445	4.445061	1.506028	0.035491
 140	6.9500e-02	5.5202	32.260756	0.000909	9.092171	3.080511	0.072596
 141	7.0000e-02	5.5619	32.409980	0.000374	3.737892	1.266432	0.029845
 142	7.0500e-02	5.6084	32.776992	0.000919	9.193195	3.114739	0.073402
 143	7.1000e-02	5.6389	32.906051	0.000323	3.232772	1.095293	0.025812
 144	7.1500e-02	5.6838	33.111740	0.000515	5.152230	1.745623	0.041138
 145	7.2000e-02	5.7223	33.357759	0.000616	6.162471	2.087902	0.049204
 146	7.2500e-02	5.7688	33.640075	0.000707	7.071688	2.395953	0.056463
 147	7.3000e-02	5.8089	33.849797	0.000525	5.253254	1.779851	0.041944
 148	7.3500e-02	5.8426	34.075650	0.000566	5.657351	1.916762	0.045171
 149	7.4000e-02	5.8811	34.333768	0.000647	6.465544	2.190586	0.051624
 150	7.4500e-02	5.9260	34.539456	0.000515	5.152230	1.745623	0.041138
 151	7.5000e-02	5.9677	34.757244	0.000546	5.455303	1.848307	0.043557
 152	7.5500e-02	6.0030	35.011329	0.000636	6.364520	2.156358	0.050817
 153	7.6000e-02	6.0447	35.257348	0.000616	6.162471	2.087902	0.049204
 154	7.6500e-02	6.0816	35.567897	0.000778	7.778857	2.635548	0.062110
 155	7.7000e-02	6.1282	35.942975	0.000940	9.395243	3.183195	0.075016
 156	7.7500e-02	6.1586	36.076067	0.000333	3.333796	1.129521	0.026618
 157	7.8000e-02	6.2036	36.213192	0.000343	3.434820	1.163749	0.027425
 158	7.8500e-02	6.2389	36.406781	0.000485	4.849158	1.642939	0.038718
 159	7.9000e-02	6.2822	36.838323	0.001081	10.809581	3.662385	0.086308
 160	7.9500e-02	6.3223	36.955282	0.000293	2.929700	0.992609	0.023392
 161	8.0000e-02	6.3704	37.330361	0.000940	9.395243	3.183195	0.075016
 162	8.0500e-02	6.3929	37.560247	0.000576	5.758375	1.950990	0.045977
 163	8.1000e-02	6.4522	37.858697	0.000748	7.475785	2.532865	0.059690
 164	8.1500e-02	6.4891	37.995822	0.000343	3.434820	1.163749	0.027425
 165	8.2000e-02	6.5196	38.108749	0.000283	2.828675	0.958381	0.022585
 166	8.2500e-02	6.5629	38.415264	0.000768	7.677833	2.601320	0.061303
 167	8.3000e-02	6.6014	38.564489	0.000374	3.737892	1.266432	0.029845
 168	8.3500e-02	6.6367	38.778243	0.000535	5.354278	1.814079	0.042751
 169	8.4000e-02	6.6816	39.157354	0.000950	9.496267	3.217422	0.075822
 170	8.4500e-02	6.7233	39.270281	0.000283	2.828675	0.958381	0.022585
 171	8.5000e-02	6.7570	39.419506	0.000374	3.737892	1.266432	0.029845
 172	8.5500e-02	6.8036	39.806683	0.000970	9.698316	3.285878	0.077435
 173	8.6000e-02	6.8453	39.984140	0.000445	4.445061	1.506028	0.035491
 174	8.6500e-02	6.8838	40.343085	0.000899	8.991147	3.046283	0.071789
 175	8.7000e-02	6.9207	40.536674	0.000485	4.849158	1.642939	0.038718
 176	8.7500e-02	6.9640	40.722197	0.000465	4.647110	1.574483	0.037105
 177	8.8000e-02	7.0089	41.056944	0.000839	8.385002	2.840916	0.066949
 178	8.8500e-02	7.0330	41.113407	0.000141	1.414338	0.479191	0.011293
 179	8.9000e-02	7.0811	41.468320	0.000889	8.890123	3.012055	0.070983
 180	8.9500e-02	7.1260	41.480419	0.000030	0.303072	0.102684	0.002420
 181	9.0000e-02	7.1709	41.811133	0.000828	8.283978	2.806688	0.066143
 182	9.0500e-02	7.2094	42.097483	0.000717	7.172713	2.430181	0.057270
 183	9.1000e-02	7.2399	42.416098	0.000798	7.980906	2.704004	0.063723
 184	9.1500e-02	7.2864	42.650018	0.000586	5.859399	1.985218	0.046784
 185	9.2000e-02	7.3297	42.633885	-0.000040	-0.404096	-0.136912	-0.003226
 186	9.2500e-02	7.3618	42.992831	0.000899	8.991147	3.046283	0.071789
 187	9.3000e-02	7.4051	43.355810	0.000909	9.092171	3.080511	0.072596
 188	9.3500e-02	7.4420	43.662325	0.000768	7.677833	2.601320	0.061303
 189	9.4000e-02	7.4693	43.964808	0.000758	7.576809	2.567092	0.060496
 190	9.4500e-02	7.5190	44.045470	0.000202	2.020482	0.684558	0.016132
 191	9.5000e-02	7.5656	44.275356	0.000576	5.758375	1.950990	0.045977
 192	9.5500e-02	7.6057	44.581872	0.000768	7.677833	2.601320	0.061303
 193	9.6000e-02	7.6378	44.493144	-0.000222	-2.222531	-0.753014	-0.017746
 194	9.6500e-02	7.6811	44.731097	0.000596	5.960423	2.019446	0.047591
 195	9.7000e-02	7.7260	44.985182	0.000636	6.364520	2.156358	0.050817
 196	9.7500e-02	7.7645	45.303797	0.000798	7.980906	2.704004	0.063723
 197	9.8000e-02	7.8046	45.582080	0.000697	6.970664	2.361725	0.055657
 198	9.8500e-02	7.8527	45.711140	0.000323	3.232772	1.095293	0.025812
 199	9.9000e-02	7.8832	46.178979	0.001172	11.718798	3.970436	0.093568
 200	9.9500e-02	7.9249	46.388700	0.000525	5.253254	1.779851	0.041944
 201	1.0000e-01	7.9682	46.485494	0.000242	2.424579	0.821470	0.019359
 202	1.0050e-01	8.0019	46.800076	0.000788	7.879881	2.669776	0.062916
 203	1.0100e-01	8.0452	47.114658	0.000788	7.879881	2.669776	0.062916
 204	1.0150e-01	8.0741	47.284048	0.000424	4.243013	1.437572	0.033878
 205	1.0200e-01	8.1351	47.292114	0.000020	0.202048	0.068456	0.001613
 206	1.0250e-01	8.1623	47.598630	0.000768	7.677833	2.601320	0.061303
 207	1.0300e-01	8.2008	47.961609	0.000909	9.092171	3.080511	0.072596
 208	1.0350e-01	8.2409	48.223760	0.000657	6.566568	2.224813	0.052430
 209	1.0400e-01	8.2810	48.522209	0.000748	7.475785	2.532865	0.059690
 210	1.0450e-01	8.3244	48.723864	0.000505	5.051206	1.711395	0.040331
 211	1.0500e-01	8.3709	48.873089	0.000374	3.737892	1.266432	0.029845
 212	1.0550e-01	8.4046	49.066678	0.000485	4.849158	1.642939	0.038718
 213	1.0600e-01	8.4479	49.353028	0.000717	7.172713	2.430181	0.057270
 214	1.0650e-01	8.4944	49.562749	0.000525	5.253254	1.779851	0.041944
 215	1.0700e-01	8.5217	49.796668	0.000586	5.859399	1.985218	0.046784
 216	1.0750e-01	8.5618	49.861198	0.000162	1.616386	0.547646	0.012906
 217	1.0800e-01	8.6099	50.183846	0.000808	8.081930	2.738232	0.064530
 218	1.0850e-01	8.6420	50.276607	0.000232	2.323555	0.787242	0.018552
 219	1.0900e-01	8.6869	50.566990	0.000727	7.273737	2.464409	0.058077
 220	1.0950e-01	8.7238	50.833175	0.000667	6.667592	2.259041	0.053237
 221	1.1000e-01	8.7511	51.159856	0.000818	8.182954	2.772460	0.065336
 222	1.1050e-01	8.8104	51.365544	0.000515	5.152230	1.745623	0.041138
 223	1.1100e-01	8.8473	51.409908	0.000111	1.111265	0.376507	0.008873
 224	1.1150e-01	8.8794	51.740622	0.000828	8.283978	2.806688	0.066143
 225	1.1200e-01	8.9115	52.075369	0.000839	8.385002	2.840916	0.066949
 226	1.1250e-01	8.9645	52.095535	0.000051	0.505121	0.171139	0.004033
 227	1.1300e-01	8.9949	52.377852	0.000707	7.071688	2.395953	0.056463
 228	1.1350e-01	9.0447	52.821492	0.001111	11.112653	3.765069	0.088728
 229	1.1400e-01	9.0896	52.890055	0.000172	1.717410	0.581874	0.013713
 230	1.1450e-01	9.1345	53.128008	0.000596	5.960423	2.019446	0.047591
 231	1.1500e-01	9.1634	53.317564	0.000475	4.748134	1.608711	0.037911
 232	1.1550e-01	9.2019	53.599880	0.000707	7.071688	2.395953	0.056463
 233	1.1600e-01	9.2420	53.720873	0.000303	3.030724	1.026837	0.024199
 234	1.1650e-01	9.2853	54.003190	0.000707	7.071688	2.395953	0.056463
 235	1.1700e-01	9.3270	54.071753	0.000172	1.717410	0.581874	0.013713
 236	1.1750e-01	9.3639	54.507328	0.001091	10.910605	3.696613	0.087115
 237	1.1800e-01	9.3992	54.805777	0.000748	7.475785	2.532865	0.059690
 238	1.1850e-01	9.4473	55.023564	0.000546	5.455303	1.848307	0.043557
 239	1.1900e-01	9.4794	55.120359	0.000242	2.424579	0.821470	0.019359
 240	1.1950e-01	9.5227	55.261517	0.000354	3.535844	1.197976	0.028232
 241	1.2000e-01	9.5580	55.684992	0.001061	10.607533	3.593929	0.084695
 242	1.2050e-01	9.6094	55.882614	0.000495	4.950182	1.677167	0.039524
 243	1.2100e-01	9.6463	56.064104	0.000455	4.546085	1.540255	0.036298
 244	1.2150e-01	9.6928	56.221395	0.000394	3.939941	1.334888	0.031458
 245	1.2200e-01	9.7281	56.419016	0.000495	4.950182	1.677167	0.039524
 246	1.2250e-01	9.7634	56.600506	0.000455	4.546085	1.540255	0.036298
 247	1.2300e-01	9.8115	56.947352	0.000869	8.688074	2.943599	0.069369
 248	1.2350e-01	9.8372	57.209504	0.000657	6.566568	2.224813	0.052430
 249	1.2400e-01	9.8853	57.382927	0.000434	4.344037	1.471800	0.034685
 250	1.2450e-01	9.9286	57.374861	-0.000020	-0.202048	-0.068456	-0.001613
 251	1.2500e-01	9.9671	57.637012	0.000657	6.566568	2.224813	0.052430
 252	1.2550e-01	10.0040	58.012090	0.000940	9.395243	3.183195	0.075016
 253	1.2600e-01	10.0425	58.254076	0.000606	6.061447	2.053674	0.048397
 254	1.2650e-01	10.0938	58.560592	0.000768	7.677833	2.601320	0.061303
 255	1.2700e-01	10.1243	58.742081	0.000455	4.546085	1.540255	0.036298
 256	1.2750e-01	10.1580	58.992133	0.000626	6.263496	2.122130	0.050010
 257	1.2800e-01	10.2045	59.165556	0.000434	4.344037	1.471800	0.034685
 258	1.2850e-01	10.2494	59.500304	0.000839	8.385002	2.840916	0.066949
 259	1.2900e-01	10.2815	59.746323	0.000616	6.162471	2.087902	0.049204
 260	1.2950e-01	10.3313	59.774554	0.000071	0.707169	0.239595	0.005646
 261	1.3000e-01	10.3666	60.073004	0.000748	7.475785	2.532865	0.059690
 262	1.3050e-01	10.4002	60.246427	0.000434	4.344037	1.471800	0.034685
 263	1.3100e-01	10.4564	60.298857	0.000131	1.313314	0.444963	0.010486
 264	1.3150e-01	10.4837	60.673935	0.000940	9.395243	3.183195	0.075016
 265	1.3200e-01	10.5286	60.887690	0.000535	5.354278	1.814079	0.042751
