»»»»»»»»»»»»»»»»»»»»»»»»»»»»»»»»»»»» Hysteresis ««««««««««««««««««««««««««««««««««««
»»»  Executed Version:	5.48.1
»»»  Vision Version:	5.48.4 (R)
»»»  Vision Compiled:	9/18/24
»»»  Driver Version:	5.47.0
»»»  Windows Version:	Windows 8 or 8.1
»»»  Processor Information:	x86 (AMD or Intel) - 32 Processors
»»»  Tester Name:	PMF21124-494 (100V)
»»»  Tester S/N:	PMF21124-494
»»»  Internal Amp Type:	100V RevK 270k
»»»  Internal Amp S/N:	iAB2-596/K     
»»»  Execution Count:	1
»»»»»»»»»»»»»»»»»»»»»»»»»»»»»»»»»»»»»»»»»»««««««««««««««««««««««««««««««««««««««««««

Stored:	6/5/2025 - 11:18:15
Configured:	06/05/25 10:43:40 AM
Executed:	06/05/25 11:17:36 AM

»»»»»»»»»»»»»»»»»»»»»»»»»»»»»»»»»»» Sample Info ««««««««««««««««««««««««««««««««««««
Sample Name:	
Lot Name:	
Wafer Name:	
Die Row/Column:	0/0
Capacitor Number:	0
Sample Area (cm2):	1.00e-04
Sample Thickness (microns):	3.00e-01

Amplifier:	Internal

»»»»»»»»»»»»»»»»»»»»»»»»»»»»»»»»»»» Tester Info «««««««««««««««««««««««««««««««««««
Tester Name:	PMF21124-494 (100V)
Tester Serial Number:	PMF21124-494
Return Signal Amp. Level:	0.19 [Index: 3]

»»»»»»»»»»»»»»»»»»»»»»»»»»»»»»»» Hysteresis Info ««««««««««««««««««««««««««««««««««
Task Name:	Hyst-187
Volts:	20.00
Field:	666.67 (kV/cm)
DCBias:	0.00
DCField:	0.00 (kV/cm)
Hysteresis Period (ms):	2.00e+02
Preset:	Enabled
Preset Delay (ms):	1.00e+03
Profile:	Standard Bipolar

»»»»»»»»»»»»»»»»»»»»»»»»»»»»»»»»»»»»»» Data «««««««««««««««««««««««««««««««««««««««
Points:	2009

Valid Data

Point	Time (ms)	Drive Voltage	Measured Polarization (uC/cm2)	Capacitance (uF)	Normalized Capacitance (uF/cm2)	Dielectric Constant	Instantaneous Current (mA)
   1	0.0000e+00	-0.0225	-7.719004	0.000496	4.963589	1.681709	0.000199
   2	9.9500e-02	0.0209	-7.521184	0.000496	4.963589	1.681709	0.000199
   3	1.9900e-01	0.0690	-7.206287	0.000790	7.901223	2.677007	0.000316
   4	2.9850e-01	0.1059	-6.887354	0.000800	8.002520	2.711327	0.000321
   5	3.9800e-01	0.1524	-6.584568	0.000760	7.597329	2.574045	0.000304
   6	4.9750e-01	0.1813	-6.253523	0.000831	8.306414	2.814289	0.000333
   7	5.9700e-01	0.2278	-5.934590	0.000800	8.002520	2.711327	0.000321
   8	6.9650e-01	0.2631	-5.607582	0.000821	8.205116	2.779968	0.000329
   9	7.9600e-01	0.3000	-5.268462	0.000851	8.509009	2.882930	0.000341
  10	8.9550e-01	0.3385	-4.977788	0.000729	7.293436	2.471083	0.000292
  11	9.9500e-01	0.3866	-4.602335	0.000942	9.420688	3.191816	0.000377
  12	1.0945e+00	0.4203	-4.287438	0.000790	7.901223	2.677007	0.000316
  13	1.1940e+00	0.4652	-3.952356	0.000841	8.407711	2.848610	0.000337
  14	1.2935e+00	0.4989	-3.572865	0.000952	9.521986	3.226136	0.000381
  15	1.3930e+00	0.5406	-3.253931	0.000800	8.002520	2.711327	0.000321
  16	1.4925e+00	0.5775	-2.934998	0.000800	8.002520	2.711327	0.000321
  17	1.5920e+00	0.6080	-2.583767	0.000881	8.812902	2.985892	0.000353
  18	1.6915e+00	0.6593	-2.252722	0.000831	8.306414	2.814289	0.000333
  19	1.7910e+00	0.6946	-1.941862	0.000780	7.799925	2.642686	0.000312
  20	1.8905e+00	0.7412	-1.570446	0.000932	9.319391	3.157495	0.000373
  21	1.9900e+00	0.7716	-1.235364	0.000841	8.407711	2.848610	0.000337
  22	2.0895e+00	0.8182	-0.859910	0.000942	9.420688	3.191816	0.000377
  23	2.1890e+00	0.8502	-0.528865	0.000831	8.306414	2.814289	0.000333
  24	2.2885e+00	0.8952	-0.161485	0.000922	9.218093	3.123174	0.000369
  25	2.3880e+00	0.9353	0.165523	0.000821	8.205116	2.779968	0.000329
  26	2.4875e+00	0.9786	0.484456	0.000800	8.002520	2.711327	0.000321
  27	2.5870e+00	1.0171	0.851836	0.000922	9.218093	3.123174	0.000369
  28	2.6865e+00	1.0492	1.186918	0.000841	8.407711	2.848610	0.000337
  29	2.7860e+00	1.1021	1.546223	0.000902	9.015498	3.054533	0.000361
  30	2.8855e+00	1.1454	1.917639	0.000932	9.319391	3.157495	0.000373
  31	2.9850e+00	1.1807	2.264833	0.000871	8.711604	2.951571	0.000349
  32	3.0845e+00	1.2176	2.628175	0.000912	9.116795	3.088854	0.000365
  33	3.1840e+00	1.2609	2.995555	0.000922	9.218093	3.123174	0.000369
  34	3.2835e+00	1.2978	3.342748	0.000871	8.711604	2.951571	0.000349
  35	3.3830e+00	1.3363	3.657645	0.000790	7.901223	2.677007	0.000316
  36	3.4825e+00	1.3845	4.020987	0.000912	9.116795	3.088854	0.000365
  37	3.5820e+00	1.4165	4.372218	0.000881	8.812902	2.985892	0.000353
  38	3.6815e+00	1.4566	4.679040	0.000770	7.698627	2.608365	0.000308
  39	3.7810e+00	1.5016	5.062568	0.000962	9.623284	3.260457	0.000385
  40	3.8805e+00	1.5385	5.409762	0.000871	8.711604	2.951571	0.000349
  41	3.9800e+00	1.5866	5.809438	0.001003	10.028475	3.397739	0.000402
  42	4.0795e+00	1.6155	6.156632	0.000871	8.711604	2.951571	0.000349
  43	4.1790e+00	1.6556	6.487677	0.000831	8.306414	2.814289	0.000333
  44	4.2785e+00	1.6941	6.887354	0.001003	10.028475	3.397739	0.000402
  45	4.3780e+00	1.7390	7.254733	0.000922	9.218093	3.123174	0.000369
  46	4.4775e+00	1.7663	7.561555	0.000770	7.698627	2.608365	0.000308
  47	4.5770e+00	1.8144	7.912786	0.000881	8.812902	2.985892	0.000353
  48	4.6765e+00	1.8561	8.296314	0.000962	9.623284	3.260457	0.000385
  49	4.7760e+00	1.8882	8.643508	0.000871	8.711604	2.951571	0.000349
  50	4.8755e+00	1.9315	8.974553	0.000831	8.306414	2.814289	0.000333
  51	4.9750e+00	1.9732	9.354044	0.000952	9.521986	3.226136	0.000381
  52	5.0745e+00	2.0278	9.705274	0.000881	8.812902	2.985892	0.000353
  53	5.1740e+00	2.0566	10.096876	0.000983	9.825879	3.329098	0.000394
  54	5.2735e+00	2.0983	10.456182	0.000902	9.015498	3.054533	0.000361
  55	5.3730e+00	2.1433	10.783190	0.000821	8.205116	2.779968	0.000329
  56	5.4725e+00	2.1834	11.146532	0.000912	9.116795	3.088854	0.000365
  57	5.5720e+00	2.2170	11.501800	0.000891	8.914200	3.020213	0.000357
  58	5.6715e+00	2.2523	11.893402	0.000983	9.825879	3.329098	0.000394
  59	5.7710e+00	2.2908	12.248670	0.000891	8.914200	3.020213	0.000357
  60	5.8705e+00	2.3406	12.595864	0.000871	8.711604	2.951571	0.000349
  61	5.9700e+00	2.3662	12.951131	0.000891	8.914200	3.020213	0.000357
  62	6.0695e+00	2.4192	13.302362	0.000881	8.812902	2.985892	0.000353
  63	6.1690e+00	2.4449	13.657630	0.000891	8.914200	3.020213	0.000357
  64	6.2685e+00	2.5042	14.041158	0.000962	9.623284	3.260457	0.000385
  65	6.3680e+00	2.5427	14.384315	0.000861	8.610307	2.917251	0.000345
  66	6.4675e+00	2.5732	14.751694	0.000922	9.218093	3.123174	0.000369
  67	6.5670e+00	2.6181	15.050442	0.000750	7.496032	2.539724	0.000300
  68	6.6665e+00	2.6518	15.401673	0.000881	8.812902	2.985892	0.000353
  69	6.7660e+00	2.6855	15.801349	0.001003	10.028475	3.397739	0.000402
  70	6.8655e+00	2.7288	16.136432	0.000841	8.407711	2.848610	0.000337
  71	6.9650e+00	2.7769	16.499774	0.000912	9.116795	3.088854	0.000365
  72	7.0645e+00	2.8138	16.883302	0.000962	9.623284	3.260457	0.000385
  73	7.1640e+00	2.8475	17.210310	0.000821	8.205116	2.779968	0.000329
  74	7.2635e+00	2.8860	17.573652	0.000912	9.116795	3.088854	0.000365
  75	7.3630e+00	2.9293	17.916808	0.000861	8.610307	2.917251	0.000345
  76	7.4625e+00	2.9678	18.280151	0.000912	9.116795	3.088854	0.000365
  77	7.5620e+00	3.0063	18.651567	0.000932	9.319391	3.157495	0.000373
  78	7.6615e+00	3.0593	18.974538	0.000810	8.103818	2.745648	0.000325
  79	7.7610e+00	3.0914	19.281360	0.000770	7.698627	2.608365	0.000308
  80	7.8605e+00	3.1315	19.672962	0.000983	9.825879	3.329098	0.000394
  81	7.9600e+00	3.1684	20.008045	0.000841	8.407711	2.848610	0.000337
  82	8.0595e+00	3.2149	20.367350	0.000902	9.015498	3.054533	0.000361
  83	8.1590e+00	3.2470	20.767026	0.001003	10.028475	3.397739	0.000402
  84	8.2585e+00	3.2903	21.077886	0.000780	7.799925	2.642686	0.000312
  85	8.3580e+00	3.3320	21.457376	0.000952	9.521986	3.226136	0.000381
  86	8.4575e+00	3.3833	21.784384	0.000821	8.205116	2.779968	0.000329
  87	8.5570e+00	3.4154	22.131578	0.000871	8.711604	2.951571	0.000349
  88	8.6565e+00	3.4491	22.478772	0.000871	8.711604	2.951571	0.000349
  89	8.7560e+00	3.4812	22.834040	0.000891	8.914200	3.020213	0.000357
  90	8.8555e+00	3.5341	23.152973	0.000800	8.002520	2.711327	0.000321
  91	8.9550e+00	3.5694	23.516316	0.000912	9.116795	3.088854	0.000365
  92	9.0545e+00	3.6095	23.887732	0.000932	9.319391	3.157495	0.000373
  93	9.1540e+00	3.6496	24.222814	0.000841	8.407711	2.848610	0.000337
  94	9.2535e+00	3.6913	24.545785	0.000810	8.103818	2.745648	0.000325
  95	9.3530e+00	3.7363	24.872793	0.000821	8.205116	2.779968	0.000329
  96	9.4525e+00	3.7667	25.228061	0.000891	8.914200	3.020213	0.000357
  97	9.5520e+00	3.8101	25.615626	0.000972	9.724582	3.294777	0.000390
  98	9.6515e+00	3.8470	25.930523	0.000790	7.901223	2.677007	0.000316
  99	9.7510e+00	3.8838	26.293865	0.000912	9.116795	3.088854	0.000365
 100	9.8505e+00	3.9320	26.628947	0.000841	8.407711	2.848610	0.000337
 101	9.9500e+00	3.9721	26.972104	0.000861	8.610307	2.917251	0.000345
 102	1.0050e+01	4.0074	27.278926	0.000770	7.698627	2.608365	0.000308
 103	1.0149e+01	4.0491	27.658417	0.000952	9.521986	3.226136	0.000381
 104	1.0248e+01	4.0812	27.965239	0.000770	7.698627	2.608365	0.000308
 105	1.0348e+01	4.1309	28.276099	0.000780	7.799925	2.642686	0.000312
 106	1.0447e+01	4.1710	28.651552	0.000942	9.420688	3.191816	0.000377
 107	1.0547e+01	4.2095	28.986635	0.000841	8.407711	2.848610	0.000337
 108	1.0646e+01	4.2528	29.317680	0.000831	8.306414	2.814289	0.000333
 109	1.0746e+01	4.2881	29.644688	0.000821	8.205116	2.779968	0.000329
 110	1.0845e+01	4.3314	30.024178	0.000952	9.521986	3.226136	0.000381
 111	1.0945e+01	4.3603	30.363298	0.000851	8.509009	2.882930	0.000341
 112	1.1044e+01	4.4084	30.706454	0.000861	8.610307	2.917251	0.000345
 113	1.1144e+01	4.4389	31.009240	0.000760	7.597329	2.574045	0.000304
 114	1.1243e+01	4.4870	31.360470	0.000881	8.812902	2.985892	0.000353
 115	1.1343e+01	4.5287	31.659218	0.000750	7.496032	2.539724	0.000300
 116	1.1443e+01	4.5689	32.002375	0.000861	8.610307	2.917251	0.000345
 117	1.1542e+01	4.6058	32.361680	0.000902	9.015498	3.054533	0.000361
 118	1.1642e+01	4.6491	32.668502	0.000770	7.698627	2.608365	0.000308
 119	1.1741e+01	4.6972	33.007622	0.000851	8.509009	2.882930	0.000341
 120	1.1841e+01	4.7229	33.342704	0.000841	8.407711	2.848610	0.000337
 121	1.1940e+01	4.7566	33.673749	0.000831	8.306414	2.814289	0.000333
 122	1.2040e+01	4.7983	34.004794	0.000831	8.306414	2.814289	0.000333
 123	1.2139e+01	4.8464	34.335839	0.000831	8.306414	2.814289	0.000333
 124	1.2239e+01	4.8801	34.646699	0.000780	7.799925	2.642686	0.000312
 125	1.2338e+01	4.9170	34.993893	0.000871	8.711604	2.951571	0.000349
 126	1.2438e+01	4.9651	35.320901	0.000821	8.205116	2.779968	0.000329
 127	1.2537e+01	4.9940	35.651946	0.000831	8.306414	2.814289	0.000333
 128	1.2636e+01	5.0469	36.003177	0.000881	8.812902	2.985892	0.000353
 129	1.2736e+01	5.0838	36.314036	0.000780	7.799925	2.642686	0.000312
 130	1.2835e+01	5.1335	36.616821	0.000760	7.597329	2.574045	0.000304
 131	1.2935e+01	5.1672	36.947866	0.000831	8.306414	2.814289	0.000333
 132	1.3034e+01	5.2057	37.291023	0.000861	8.610307	2.917251	0.000345
 133	1.3134e+01	5.2474	37.597845	0.000770	7.698627	2.608365	0.000308
 134	1.3233e+01	5.2843	37.892556	0.000739	7.394734	2.505404	0.000296
 135	1.3333e+01	5.3261	38.243787	0.000881	8.812902	2.985892	0.000353
 136	1.3432e+01	5.3710	38.599055	0.000891	8.914200	3.020213	0.000357
 137	1.3532e+01	5.4095	38.922026	0.000810	8.103818	2.745648	0.000325
 138	1.3632e+01	5.4400	39.192514	0.000679	6.786948	2.299480	0.000272
 139	1.3731e+01	5.4929	39.559893	0.000922	9.218093	3.123174	0.000369
 140	1.3831e+01	5.5170	39.830381	0.000679	6.786948	2.299480	0.000272
 141	1.3930e+01	5.5715	40.197761	0.000922	9.218093	3.123174	0.000369
 142	1.4030e+01	5.6052	40.484397	0.000719	7.192139	2.436762	0.000288
 143	1.4129e+01	5.6405	40.839665	0.000891	8.914200	3.020213	0.000357
 144	1.4229e+01	5.6854	41.114190	0.000689	6.888245	2.333801	0.000276
 145	1.4328e+01	5.7175	41.473495	0.000902	9.015498	3.054533	0.000361
 146	1.4428e+01	5.7672	41.784355	0.000780	7.799925	2.642686	0.000312
 147	1.4527e+01	5.8057	42.062917	0.000699	6.989543	2.368121	0.000280
 148	1.4627e+01	5.8426	42.426259	0.000912	9.116795	3.088854	0.000365
 149	1.4726e+01	5.8891	42.765379	0.000851	8.509009	2.882930	0.000341
 150	1.4825e+01	5.9228	43.064127	0.000750	7.496032	2.539724	0.000300
 151	1.4925e+01	5.9597	43.338652	0.000689	6.888245	2.333801	0.000276
 152	1.5024e+01	6.0062	43.689883	0.000881	8.812902	2.985892	0.000353
 153	1.5124e+01	6.0431	44.004780	0.000790	7.901223	2.677007	0.000316
 154	1.5223e+01	6.0800	44.327750	0.000810	8.103818	2.745648	0.000325
 155	1.5323e+01	6.1201	44.618424	0.000729	7.293436	2.471083	0.000292
 156	1.5422e+01	6.1603	44.949469	0.000831	8.306414	2.814289	0.000333
 157	1.5522e+01	6.2052	45.223995	0.000689	6.888245	2.333801	0.000276
 158	1.5621e+01	6.2421	45.551003	0.000821	8.205116	2.779968	0.000329
 159	1.5721e+01	6.2806	45.869936	0.000800	8.002520	2.711327	0.000321
 160	1.5820e+01	6.3191	46.196944	0.000821	8.205116	2.779968	0.000329
 161	1.5920e+01	6.3576	46.483581	0.000719	7.192139	2.436762	0.000288
 162	1.6020e+01	6.3945	46.818663	0.000841	8.407711	2.848610	0.000337
 163	1.6119e+01	6.4378	47.137597	0.000800	8.002520	2.711327	0.000321
 164	1.6218e+01	6.4763	47.412122	0.000689	6.888245	2.333801	0.000276
 165	1.6318e+01	6.5164	47.710870	0.000750	7.496032	2.539724	0.000300
 166	1.6418e+01	6.5581	48.037878	0.000821	8.205116	2.779968	0.000329
 167	1.6517e+01	6.5950	48.344700	0.000770	7.698627	2.608365	0.000308
 168	1.6616e+01	6.6367	48.655560	0.000780	7.799925	2.642686	0.000312
 169	1.6716e+01	6.6752	48.926048	0.000679	6.786948	2.299480	0.000272
 170	1.6816e+01	6.7217	49.249019	0.000810	8.103818	2.745648	0.000325
 171	1.6915e+01	6.7602	49.543730	0.000739	7.394734	2.505404	0.000296
 172	1.7015e+01	6.7955	49.866701	0.000810	8.103818	2.745648	0.000325
 173	1.7114e+01	6.8356	50.193709	0.000821	8.205116	2.779968	0.000329
 174	1.7213e+01	6.8773	50.480345	0.000719	7.192139	2.436762	0.000288
 175	1.7313e+01	6.9110	50.787168	0.000770	7.698627	2.608365	0.000308
 176	1.7413e+01	6.9592	51.057656	0.000679	6.786948	2.299480	0.000272
 177	1.7512e+01	7.0025	51.408886	0.000881	8.812902	2.985892	0.000353
 178	1.7611e+01	7.0362	51.683412	0.000689	6.888245	2.333801	0.000276
 179	1.7711e+01	7.0682	51.970048	0.000719	7.192139	2.436762	0.000288
 180	1.7811e+01	7.1100	52.288982	0.000800	8.002520	2.711327	0.000321
 181	1.7910e+01	7.1517	52.571582	0.000709	7.090841	2.402442	0.000284
 182	1.8009e+01	7.1918	52.918775	0.000871	8.711604	2.951571	0.000349
 183	1.8109e+01	7.2383	53.185226	0.000669	6.685650	2.265160	0.000268
 184	1.8209e+01	7.2784	53.496086	0.000780	7.799925	2.642686	0.000312
 185	1.8308e+01	7.3281	53.798871	0.000760	7.597329	2.574045	0.000304
 186	1.8407e+01	7.3490	54.073396	0.000689	6.888245	2.333801	0.000276
 187	1.8507e+01	7.4003	54.396367	0.000810	8.103818	2.745648	0.000325
 188	1.8607e+01	7.4340	54.687041	0.000729	7.293436	2.471083	0.000292
 189	1.8706e+01	7.4677	55.014049	0.000821	8.205116	2.779968	0.000329
 190	1.8805e+01	7.5110	55.292611	0.000699	6.989543	2.368121	0.000280
 191	1.8905e+01	7.5543	55.579248	0.000719	7.192139	2.436762	0.000288
 192	1.9005e+01	7.5912	55.873959	0.000739	7.394734	2.505404	0.000296
 193	1.9104e+01	7.6265	56.200967	0.000821	8.205116	2.779968	0.000329
 194	1.9203e+01	7.6827	56.491640	0.000729	7.293436	2.471083	0.000292
 195	1.9303e+01	7.7180	56.770203	0.000699	6.989543	2.368121	0.000280
 196	1.9402e+01	7.7549	57.072988	0.000760	7.597329	2.574045	0.000304
 197	1.9502e+01	7.7934	57.371736	0.000750	7.496032	2.539724	0.000300
 198	1.9602e+01	7.8351	57.646261	0.000689	6.888245	2.333801	0.000276
 199	1.9701e+01	7.8768	57.985381	0.000851	8.509009	2.882930	0.000341
 200	1.9800e+01	7.9089	58.227609	0.000608	6.077864	2.059236	0.000243
 201	1.9900e+01	7.9634	58.514245	0.000719	7.192139	2.436762	0.000288
 202	2.0000e+01	7.9827	58.817031	0.000760	7.597329	2.574045	0.000304
 203	2.0099e+01	8.0340	59.140001	0.000810	8.103818	2.745648	0.000325
 204	2.0198e+01	8.0645	59.414527	0.000689	6.888245	2.333801	0.000276
 205	2.0298e+01	8.1094	59.729423	0.000790	7.901223	2.677007	0.000316
 206	2.0398e+01	8.1495	60.003948	0.000689	6.888245	2.333801	0.000276
 207	2.0497e+01	8.1928	60.302697	0.000750	7.496032	2.539724	0.000300
 208	2.0596e+01	8.2297	60.577222	0.000689	6.888245	2.333801	0.000276
 209	2.0696e+01	8.2746	60.855784	0.000699	6.989543	2.368121	0.000280
 210	2.0796e+01	8.3099	61.166644	0.000780	7.799925	2.642686	0.000312
 211	2.0895e+01	8.3516	61.465392	0.000750	7.496032	2.539724	0.000300
 212	2.0994e+01	8.3998	61.743954	0.000699	6.989543	2.368121	0.000280
 213	2.1094e+01	8.4367	62.030591	0.000719	7.192139	2.436762	0.000288
 214	2.1194e+01	8.4800	62.309153	0.000699	6.989543	2.368121	0.000280
 215	2.1293e+01	8.5137	62.611938	0.000760	7.597329	2.574045	0.000304
 216	2.1392e+01	8.5522	62.910686	0.000750	7.496032	2.539724	0.000300
 217	2.1492e+01	8.5859	63.173100	0.000658	6.584352	2.230839	0.000264
 218	2.1591e+01	8.6292	63.463774	0.000729	7.293436	2.471083	0.000292
 219	2.1691e+01	8.6677	63.790782	0.000821	8.205116	2.779968	0.000329
 220	2.1791e+01	8.7206	64.073381	0.000709	7.090841	2.402442	0.000284
 221	2.1890e+01	8.7591	64.339832	0.000669	6.685650	2.265160	0.000268
 222	2.1989e+01	8.7848	64.642617	0.000760	7.597329	2.574045	0.000304
 223	2.2089e+01	8.8345	64.909068	0.000669	6.685650	2.265160	0.000268
 224	2.2189e+01	8.8714	65.215891	0.000770	7.698627	2.608365	0.000308
 225	2.2288e+01	8.9003	65.486379	0.000679	6.786948	2.299480	0.000272
 226	2.2387e+01	8.9484	65.781090	0.000739	7.394734	2.505404	0.000296
 227	2.2487e+01	8.9869	66.079838	0.000750	7.496032	2.539724	0.000300
 228	2.2587e+01	9.0302	66.318029	0.000598	5.976566	2.024915	0.000239
 229	2.2686e+01	9.0655	66.632925	0.000790	7.901223	2.677007	0.000316
 230	2.2785e+01	9.1040	66.911488	0.000699	6.989543	2.368121	0.000280
 231	2.2885e+01	9.1489	67.169864	0.000648	6.483054	2.196518	0.000260
 232	2.2985e+01	9.1858	67.476687	0.000770	7.698627	2.608365	0.000308
 233	2.3084e+01	9.2259	67.710841	0.000588	5.875268	1.990595	0.000235
 234	2.3183e+01	9.2725	68.021700	0.000780	7.799925	2.642686	0.000312
 235	2.3283e+01	9.3046	68.292188	0.000679	6.786948	2.299480	0.000272
 236	2.3383e+01	9.3591	68.570751	0.000699	6.989543	2.368121	0.000280
 237	2.3482e+01	9.3848	68.857387	0.000719	7.192139	2.436762	0.000288
 238	2.3581e+01	9.4361	69.139987	0.000709	7.090841	2.402442	0.000284
 239	2.3681e+01	9.4778	69.426623	0.000719	7.192139	2.436762	0.000288
 240	2.3780e+01	9.5051	69.725371	0.000750	7.496032	2.539724	0.000300
 241	2.3880e+01	9.5516	69.967599	0.000608	6.077864	2.059236	0.000243
 242	2.3980e+01	9.5901	70.258273	0.000729	7.293436	2.471083	0.000292
 243	2.4079e+01	9.6302	70.561058	0.000760	7.597329	2.574045	0.000304
 244	2.4178e+01	9.6623	70.807324	0.000618	6.179161	2.093557	0.000248
 245	2.4278e+01	9.7040	71.102035	0.000739	7.394734	2.505404	0.000296
 246	2.4378e+01	9.7489	71.364448	0.000658	6.584352	2.230839	0.000264
 247	2.4477e+01	9.7906	71.671271	0.000770	7.698627	2.608365	0.000308
 248	2.4576e+01	9.8307	71.905425	0.000588	5.875268	1.990595	0.000235
 249	2.4676e+01	9.8757	72.224358	0.000800	8.002520	2.711327	0.000321
 250	2.4776e+01	9.9174	72.486772	0.000658	6.584352	2.230839	0.000264
 251	2.4875e+01	9.9543	72.769372	0.000709	7.090841	2.402442	0.000284
 252	2.4974e+01	9.9847	73.047934	0.000699	6.989543	2.368121	0.000280
 253	2.5074e+01	10.0232	73.286125	0.000598	5.976566	2.024915	0.000239
 254	2.5174e+01	10.0617	73.568725	0.000709	7.090841	2.402442	0.000284
 255	2.5273e+01	10.1131	73.891695	0.000810	8.103818	2.745648	0.000325
 256	2.5372e+01	10.1452	74.146035	0.000638	6.381757	2.162198	0.000256
 257	2.5472e+01	10.1837	74.404412	0.000648	6.483054	2.196518	0.000260
 258	2.5572e+01	10.2125	74.642603	0.000598	5.976566	2.024915	0.000239
 259	2.5671e+01	10.2623	74.961536	0.000800	8.002520	2.711327	0.000321
 260	2.5770e+01	10.3056	75.240099	0.000699	6.989543	2.368121	0.000280
 261	2.5870e+01	10.3441	75.458104	0.000547	5.470077	1.853312	0.000219
 262	2.5970e+01	10.3810	75.773001	0.000790	7.901223	2.677007	0.000316
 263	2.6069e+01	10.4243	76.051563	0.000699	6.989543	2.368121	0.000280
 264	2.6169e+01	10.4628	76.309940	0.000648	6.483054	2.196518	0.000260
 265	2.6268e+01	10.5029	76.588502	0.000699	6.989543	2.368121	0.000280
 266	2.6367e+01	10.5366	76.838805	0.000628	6.280459	2.127877	0.000252
