»»»»»»»»»»»»»»»»»»»»»»»»»»»»»»»»»»»» Hysteresis ««««««««««««««««««««««««««««««««««««
»»»  Executed Version:	5.48.1
»»»  Vision Version:	5.48.4 (R)
»»»  Vision Compiled:	9/18/24
»»»  Driver Version:	5.47.0
»»»  Windows Version:	Windows 8 or 8.1
»»»  Processor Information:	x86 (AMD or Intel) - 32 Processors
»»»  Tester Name:	PMF21124-494 (100V)
»»»  Tester S/N:	PMF21124-494
»»»  Internal Amp Type:	100V RevK 270k
»»»  Internal Amp S/N:	iAB2-596/K     
»»»  Execution Count:	1
»»»»»»»»»»»»»»»»»»»»»»»»»»»»»»»»»»»»»»»»»»««««««««««««««««««««««««««««««««««««««««««

Stored:	6/5/2025 - 17:5:35
Configured:	06/05/25 02:51:50 PM
Executed:	06/05/25 05:05:06 PM

»»»»»»»»»»»»»»»»»»»»»»»»»»»»»»»»»»» Sample Info ««««««««««««««««««««««««««««««««««««
Sample Name:	
Lot Name:	
Wafer Name:	
Die Row/Column:	0/0
Capacitor Number:	0
Sample Area (cm2):	1.00e-04
Sample Thickness (microns):	3.00e-01

Amplifier:	Internal

»»»»»»»»»»»»»»»»»»»»»»»»»»»»»»»»»»» Tester Info «««««««««««««««««««««««««««««««««««
Tester Name:	PMF21124-494 (100V)
Tester Serial Number:	PMF21124-494
Return Signal Amp. Level:	0.19 [Index: 3]

»»»»»»»»»»»»»»»»»»»»»»»»»»»»»»»» Hysteresis Info ««««««««««««««««««««««««««««««««««
Task Name:	Hyst-353
Volts:	20.00
Field:	666.67 (kV/cm)
DCBias:	0.00
DCField:	0.00 (kV/cm)
Hysteresis Period (ms):	1.00e+00
Preset:	Enabled
Preset Delay (ms):	1.00e+03
Profile:	Standard Bipolar

»»»»»»»»»»»»»»»»»»»»»»»»»»»»»»»»»»»»»» Data «««««««««««««««««««««««««««««««««««««««
Points:	2001

Valid Data

Point	Time (ms)	Drive Voltage	Measured Polarization (uC/cm2)	Capacitance (uF)	Normalized Capacitance (uF/cm2)	Dielectric Constant	Instantaneous Current (mA)
   1	0.0000e+00	0.0176	17.449201	0.000707	7.074105	2.396772	0.056463
   2	5.0000e-04	0.0241	17.731518	0.000707	7.074105	2.396772	0.056463
   3	1.0000e-03	0.0594	17.735551	0.000010	0.101059	0.034240	0.000807
   4	1.5000e-03	0.0979	17.812180	0.000192	1.920114	0.650552	0.015326
   5	2.0000e-03	0.1299	17.929140	0.000293	2.930701	0.992948	0.023392
   6	2.5000e-03	0.1684	18.195324	0.000667	6.669870	2.259813	0.053237
   7	3.0000e-03	0.2118	18.352615	0.000394	3.941287	1.335344	0.031458
   8	3.5000e-03	0.2438	18.675263	0.000808	8.084691	2.739168	0.064530
   9	4.0000e-03	0.2888	18.856753	0.000455	4.547639	1.540782	0.036298
  10	4.5000e-03	0.3305	18.868852	0.000030	0.303176	0.102719	0.002420
  11	5.0000e-03	0.3690	19.183434	0.000788	7.882574	2.670688	0.062916
  12	5.5000e-03	0.4123	19.514148	0.000829	8.286808	2.807647	0.066143
  13	6.0000e-03	0.4476	19.558512	0.000111	1.111645	0.376636	0.008873
  14	6.5000e-03	0.4813	19.784365	0.000566	5.659284	1.917417	0.045171
  15	7.0000e-03	0.5262	20.026351	0.000606	6.063518	2.054376	0.048397
  16	7.5000e-03	0.5695	20.143311	0.000293	2.930701	0.992948	0.023392
  17	8.0000e-03	0.6112	20.389330	0.000616	6.164577	2.088615	0.049204
  18	8.5000e-03	0.6481	20.578886	0.000475	4.749756	1.609261	0.037911
  19	9.0000e-03	0.6898	20.869269	0.000728	7.276222	2.465251	0.058077
  20	9.5000e-03	0.7331	21.131420	0.000657	6.568812	2.225574	0.052430
  21	1.0000e-02	0.7764	21.280645	0.000374	3.739170	1.266865	0.029845
  22	1.0500e-02	0.8117	21.506498	0.000566	5.659284	1.917417	0.045171
  23	1.1000e-02	0.8535	21.651690	0.000364	3.638111	1.232625	0.029038
  24	1.1500e-02	0.8936	21.978371	0.000819	8.185750	2.773407	0.065336
  25	1.2000e-02	0.9224	22.147761	0.000424	4.244463	1.438063	0.033878
  26	1.2500e-02	0.9738	22.309085	0.000404	4.042346	1.369584	0.032265
  27	1.3000e-02	1.0075	22.599468	0.000728	7.276222	2.465251	0.058077
  28	1.3500e-02	1.0540	22.744660	0.000364	3.638111	1.232625	0.029038
  29	1.4000e-02	1.0813	22.994712	0.000627	6.265636	2.122855	0.050010
  30	1.4500e-02	1.1262	23.281062	0.000718	7.175163	2.431011	0.057270
  31	1.5000e-02	1.1759	23.510948	0.000576	5.760342	1.951657	0.045977
  32	1.5500e-02	1.2080	23.680338	0.000424	4.244463	1.438063	0.033878
  33	1.6000e-02	1.2433	23.914258	0.000586	5.861401	1.985896	0.046784
  34	1.6500e-02	1.2946	24.091715	0.000445	4.446580	1.506542	0.035491
  35	1.7000e-02	1.3283	24.216741	0.000313	3.132818	1.061427	0.025005
  36	1.7500e-02	1.3636	24.482925	0.000667	6.669870	2.259813	0.053237
  37	1.8000e-02	1.4101	24.684580	0.000505	5.052932	1.711980	0.040331
  38	1.8500e-02	1.4534	24.938665	0.000637	6.366694	2.157094	0.050817
  39	1.9000e-02	1.4887	25.099989	0.000404	4.042346	1.369584	0.032265
  40	1.9500e-02	1.5192	25.333909	0.000586	5.861401	1.985896	0.046784
  41	2.0000e-02	1.5738	25.700921	0.000920	9.196336	3.115803	0.073402
  42	2.0500e-02	1.6171	25.809815	0.000273	2.728583	0.924469	0.021779
  43	2.1000e-02	1.6524	25.995337	0.000465	4.648697	1.575021	0.037105
  44	2.1500e-02	1.6989	26.188926	0.000485	4.850815	1.643501	0.038718
  45	2.2000e-02	1.7310	26.600302	0.001031	10.307981	3.492439	0.082275
  46	2.2500e-02	1.7647	26.705162	0.000263	2.627525	0.890229	0.020972
  47	2.3000e-02	1.8160	26.967314	0.000657	6.568812	2.225574	0.052430
  48	2.3500e-02	1.8417	27.056042	0.000222	2.223290	0.753271	0.017746
  49	2.4000e-02	1.8962	27.261730	0.000515	5.153991	1.746219	0.041138
  50	2.4500e-02	1.9347	27.515815	0.000637	6.366694	2.157094	0.050817
  51	2.5000e-02	1.9700	27.830397	0.000788	7.882574	2.670688	0.062916
  52	2.5500e-02	2.0101	28.048184	0.000546	5.457167	1.848938	0.043557
  53	2.6000e-02	2.0566	28.411163	0.000910	9.095278	3.081563	0.072596
  54	2.6500e-02	2.0855	28.532156	0.000303	3.031759	1.027188	0.024199
  55	2.7000e-02	2.1288	28.717679	0.000465	4.648697	1.575021	0.037105
  56	2.7500e-02	2.1737	29.004029	0.000718	7.175163	2.431011	0.057270
  57	2.8000e-02	2.2122	29.246015	0.000606	6.063518	2.054376	0.048397
  58	2.8500e-02	2.2475	29.415405	0.000424	4.244463	1.438063	0.033878
  59	2.9000e-02	2.2828	29.709821	0.000738	7.377281	2.499490	0.058883
  60	2.9500e-02	2.3181	29.984072	0.000687	6.871987	2.328292	0.054850
  61	3.0000e-02	2.3759	30.133296	0.000374	3.739170	1.266865	0.029845
  62	3.0500e-02	2.4112	30.431746	0.000748	7.478339	2.533730	0.059690
  63	3.1000e-02	2.4497	30.536606	0.000263	2.627525	0.890229	0.020972
  64	3.1500e-02	2.4850	30.843122	0.000768	7.680457	2.602209	0.061303
  65	3.2000e-02	2.5235	30.980247	0.000344	3.435994	1.164146	0.027425
  66	3.2500e-02	2.5716	31.218200	0.000596	5.962460	2.020136	0.047591
  67	3.3000e-02	2.6117	31.431954	0.000536	5.356108	1.814698	0.042751
  68	3.3500e-02	2.6470	31.702172	0.000677	6.770929	2.294053	0.054044
  69	3.4000e-02	2.6935	31.903826	0.000505	5.052932	1.711980	0.040331
  70	3.4500e-02	2.7352	32.137746	0.000586	5.861401	1.985896	0.046784
  71	3.5000e-02	2.7769	32.250673	0.000283	2.829642	0.958709	0.022585
  72	3.5500e-02	2.8010	32.641884	0.000980	9.802688	3.321241	0.078242
  73	3.6000e-02	2.8491	32.835472	0.000485	4.850815	1.643501	0.038718
  74	3.6500e-02	2.8860	33.077458	0.000606	6.063518	2.054376	0.048397
  75	3.7000e-02	2.9309	33.242815	0.000414	4.143404	1.403823	0.033071
  76	3.7500e-02	2.9839	33.513033	0.000677	6.770929	2.294053	0.054044
  77	3.8000e-02	3.0063	33.811482	0.000748	7.478339	2.533730	0.059690
  78	3.8500e-02	3.0416	34.037336	0.000566	5.659284	1.917417	0.045171
  79	3.9000e-02	3.0946	34.154296	0.000293	2.930701	0.992948	0.023392
  80	3.9500e-02	3.1411	34.424513	0.000677	6.770929	2.294053	0.054044
  81	4.0000e-02	3.1684	34.690698	0.000667	6.669870	2.259813	0.053237
  82	4.0500e-02	3.2020	35.130305	0.001102	11.015392	3.732116	0.087922
  83	4.1000e-02	3.2389	35.098041	-0.000081	-0.808469	-0.273917	-0.006453
  84	4.1500e-02	3.2919	35.396490	0.000748	7.478339	2.533730	0.059690
  85	4.2000e-02	3.3336	35.707038	0.000778	7.781515	2.636449	0.062110
  86	4.2500e-02	3.3625	35.981289	0.000687	6.871987	2.328292	0.054850
  87	4.3000e-02	3.4122	36.146646	0.000414	4.143404	1.403823	0.033071
  88	4.3500e-02	3.4475	36.352334	0.000515	5.153991	1.746219	0.041138
  89	4.4000e-02	3.4956	36.606419	0.000637	6.366694	2.157094	0.050817
  90	4.4500e-02	3.5309	36.816141	0.000526	5.255049	1.780459	0.041944
  91	4.5000e-02	3.5710	37.013762	0.000495	4.951873	1.677740	0.039524
  92	4.5500e-02	3.6079	37.308179	0.000738	7.377281	2.499490	0.058883
  93	4.6000e-02	3.6352	37.542098	0.000586	5.861401	1.985896	0.046784
  94	4.6500e-02	3.6897	37.788117	0.000616	6.164577	2.088615	0.049204
  95	4.7000e-02	3.7250	38.082534	0.000738	7.377281	2.499490	0.058883
  96	4.7500e-02	3.7651	38.151096	0.000172	1.717997	0.582073	0.013713
  97	4.8000e-02	3.8036	38.631035	0.001203	12.025978	4.074512	0.095988
  98	4.8500e-02	3.8486	38.828657	0.000495	4.951873	1.677740	0.039524
  99	4.9000e-02	3.8967	38.864955	0.000091	0.909528	0.308156	0.007260
 100	4.9500e-02	3.9320	39.054510	0.000475	4.749756	1.609261	0.037911
 101	5.0000e-02	3.9769	39.272298	0.000546	5.457167	1.848938	0.043557
 102	5.0500e-02	4.0074	39.574780	0.000758	7.579398	2.567970	0.060496
 103	5.1000e-02	4.0539	39.933726	0.000899	8.994219	3.047324	0.071789
 104	5.1500e-02	4.0860	40.095050	0.000404	4.042346	1.369584	0.032265
 105	5.2000e-02	4.1293	40.361234	0.000667	6.669870	2.259813	0.053237
 106	5.2500e-02	4.1630	40.566922	0.000515	5.153991	1.746219	0.041138
 107	5.3000e-02	4.2111	40.841173	0.000687	6.871987	2.328292	0.054850
 108	5.3500e-02	4.2528	41.058960	0.000546	5.457167	1.848938	0.043557
 109	5.4000e-02	4.2881	41.369509	0.000778	7.781515	2.636449	0.062110
 110	5.4500e-02	4.3298	41.623594	0.000637	6.366694	2.157094	0.050817
 111	5.5000e-02	4.3699	41.938176	0.000788	7.882574	2.670688	0.062916
 112	5.5500e-02	4.4068	42.285022	0.000869	8.691043	2.944605	0.069369
 113	5.6000e-02	4.4469	42.397949	0.000283	2.829642	0.958709	0.022585
 114	5.6500e-02	4.4822	42.579438	0.000455	4.547639	1.540782	0.036298
 115	5.7000e-02	4.5384	42.853689	0.000687	6.871987	2.328292	0.054850
 116	5.7500e-02	4.5673	43.127940	0.000687	6.871987	2.328292	0.054850
 117	5.8000e-02	4.6106	43.216668	0.000222	2.223290	0.753271	0.017746
 118	5.8500e-02	4.6555	43.507051	0.000728	7.276222	2.465251	0.058077
 119	5.9000e-02	4.6844	43.853898	0.000869	8.691043	2.944605	0.069369
 120	5.9500e-02	4.7197	44.007155	0.000384	3.840228	1.301105	0.030652
 121	6.0000e-02	4.7598	44.172512	0.000414	4.143404	1.403823	0.033071
 122	6.0500e-02	4.8063	44.531458	0.000899	8.994219	3.047324	0.071789
 123	6.1000e-02	4.8512	44.672617	0.000354	3.537052	1.198386	0.028232
 124	6.1500e-02	4.8881	44.902503	0.000576	5.760342	1.951657	0.045977
 125	6.2000e-02	4.9218	45.083993	0.000455	4.547639	1.540782	0.036298
 126	6.2500e-02	4.9715	45.382442	0.000748	7.478339	2.533730	0.059690
 127	6.3000e-02	5.0148	45.709123	0.000819	8.185750	2.773407	0.065336
 128	6.3500e-02	5.0421	45.971274	0.000657	6.568812	2.225574	0.052430
 129	6.4000e-02	5.0918	46.201161	0.000576	5.760342	1.951657	0.045977
 130	6.4500e-02	5.1287	46.326187	0.000313	3.132818	1.061427	0.025005
 131	6.5000e-02	5.1624	46.487511	0.000404	4.042346	1.369584	0.032265
 132	6.5500e-02	5.2025	46.923086	0.001091	10.914333	3.697876	0.087115
 133	6.6000e-02	5.2410	47.237667	0.000788	7.882574	2.670688	0.062916
 134	6.6500e-02	5.2876	47.370760	0.000333	3.334935	1.129907	0.026618
 135	6.7000e-02	5.3293	47.741805	0.000930	9.297395	3.150043	0.074209
 136	6.7500e-02	5.3790	47.846665	0.000263	2.627525	0.890229	0.020972
 137	6.8000e-02	5.4095	48.084618	0.000596	5.962460	2.020136	0.047591
 138	6.8500e-02	5.4448	48.491961	0.001021	10.206923	3.458199	0.081469
 139	6.9000e-02	5.4929	48.588755	0.000243	2.425407	0.821750	0.019359
 140	6.9500e-02	5.5298	48.742013	0.000384	3.840228	1.301105	0.030652
 141	7.0000e-02	5.5699	49.020297	0.000697	6.973046	2.362532	0.055657
 142	7.0500e-02	5.6020	49.197753	0.000445	4.446580	1.506542	0.035491
 143	7.1000e-02	5.6405	49.552666	0.000889	8.893160	3.013084	0.070983
 144	7.1500e-02	5.6998	49.746255	0.000485	4.850815	1.643501	0.038718
 145	7.2000e-02	5.7271	50.097134	0.000879	8.792102	2.978845	0.070176
 146	7.2500e-02	5.7608	50.335087	0.000596	5.962460	2.020136	0.047591
 147	7.3000e-02	5.7977	50.621437	0.000718	7.175163	2.431011	0.057270
 148	7.3500e-02	5.8442	50.766629	0.000364	3.638111	1.232625	0.029038
 149	7.4000e-02	5.8891	51.012648	0.000616	6.164577	2.088615	0.049204
 150	7.4500e-02	5.9373	51.206236	0.000485	4.850815	1.643501	0.038718
 151	7.5000e-02	5.9645	51.613579	0.001021	10.206923	3.458199	0.081469
 152	7.5500e-02	6.0079	51.770870	0.000394	3.941287	1.335344	0.031458
 153	7.6000e-02	6.0496	52.093518	0.000808	8.084691	2.739168	0.064530
 154	7.6500e-02	6.0865	52.202412	0.000273	2.728583	0.924469	0.021779
 155	7.7000e-02	6.1410	52.512960	0.000778	7.781515	2.636449	0.062110
 156	7.7500e-02	6.1747	52.807377	0.000738	7.377281	2.499490	0.058883
 157	7.8000e-02	6.2148	52.875939	0.000172	1.717997	0.582073	0.013713
 158	7.8500e-02	6.2469	53.190521	0.000788	7.882574	2.670688	0.062916
 159	7.9000e-02	6.2998	53.400242	0.000526	5.255049	1.780459	0.041944
 160	7.9500e-02	6.3287	53.597864	0.000495	4.951873	1.677740	0.039524
 161	8.0000e-02	6.3704	53.908412	0.000778	7.781515	2.636449	0.062110
 162	8.0500e-02	6.4089	54.134266	0.000566	5.659284	1.917417	0.045171
 163	8.1000e-02	6.4522	54.610172	0.001192	11.924919	4.040272	0.095181
 164	8.1500e-02	6.4875	54.719065	0.000273	2.728583	0.924469	0.021779
 165	8.2000e-02	6.5260	54.856191	0.000344	3.435994	1.164146	0.027425
 166	8.2500e-02	6.5709	55.114309	0.000647	6.467753	2.191334	0.051624
 167	8.3000e-02	6.6046	55.299831	0.000465	4.648697	1.575021	0.037105
 168	8.3500e-02	6.6431	55.646678	0.000869	8.691043	2.944605	0.069369
 169	8.4000e-02	6.6832	55.707174	0.000152	1.515880	0.513594	0.012099
 170	8.4500e-02	6.7153	56.102418	0.000990	9.903747	3.355480	0.079049
 171	8.5000e-02	6.7747	56.384735	0.000707	7.074105	2.396772	0.056463
 172	8.5500e-02	6.8084	56.562191	0.000445	4.446580	1.506542	0.035491
 173	8.6000e-02	6.8533	56.699317	0.000344	3.435994	1.164146	0.027425
 174	8.6500e-02	6.8838	56.977601	0.000697	6.973046	2.362532	0.055657
 175	8.7000e-02	6.9319	57.211520	0.000586	5.861401	1.985896	0.046784
 176	8.7500e-02	6.9752	57.534168	0.000808	8.084691	2.739168	0.064530
 177	8.8000e-02	7.0137	57.618863	0.000212	2.122231	0.719031	0.016939
 178	8.8500e-02	7.0394	57.876981	0.000647	6.467753	2.191334	0.051624
 179	8.9000e-02	7.0923	58.155265	0.000697	6.973046	2.362532	0.055657
 180	8.9500e-02	7.1340	58.473880	0.000798	7.983632	2.704928	0.063723
 181	9.0000e-02	7.1693	58.687634	0.000536	5.356108	1.814698	0.042751
 182	9.0500e-02	7.2078	58.978017	0.000728	7.276222	2.465251	0.058077
 183	9.1000e-02	7.2447	59.147408	0.000424	4.244463	1.438063	0.033878
 184	9.1500e-02	7.2816	59.389393	0.000606	6.063518	2.054376	0.048397
 185	9.2000e-02	7.3313	59.724141	0.000839	8.387867	2.841886	0.066949
 186	9.2500e-02	7.3682	59.954027	0.000576	5.760342	1.951657	0.045977
 187	9.3000e-02	7.4051	60.026623	0.000182	1.819056	0.616313	0.014519
 188	9.3500e-02	7.4501	60.409767	0.000960	9.600571	3.252761	0.076629
 189	9.4000e-02	7.4982	60.603356	0.000485	4.850815	1.643501	0.038718
 190	9.4500e-02	7.5351	60.784846	0.000455	4.547639	1.540782	0.036298
 191	9.5000e-02	7.5688	60.962302	0.000445	4.446580	1.506542	0.035491
 192	9.5500e-02	7.6121	61.192189	0.000576	5.760342	1.951657	0.045977
 193	9.6000e-02	7.6442	61.498704	0.000768	7.680457	2.602209	0.061303
 194	9.6500e-02	7.6859	61.752789	0.000637	6.366694	2.157094	0.050817
 195	9.7000e-02	7.7292	61.990742	0.000596	5.962460	2.020136	0.047591
 196	9.7500e-02	7.7709	62.285158	0.000738	7.377281	2.499490	0.058883
 197	9.8000e-02	7.8094	62.446482	0.000404	4.042346	1.369584	0.032265
 198	9.8500e-02	7.8431	62.765097	0.000798	7.983632	2.704928	0.063723
 199	9.9000e-02	7.8880	62.865924	0.000253	2.526466	0.855990	0.020165
 200	9.9500e-02	7.9410	63.220837	0.000889	8.893160	3.013084	0.070983
 201	1.0000e-01	7.9666	63.321665	0.000253	2.526466	0.855990	0.020165
 202	1.0050e-01	8.0164	63.555584	0.000586	5.861401	1.985896	0.046784
 203	1.0100e-01	8.0597	63.813703	0.000647	6.467753	2.191334	0.051624
 204	1.0150e-01	8.0821	64.039556	0.000566	5.659284	1.917417	0.045171
 205	1.0200e-01	8.1254	64.450932	0.001031	10.307981	3.492439	0.082275
 206	1.0250e-01	8.1671	64.588058	0.000344	3.435994	1.164146	0.027425
 207	1.0300e-01	8.2008	64.817944	0.000576	5.760342	1.951657	0.045977
 208	1.0350e-01	8.2506	65.043798	0.000566	5.659284	1.917417	0.045171
 209	1.0400e-01	8.2843	65.265618	0.000556	5.558225	1.883178	0.044364
 210	1.0450e-01	8.3308	65.527770	0.000657	6.568812	2.225574	0.052430
 211	1.0500e-01	8.3709	65.749590	0.000556	5.558225	1.883178	0.044364
 212	1.0550e-01	8.4142	65.983510	0.000586	5.861401	1.985896	0.046784
 213	1.0600e-01	8.4479	66.048039	0.000162	1.616938	0.547834	0.012906
 214	1.0650e-01	8.4896	66.475548	0.001071	10.712216	3.629397	0.085502
 215	1.0700e-01	8.5281	66.677203	0.000505	5.052932	1.711980	0.040331
 216	1.0750e-01	8.5698	66.975652	0.000748	7.478339	2.533730	0.059690
 217	1.0800e-01	8.6099	67.056314	0.000202	2.021173	0.684792	0.016132
 218	1.0850e-01	8.6436	67.350730	0.000738	7.377281	2.499490	0.058883
 219	1.0900e-01	8.6853	67.560451	0.000526	5.255049	1.780459	0.041944
 220	1.0950e-01	8.7318	67.794371	0.000586	5.861401	1.985896	0.046784
 221	1.1000e-01	8.7719	67.983927	0.000475	4.749756	1.609261	0.037911
 222	1.1050e-01	8.8088	68.217846	0.000586	5.861401	1.985896	0.046784
 223	1.1100e-01	8.8506	68.419501	0.000505	5.052932	1.711980	0.040331
 224	1.1150e-01	8.8858	68.677620	0.000647	6.467753	2.191334	0.051624
 225	1.1200e-01	8.9243	68.923639	0.000616	6.164577	2.088615	0.049204
 226	1.1250e-01	8.9741	69.157558	0.000586	5.861401	1.985896	0.046784
 227	1.1300e-01	9.0110	69.310816	0.000384	3.840228	1.301105	0.030652
 228	1.1350e-01	9.0543	69.613298	0.000758	7.579398	2.567970	0.060496
 229	1.1400e-01	9.0944	69.827053	0.000536	5.356108	1.814698	0.042751
 230	1.1450e-01	9.1265	70.194065	0.000920	9.196336	3.115803	0.073402
 231	1.1500e-01	9.1794	70.335223	0.000354	3.537052	1.198386	0.028232
 232	1.1550e-01	9.2195	70.585275	0.000627	6.265636	2.122855	0.050010
 233	1.1600e-01	9.2484	70.726434	0.000354	3.537052	1.198386	0.028232
 234	1.1650e-01	9.2869	70.932122	0.000515	5.153991	1.746219	0.041138
 235	1.1700e-01	9.3286	71.234604	0.000758	7.579398	2.567970	0.060496
 236	1.1750e-01	9.3655	71.549186	0.000788	7.882574	2.670688	0.062916
 237	1.1800e-01	9.4104	71.585484	0.000091	0.909528	0.308156	0.007260
 238	1.1850e-01	9.4553	71.863767	0.000697	6.973046	2.362532	0.055657
 239	1.1900e-01	9.4842	72.012992	0.000374	3.739170	1.266865	0.029845
 240	1.1950e-01	9.5259	72.250945	0.000596	5.962460	2.020136	0.047591
 241	1.2000e-01	9.5773	72.553427	0.000758	7.579398	2.567970	0.060496
 242	1.2050e-01	9.6142	72.795413	0.000606	6.063518	2.054376	0.048397
 243	1.2100e-01	9.6527	72.964803	0.000424	4.244463	1.438063	0.033878
 244	1.2150e-01	9.6960	73.243087	0.000697	6.973046	2.362532	0.055657
 245	1.2200e-01	9.7329	73.472974	0.000576	5.760342	1.951657	0.045977
 246	1.2250e-01	9.7730	73.702860	0.000576	5.760342	1.951657	0.045977
 247	1.2300e-01	9.8099	73.811754	0.000273	2.728583	0.924469	0.021779
 248	1.2350e-01	9.8548	74.122303	0.000778	7.781515	2.636449	0.062110
 249	1.2400e-01	9.8917	74.344123	0.000556	5.558225	1.883178	0.044364
 250	1.2450e-01	9.9302	74.569977	0.000566	5.659284	1.917417	0.045171
 251	1.2500e-01	9.9559	74.787764	0.000546	5.457167	1.848938	0.043557
 252	1.2550e-01	10.0120	74.953121	0.000414	4.143404	1.403823	0.033071
 253	1.2600e-01	10.0601	75.126544	0.000435	4.345521	1.472303	0.034685
 254	1.2650e-01	10.0890	75.279802	0.000384	3.840228	1.301105	0.030652
 255	1.2700e-01	10.1307	75.550020	0.000677	6.770929	2.294053	0.054044
 256	1.2750e-01	10.1708	75.812171	0.000657	6.568812	2.225574	0.052430
 257	1.2800e-01	10.2109	76.062223	0.000627	6.265636	2.122855	0.050010
 258	1.2850e-01	10.2543	76.263878	0.000505	5.052932	1.711980	0.040331
 259	1.2900e-01	10.2863	76.441334	0.000445	4.446580	1.506542	0.035491
 260	1.2950e-01	10.3345	76.691386	0.000627	6.265636	2.122855	0.050010
 261	1.3000e-01	10.3762	77.062432	0.000930	9.297395	3.150043	0.074209
 262	1.3050e-01	10.4131	77.316517	0.000637	6.366694	2.157094	0.050817
 263	1.3100e-01	10.4516	77.453642	0.000344	3.435994	1.164146	0.027425
 264	1.3150e-01	10.4933	77.667396	0.000536	5.356108	1.814698	0.042751
 265	1.3200e-01	10.5318	77.969879	0.000758	7.579398	2.567970	0.060496
