»»»»»»»»»»»»»»»»»»»»»»»»»»»»»»»»»»»» Hysteresis ««««««««««««««««««««««««««««««««««««
»»»  Executed Version:	5.48.1
»»»  Vision Version:	5.48.4 (R)
»»»  Vision Compiled:	9/18/24
»»»  Driver Version:	5.47.0
»»»  Windows Version:	Windows 8 or 8.1
»»»  Processor Information:	x86 (AMD or Intel) - 32 Processors
»»»  Tester Name:	PMF21124-494 (100V)
»»»  Tester S/N:	PMF21124-494
»»»  Internal Amp Type:	100V RevK 270k
»»»  Internal Amp S/N:	iAB2-596/K     
»»»  Execution Count:	1
»»»»»»»»»»»»»»»»»»»»»»»»»»»»»»»»»»»»»»»»»»««««««««««««««««««««««««««««««««««««««««««

Stored:	6/16/2025 - 15:53:2
Configured:	06/16/25 02:13:38 PM
Executed:	06/16/25 03:52:14 PM

»»»»»»»»»»»»»»»»»»»»»»»»»»»»»»»»»»» Sample Info ««««««««««««««««««««««««««««««««««««
Sample Name:	
Lot Name:	
Wafer Name:	
Die Row/Column:	0/0
Capacitor Number:	0
Sample Area (cm2):	1.00e-04
Sample Thickness (microns):	3.00e-01

Amplifier:	Internal

»»»»»»»»»»»»»»»»»»»»»»»»»»»»»»»»»»» Tester Info «««««««««««««««««««««««««««««««««««
Tester Name:	PMF21124-494 (100V)
Tester Serial Number:	PMF21124-494
Return Signal Amp. Level:	1.9 [Index: 2]

»»»»»»»»»»»»»»»»»»»»»»»»»»»»»»»» Hysteresis Info ««««««««««««««««««««««««««««««««««
Task Name:	Hyst-4
Volts:	20.00
Field:	666.67 (kV/cm)
DCBias:	0.00
DCField:	0.00 (kV/cm)
Hysteresis Period (ms):	2.00e+02
Preset:	Enabled
Preset Delay (ms):	1.00e+03
Profile:	Standard Bipolar

»»»»»»»»»»»»»»»»»»»»»»»»»»»»»»»»»»»»»» Data «««««««««««««««««««««««««««««««««««««««
Points:	2009

Valid Data

Point	Time (ms)	Drive Voltage	Measured Polarization (uC/cm2)	Capacitance (uF)	Normalized Capacitance (uF/cm2)	Dielectric Constant	Instantaneous Current (mA)
   1	0.0000e+00	0.0289	-2.627563	0.000109	1.090506	0.369474	0.000044
   2	9.9500e-02	0.0786	-2.583977	0.000109	1.090506	0.369474	0.000044
   3	1.9900e-01	0.1235	-2.519617	0.000161	1.610281	0.545578	0.000065
   4	2.9850e-01	0.1364	-2.461775	0.000145	1.447214	0.490329	0.000058
   5	3.9800e-01	0.1749	-2.394156	0.000169	1.691814	0.573202	0.000068
   6	4.9750e-01	0.2150	-2.331832	0.000156	1.559322	0.528313	0.000063
   7	5.9700e-01	0.2583	-2.268694	0.000158	1.579706	0.535219	0.000063
   8	6.9650e-01	0.3192	-2.203927	0.000162	1.620472	0.549031	0.000065
   9	7.9600e-01	0.3257	-2.140381	0.000159	1.589897	0.538672	0.000064
  10	8.9550e-01	0.3642	-2.073170	0.000168	1.681622	0.569749	0.000068
  11	9.9500e-01	0.4235	-2.010439	0.000157	1.569514	0.531766	0.000063
  12	1.0945e+00	0.4492	-1.945672	0.000162	1.620472	0.549031	0.000065
  13	1.1940e+00	0.4989	-1.879275	0.000166	1.661239	0.562843	0.000067
  14	1.2935e+00	0.5374	-1.814507	0.000162	1.620472	0.549031	0.000065
  15	1.3930e+00	0.5663	-1.751777	0.000157	1.569514	0.531766	0.000063
  16	1.4925e+00	0.6048	-1.671938	0.000200	1.997563	0.676793	0.000080
  17	1.5920e+00	0.6722	-1.596172	0.000190	1.895647	0.642262	0.000076
  18	1.6915e+00	0.7155	-1.529368	0.000167	1.671430	0.566296	0.000067
  19	1.7910e+00	0.7299	-1.467859	0.000154	1.538939	0.521407	0.000062
  20	1.8905e+00	0.7700	-1.400240	0.000169	1.691814	0.573202	0.000068
  21	1.9900e+00	0.8150	-1.335065	0.000163	1.630664	0.552484	0.000066
  22	2.0895e+00	0.8567	-1.267039	0.000170	1.702005	0.576655	0.000068
  23	2.1890e+00	0.8984	-1.202679	0.000161	1.610281	0.545578	0.000065
  24	2.2885e+00	0.9481	-1.136282	0.000166	1.661239	0.562843	0.000067
  25	2.3880e+00	0.9706	-1.071922	0.000161	1.610281	0.545578	0.000065
  26	2.4875e+00	1.0187	-1.003081	0.000172	1.722389	0.583561	0.000069
  27	2.5870e+00	1.0588	-0.932203	0.000177	1.773347	0.600826	0.000071
  28	2.6865e+00	1.0813	-0.868251	0.000160	1.600089	0.542125	0.000064
  29	2.7860e+00	1.1278	-0.802261	0.000165	1.651047	0.559390	0.000066
  30	2.8855e+00	1.1695	-0.731384	0.000177	1.773347	0.600826	0.000071
  31	2.9850e+00	1.2112	-0.666616	0.000162	1.620472	0.549031	0.000065
  32	3.0845e+00	1.2401	-0.599405	0.000168	1.681622	0.569749	0.000068
  33	3.1840e+00	1.3058	-0.533008	0.000166	1.661239	0.562843	0.000067
  34	3.2835e+00	1.3492	-0.463352	0.000174	1.742772	0.590467	0.000070
  35	3.3830e+00	1.3828	-0.387994	0.000189	1.885455	0.638809	0.000076
  36	3.4825e+00	1.4165	-0.326892	0.000153	1.528747	0.517954	0.000061
  37	3.5820e+00	1.4791	-0.259681	0.000168	1.681622	0.569749	0.000068
  38	3.6815e+00	1.5048	-0.196543	0.000158	1.579706	0.535219	0.000063
  39	3.7810e+00	1.5529	-0.130146	0.000166	1.661239	0.562843	0.000067
  40	3.8805e+00	1.5818	-0.062934	0.000168	1.681622	0.569749	0.000068
  41	3.9800e+00	1.6283	-0.004277	0.000147	1.467597	0.497235	0.000059
  42	4.0795e+00	1.6684	0.063342	0.000169	1.691814	0.573202	0.000068
  43	4.1790e+00	1.6925	0.127295	0.000160	1.600089	0.542125	0.000064
  44	4.2785e+00	1.7310	0.195321	0.000170	1.702005	0.576655	0.000068
  45	4.3780e+00	1.7566	0.264569	0.000173	1.732580	0.587014	0.000070
  46	4.4775e+00	1.7951	0.330966	0.000166	1.661239	0.562843	0.000067
  47	4.5770e+00	1.8385	0.401843	0.000177	1.773347	0.600826	0.000071
  48	4.6765e+00	1.8850	0.471092	0.000173	1.732580	0.587014	0.000070
  49	4.7760e+00	1.9010	0.537488	0.000166	1.661239	0.562843	0.000067
  50	4.8755e+00	1.9764	0.598590	0.000153	1.528747	0.517954	0.000061
  51	4.9750e+00	2.0053	0.669060	0.000176	1.763155	0.597373	0.000071
  52	5.0745e+00	2.0534	0.740345	0.000178	1.783539	0.604279	0.000072
  53	5.1740e+00	2.1192	0.811223	0.000177	1.773347	0.600826	0.000071
  54	5.2735e+00	2.1417	0.883730	0.000181	1.814113	0.614638	0.000073
  55	5.3730e+00	2.1866	0.945238	0.000154	1.538939	0.521407	0.000062
  56	5.4725e+00	2.1994	1.015709	0.000176	1.763155	0.597373	0.000071
  57	5.5720e+00	2.2668	1.081291	0.000164	1.640855	0.555937	0.000066
  58	5.6715e+00	2.3005	1.148502	0.000168	1.681622	0.569749	0.000068
  59	5.7710e+00	2.3293	1.212862	0.000161	1.610281	0.545578	0.000065
  60	5.8705e+00	2.3470	1.280889	0.000170	1.702005	0.576655	0.000068
  61	5.9700e+00	2.4272	1.345656	0.000162	1.620472	0.549031	0.000065
  62	6.0695e+00	2.4449	1.414090	0.000171	1.712197	0.580108	0.000069
  63	6.1690e+00	2.4850	1.480487	0.000166	1.661239	0.562843	0.000067
  64	6.2685e+00	2.5154	1.548513	0.000170	1.702005	0.576655	0.000068
  65	6.3680e+00	2.5620	1.613280	0.000162	1.620472	0.549031	0.000065
  66	6.4675e+00	2.5989	1.678048	0.000162	1.620472	0.549031	0.000065
  67	6.5670e+00	2.6406	1.741593	0.000159	1.589897	0.538672	0.000064
  68	6.6665e+00	2.7047	1.807990	0.000166	1.661239	0.562843	0.000067
  69	6.7660e+00	2.7256	1.874387	0.000166	1.661239	0.562843	0.000067
  70	6.8655e+00	2.7930	1.946079	0.000179	1.793730	0.607732	0.000072
  71	6.9650e+00	2.8106	2.012883	0.000167	1.671430	0.566296	0.000067
  72	7.0645e+00	2.8523	2.074799	0.000155	1.549131	0.524860	0.000062
  73	7.1640e+00	2.8956	2.136308	0.000154	1.538939	0.521407	0.000062
  74	7.2635e+00	2.9309	2.201075	0.000162	1.620472	0.549031	0.000065
  75	7.3630e+00	2.9823	2.268287	0.000168	1.681622	0.569749	0.000068
  76	7.4625e+00	3.0031	2.329796	0.000154	1.538939	0.521407	0.000062
  77	7.5620e+00	3.0657	2.394156	0.000161	1.610281	0.545578	0.000065
  78	7.6615e+00	3.0817	2.461367	0.000168	1.681622	0.569749	0.000068
  79	7.7610e+00	3.1347	2.525727	0.000161	1.610281	0.545578	0.000065
  80	7.8605e+00	3.1668	2.593346	0.000169	1.691814	0.573202	0.000068
  81	7.9600e+00	3.2037	2.654448	0.000153	1.528747	0.517954	0.000061
  82	8.0595e+00	3.2357	2.716364	0.000155	1.549131	0.524860	0.000062
  83	8.1590e+00	3.2742	2.784390	0.000170	1.702005	0.576655	0.000068
  84	8.2585e+00	3.3432	2.854453	0.000175	1.752964	0.593920	0.000070
  85	8.3580e+00	3.3753	2.912703	0.000146	1.457406	0.493782	0.000059
  86	8.4575e+00	3.4170	2.977063	0.000161	1.610281	0.545578	0.000065
  87	8.5570e+00	3.4491	3.052829	0.000190	1.895647	0.642262	0.000076
  88	8.6565e+00	3.4972	3.118818	0.000165	1.651047	0.559390	0.000066
  89	8.7560e+00	3.5373	3.179920	0.000153	1.528747	0.517954	0.000061
  90	8.8555e+00	3.5839	3.245094	0.000163	1.630664	0.552484	0.000066
  91	8.9550e+00	3.6079	3.312713	0.000169	1.691814	0.573202	0.000068
  92	9.0545e+00	3.6496	3.374222	0.000154	1.538939	0.521407	0.000062
  93	9.1540e+00	3.6929	3.440212	0.000165	1.651047	0.559390	0.000066
  94	9.2535e+00	3.7266	3.502535	0.000156	1.559322	0.528313	0.000063
  95	9.3530e+00	3.7603	3.570154	0.000169	1.691814	0.573202	0.000068
  96	9.4525e+00	3.8052	3.632070	0.000155	1.549131	0.524860	0.000062
  97	9.5520e+00	3.8470	3.695615	0.000159	1.589897	0.538672	0.000064
  98	9.6515e+00	3.8790	3.756717	0.000153	1.528747	0.517954	0.000061
  99	9.7510e+00	3.9111	3.819855	0.000158	1.579706	0.535219	0.000063
 100	9.8505e+00	3.9512	3.887474	0.000169	1.691814	0.573202	0.000068
 101	9.9500e+00	3.9929	3.949797	0.000156	1.559322	0.528313	0.000063
 102	1.0050e+01	4.0282	4.008862	0.000148	1.477789	0.500688	0.000059
 103	1.0149e+01	4.0908	4.068334	0.000149	1.487981	0.504142	0.000060
 104	1.0248e+01	4.1100	4.140026	0.000179	1.793730	0.607732	0.000072
 105	1.0348e+01	4.1566	4.208052	0.000170	1.702005	0.576655	0.000068
 106	1.0447e+01	4.2191	4.268339	0.000151	1.508364	0.511048	0.000061
 107	1.0547e+01	4.2689	4.331884	0.000159	1.589897	0.538672	0.000064
 108	1.0646e+01	4.3154	4.397467	0.000164	1.640855	0.555937	0.000066
 109	1.0746e+01	4.3378	4.460197	0.000157	1.569514	0.531766	0.000063
 110	1.0845e+01	4.3699	4.523743	0.000159	1.589897	0.538672	0.000064
 111	1.0945e+01	4.3940	4.587288	0.000159	1.589897	0.538672	0.000064
 112	1.1044e+01	4.4453	4.646353	0.000148	1.477789	0.500688	0.000059
 113	1.1144e+01	4.4710	4.711528	0.000163	1.630664	0.552484	0.000066
 114	1.1243e+01	4.5384	4.776702	0.000163	1.630664	0.552484	0.000066
 115	1.1343e+01	4.5544	4.837804	0.000153	1.528747	0.517954	0.000061
 116	1.1443e+01	4.6058	4.900942	0.000158	1.579706	0.535219	0.000063
 117	1.1542e+01	4.6298	4.964487	0.000159	1.589897	0.538672	0.000064
 118	1.1642e+01	4.6683	5.030069	0.000164	1.640855	0.555937	0.000066
 119	1.1741e+01	4.7197	5.095244	0.000163	1.630664	0.552484	0.000066
 120	1.1841e+01	4.7566	5.158790	0.000159	1.589897	0.538672	0.000064
 121	1.1940e+01	4.8303	5.230075	0.000178	1.783539	0.604279	0.000072
 122	1.2040e+01	4.8560	5.294842	0.000162	1.620472	0.549031	0.000065
 123	1.2139e+01	4.9170	5.362054	0.000168	1.681622	0.569749	0.000068
 124	1.2239e+01	4.9651	5.426414	0.000161	1.610281	0.545578	0.000065
 125	1.2338e+01	4.9763	5.489552	0.000158	1.579706	0.535219	0.000063
 126	1.2438e+01	4.9988	5.552690	0.000158	1.579706	0.535219	0.000063
 127	1.2537e+01	5.0485	5.621531	0.000172	1.722389	0.583561	0.000069
 128	1.2636e+01	5.0790	5.686298	0.000162	1.620472	0.549031	0.000065
 129	1.2736e+01	5.1063	5.740475	0.000136	1.355489	0.459252	0.000054
 130	1.2835e+01	5.1432	5.806872	0.000166	1.661239	0.562843	0.000067
 131	1.2935e+01	5.1977	5.872047	0.000163	1.630664	0.552484	0.000066
 132	1.3034e+01	5.2426	5.937221	0.000163	1.630664	0.552484	0.000066
 133	1.3134e+01	5.2731	6.007284	0.000175	1.752964	0.593920	0.000070
 134	1.3233e+01	5.3068	6.066349	0.000148	1.477789	0.500688	0.000059
 135	1.3333e+01	5.3597	6.130302	0.000160	1.600089	0.542125	0.000064
 136	1.3432e+01	5.3822	6.196291	0.000165	1.651047	0.559390	0.000066
 137	1.3532e+01	5.4271	6.263910	0.000169	1.691814	0.573202	0.000068
 138	1.3632e+01	5.4720	6.318494	0.000137	1.365681	0.462705	0.000055
 139	1.3731e+01	5.5041	6.391001	0.000181	1.814113	0.614638	0.000073
 140	1.3831e+01	5.5827	6.453324	0.000156	1.559322	0.528313	0.000063
 141	1.3930e+01	5.6148	6.525017	0.000179	1.793730	0.607732	0.000072
 142	1.4030e+01	5.6710	6.584489	0.000149	1.487981	0.504142	0.000060
 143	1.4129e+01	5.6870	6.652922	0.000171	1.712197	0.580108	0.000069
 144	1.4229e+01	5.7319	6.717282	0.000161	1.610281	0.545578	0.000065
 145	1.4328e+01	5.7544	6.775940	0.000147	1.467597	0.497235	0.000059
 146	1.4428e+01	5.8057	6.844373	0.000171	1.712197	0.580108	0.000069
 147	1.4527e+01	5.8250	6.909141	0.000162	1.620472	0.549031	0.000065
 148	1.4627e+01	5.8843	6.975130	0.000165	1.651047	0.559390	0.000066
 149	1.4726e+01	5.9164	7.045600	0.000176	1.763155	0.597373	0.000071
 150	1.4825e+01	5.9517	7.107924	0.000156	1.559322	0.528313	0.000063
 151	1.4925e+01	6.0046	7.173099	0.000163	1.630664	0.552484	0.000066
 152	1.5024e+01	6.0496	7.242754	0.000174	1.742772	0.590467	0.000070
 153	1.5124e+01	6.0688	7.312817	0.000175	1.752964	0.593920	0.000070
 154	1.5223e+01	6.1153	7.377992	0.000163	1.630664	0.552484	0.000066
 155	1.5323e+01	6.1442	7.447240	0.000173	1.732580	0.587014	0.000070
 156	1.5422e+01	6.2036	7.506712	0.000149	1.487981	0.504142	0.000060
 157	1.5522e+01	6.2453	7.576368	0.000174	1.742772	0.590467	0.000070
 158	1.5621e+01	6.2774	7.651319	0.000188	1.875263	0.635356	0.000075
 159	1.5721e+01	6.3271	7.715679	0.000161	1.610281	0.545578	0.000065
 160	1.5820e+01	6.3704	7.784112	0.000171	1.712197	0.580108	0.000069
 161	1.5920e+01	6.4073	7.849287	0.000163	1.630664	0.552484	0.000066
 162	1.6020e+01	6.4458	7.919758	0.000176	1.763155	0.597373	0.000071
 163	1.6119e+01	6.4747	7.984118	0.000161	1.610281	0.545578	0.000065
 164	1.6218e+01	6.4971	8.048070	0.000160	1.600089	0.542125	0.000064
 165	1.6318e+01	6.5324	8.112023	0.000160	1.600089	0.542125	0.000064
 166	1.6418e+01	6.5950	8.183308	0.000178	1.783539	0.604279	0.000072
 167	1.6517e+01	6.6319	8.247668	0.000161	1.610281	0.545578	0.000065
 168	1.6616e+01	6.6688	8.316917	0.000173	1.732580	0.587014	0.000070
 169	1.6716e+01	6.6880	8.387387	0.000176	1.763155	0.597373	0.000071
 170	1.6816e+01	6.7506	8.457450	0.000175	1.752964	0.593920	0.000070
 171	1.6915e+01	6.7650	8.520180	0.000157	1.569514	0.531766	0.000063
 172	1.7015e+01	6.8196	8.588614	0.000171	1.712197	0.580108	0.000069
 173	1.7114e+01	6.8822	8.655826	0.000168	1.681622	0.569749	0.000068
 174	1.7213e+01	6.9014	8.723444	0.000169	1.691814	0.573202	0.000068
 175	1.7313e+01	6.9479	8.790656	0.000168	1.681622	0.569749	0.000068
 176	1.7413e+01	7.0121	8.856645	0.000165	1.651047	0.559390	0.000066
 177	1.7512e+01	7.0314	8.925486	0.000172	1.722389	0.583561	0.000069
 178	1.7611e+01	7.0586	8.992290	0.000167	1.671430	0.566296	0.000067
 179	1.7711e+01	7.1132	9.062761	0.000176	1.763155	0.597373	0.000071
 180	1.7811e+01	7.1693	9.134046	0.000178	1.783539	0.604279	0.000072
 181	1.7910e+01	7.1693	9.197591	-0.000159	-1.589897	-0.538672	0.000064
 182	1.8009e+01	7.2319	9.268061	0.000176	1.763155	0.597373	0.000071
 183	1.8109e+01	7.2720	9.343012	0.000188	1.875263	0.635356	0.000075
 184	1.8209e+01	7.3201	9.415112	0.000180	1.803922	0.611185	0.000072
 185	1.8308e+01	7.3474	9.485990	0.000177	1.773347	0.600826	0.000071
 186	1.8407e+01	7.3987	9.550350	0.000161	1.610281	0.545578	0.000065
 187	1.8507e+01	7.4292	9.622449	0.000180	1.803922	0.611185	0.000072
 188	1.8607e+01	7.4661	9.689661	0.000168	1.681622	0.569749	0.000068
 189	1.8706e+01	7.4950	9.764205	0.000187	1.865072	0.631903	0.000075
 190	1.8805e+01	7.5463	9.831009	0.000167	1.671430	0.566296	0.000067
 191	1.8905e+01	7.5880	9.897813	0.000167	1.671430	0.566296	0.000067
 192	1.9005e+01	7.6185	9.964617	0.000167	1.671430	0.566296	0.000067
 193	1.9104e+01	7.6923	10.037124	0.000181	1.814113	0.614638	0.000073
 194	1.9203e+01	7.7180	10.102706	0.000164	1.640855	0.555937	0.000066
 195	1.9303e+01	7.7597	10.174806	0.000180	1.803922	0.611185	0.000072
 196	1.9402e+01	7.8094	10.244461	0.000174	1.742772	0.590467	0.000070
 197	1.9502e+01	7.8222	10.315746	0.000178	1.783539	0.604279	0.000072
 198	1.9602e+01	7.8848	10.381736	0.000165	1.651047	0.559390	0.000066
 199	1.9701e+01	7.9089	10.454243	0.000181	1.814113	0.614638	0.000073
 200	1.9800e+01	7.9570	10.523491	0.000173	1.732580	0.587014	0.000070
 201	1.9900e+01	7.9795	10.590295	0.000167	1.671430	0.566296	0.000067
 202	2.0000e+01	8.0244	10.662395	0.000180	1.803922	0.611185	0.000072
 203	2.0099e+01	8.0853	10.727162	0.000162	1.620472	0.549031	0.000065
 204	2.0198e+01	8.1126	10.793559	0.000166	1.661239	0.562843	0.000067
 205	2.0298e+01	8.1431	10.865252	0.000179	1.793730	0.607732	0.000072
 206	2.0398e+01	8.1736	10.928390	0.000158	1.579706	0.535219	0.000063
 207	2.0497e+01	8.2201	11.000082	0.000179	1.793730	0.607732	0.000072
 208	2.0596e+01	8.2682	11.061998	0.000155	1.549131	0.524860	0.000062
 209	2.0696e+01	8.3051	11.131654	0.000174	1.742772	0.590467	0.000070
 210	2.0796e+01	8.3532	11.200087	0.000171	1.712197	0.580108	0.000069
 211	2.0895e+01	8.3917	11.266891	0.000167	1.671430	0.566296	0.000067
 212	2.0994e+01	8.4399	11.340213	0.000183	1.834497	0.621544	0.000074
 213	2.1094e+01	8.4736	11.404166	0.000160	1.600089	0.542125	0.000064
 214	2.1194e+01	8.5249	11.477080	0.000182	1.824305	0.618091	0.000073
 215	2.1293e+01	8.5506	11.544292	0.000168	1.681622	0.569749	0.000068
 216	2.1392e+01	8.6131	11.611096	0.000167	1.671430	0.566296	0.000067
 217	2.1492e+01	8.6260	11.681566	0.000176	1.763155	0.597373	0.000071
 218	2.1591e+01	8.6564	11.751222	0.000174	1.742772	0.590467	0.000070
 219	2.1691e+01	8.7110	11.817211	0.000165	1.651047	0.559390	0.000066
 220	2.1791e+01	8.7447	11.889311	0.000180	1.803922	0.611185	0.000072
 221	2.1890e+01	8.7848	11.953671	0.000161	1.610281	0.545578	0.000065
 222	2.1989e+01	8.8249	12.020882	0.000168	1.681622	0.569749	0.000068
 223	2.2089e+01	8.8473	12.091353	0.000176	1.763155	0.597373	0.000071
 224	2.2189e+01	8.9131	12.161008	0.000174	1.742772	0.590467	0.000070
 225	2.2288e+01	8.9324	12.230256	0.000173	1.732580	0.587014	0.000070
 226	2.2387e+01	8.9805	12.298690	0.000171	1.712197	0.580108	0.000069
 227	2.2487e+01	9.0174	12.364679	0.000165	1.651047	0.559390	0.000066
 228	2.2587e+01	9.0623	12.436372	0.000179	1.793730	0.607732	0.000072
 229	2.2686e+01	9.1040	12.499917	0.000159	1.589897	0.538672	0.000064
 230	2.2785e+01	9.1602	12.569980	0.000175	1.752964	0.593920	0.000070
 231	2.2885e+01	9.2115	12.639636	0.000174	1.742772	0.590467	0.000070
 232	2.2985e+01	9.2259	12.706033	0.000166	1.661239	0.562843	0.000067
 233	2.3084e+01	9.3013	12.770393	0.000161	1.610281	0.545578	0.000065
 234	2.3183e+01	9.3013	12.836789	-0.000166	-1.661239	-0.562843	0.000067
 235	2.3283e+01	9.3495	12.901557	0.000162	1.620472	0.549031	0.000065
 236	2.3383e+01	9.3928	12.965917	0.000161	1.610281	0.545578	0.000065
 237	2.3482e+01	9.4265	13.033943	0.000170	1.702005	0.576655	0.000068
 238	2.3581e+01	9.4890	13.097081	0.000158	1.579706	0.535219	0.000063
 239	2.3681e+01	9.5003	13.163071	0.000165	1.651047	0.559390	0.000066
 240	2.3780e+01	9.5356	13.224987	0.000155	1.549131	0.524860	0.000062
 241	2.3880e+01	9.5773	13.290569	0.000164	1.640855	0.555937	0.000066
 242	2.3980e+01	9.6302	13.355744	0.000163	1.630664	0.552484	0.000066
 243	2.4079e+01	9.6607	13.424992	0.000173	1.732580	0.587014	0.000070
 244	2.4178e+01	9.6896	13.488945	0.000160	1.600089	0.542125	0.000064
 245	2.4278e+01	9.7281	13.551268	0.000156	1.559322	0.528313	0.000063
 246	2.4378e+01	9.7794	13.617258	0.000165	1.651047	0.559390	0.000066
 247	2.4477e+01	9.8323	13.682433	0.000163	1.630664	0.552484	0.000066
 248	2.4576e+01	9.8516	13.745978	0.000159	1.589897	0.538672	0.000064
 249	2.4676e+01	9.9174	13.817263	0.000178	1.783539	0.604279	0.000072
 250	2.4776e+01	9.9462	13.883253	0.000165	1.651047	0.559390	0.000066
 251	2.4875e+01	9.9944	13.948835	0.000164	1.640855	0.555937	0.000066
 252	2.4974e+01	10.0168	14.013195	0.000161	1.610281	0.545578	0.000065
 253	2.5074e+01	10.0634	14.079184	0.000165	1.651047	0.559390	0.000066
 254	2.5174e+01	10.0858	14.139064	0.000150	1.498172	0.507595	0.000060
 255	2.5273e+01	10.1644	14.205053	0.000165	1.651047	0.559390	0.000066
 256	2.5372e+01	10.1805	14.269006	0.000160	1.600089	0.542125	0.000064
 257	2.5472e+01	10.2430	14.333366	0.000161	1.610281	0.545578	0.000065
 258	2.5572e+01	10.2655	14.394875	0.000154	1.538939	0.521407	0.000062
 259	2.5671e+01	10.2847	14.464530	0.000174	1.742772	0.590467	0.000070
 260	2.5770e+01	10.3264	14.528076	0.000159	1.589897	0.538672	0.000064
 261	2.5870e+01	10.3698	14.590807	0.000157	1.569514	0.531766	0.000063
 262	2.5970e+01	10.4291	14.655981	0.000163	1.630664	0.552484	0.000066
 263	2.6069e+01	10.4484	14.721156	0.000163	1.630664	0.552484	0.000066
