»»»»»»»»»»»»»»»»»»»»»»»»»»»»»»»»»»»» Hysteresis ««««««««««««««««««««««««««««««««««««
»»»  Executed Version:	5.48.1
»»»  Vision Version:	5.48.4 (R)
»»»  Vision Compiled:	9/18/24
»»»  Driver Version:	5.47.0
»»»  Windows Version:	Windows 8 or 8.1
»»»  Processor Information:	x86 (AMD or Intel) - 32 Processors
»»»  Tester Name:	PMF21124-494 (100V)
»»»  Tester S/N:	PMF21124-494
»»»  Internal Amp Type:	100V RevK 270k
»»»  Internal Amp S/N:	iAB2-596/K     
»»»  Execution Count:	1
»»»»»»»»»»»»»»»»»»»»»»»»»»»»»»»»»»»»»»»»»»««««««««««««««««««««««««««««««««««««««««««

Stored:	6/17/2025 - 10:56:26
Configured:	06/17/25 10:39:14 AM
Executed:	06/17/25 10:55:18 AM

»»»»»»»»»»»»»»»»»»»»»»»»»»»»»»»»»»» Sample Info ««««««««««««««««««««««««««««««««««««
Sample Name:	
Lot Name:	
Wafer Name:	
Die Row/Column:	0/0
Capacitor Number:	0
Sample Area (cm2):	1.00e-04
Sample Thickness (microns):	3.00e-01

Amplifier:	Internal

»»»»»»»»»»»»»»»»»»»»»»»»»»»»»»»»»»» Tester Info «««««««««««««««««««««««««««««««««««
Tester Name:	PMF21124-494 (100V)
Tester Serial Number:	PMF21124-494
Return Signal Amp. Level:	1.79 [Index: 2]

»»»»»»»»»»»»»»»»»»»»»»»»»»»»»»»» Hysteresis Info ««««««««««««««««««««««««««««««««««
Task Name:	Hyst-180
Volts:	20.00
Field:	666.67 (kV/cm)
DCBias:	0.00
DCField:	0.00 (kV/cm)
Hysteresis Period (ms):	1.00e+00
Preset:	Enabled
Preset Delay (ms):	1.00e+03
Profile:	Standard Bipolar

»»»»»»»»»»»»»»»»»»»»»»»»»»»»»»»»»»»»»» Data «««««««««««««««««««««««««««««««««««««««
Points:	2001

Valid Data

Point	Time (ms)	Drive Voltage	Measured Polarization (uC/cm2)	Capacitance (uF)	Normalized Capacitance (uF/cm2)	Dielectric Constant	Instantaneous Current (mA)
   1	0.0000e+00	0.0257	-2.495193	0.000341	3.412449	1.156169	0.027454
   2	5.0000e-04	0.0545	-2.357926	0.000341	3.412449	1.156169	0.027454
   3	1.0000e-03	0.1011	-2.486213	-0.000319	-3.189204	-1.080532	-0.025658
   4	1.5000e-03	0.1572	-2.372037	0.000284	2.838392	0.961673	0.022835
   5	2.0000e-03	0.1925	-2.348946	0.000057	0.574057	0.194496	0.004618
   6	2.5000e-03	0.2118	-2.133422	0.000536	5.357864	1.815293	0.043105
   7	3.0000e-03	0.2535	-2.266842	-0.000332	-3.316773	-1.123753	-0.026684
   8	3.5000e-03	0.3208	-2.038917	0.000567	5.666153	1.919745	0.045585
   9	4.0000e-03	0.3433	-1.827670	0.000525	5.251557	1.779276	0.042249
  10	4.5000e-03	0.3802	-1.710929	0.000290	2.902176	0.983284	0.023348
  11	5.0000e-03	0.4476	-1.890959	-0.000448	-4.475517	-1.516346	-0.036006
  12	5.5000e-03	0.4781	-1.733593	0.000391	3.912091	1.325452	0.031473
  13	6.0000e-03	0.5118	-1.549286	0.000458	4.581824	1.552364	0.036861
  14	6.5000e-03	0.5743	-1.488136	0.000152	1.520187	0.515053	0.012230
  15	7.0000e-03	0.5695	-1.353434	-0.000335	-3.348665	-1.134558	0.026940
  16	7.5000e-03	0.6273	-1.202482	0.000375	3.752631	1.271426	0.030190
  17	8.0000e-03	0.6625	-1.239686	-0.000092	-0.924869	-0.313354	-0.007441
  18	8.5000e-03	0.7043	-1.053241	0.000463	4.634977	1.570373	0.037289
  19	9.0000e-03	0.7492	-0.951894	0.000252	2.519472	0.853620	0.020269
  20	9.5000e-03	0.7829	-0.823179	0.000320	3.199835	1.084133	0.025743
  21	1.0000e-02	0.8278	-0.811633	0.000029	0.287028	0.097248	0.002309
  22	1.0500e-02	0.8518	-0.609366	0.000503	5.028312	1.703638	0.040453
  23	1.1000e-02	0.9240	-0.709430	-0.000249	-2.487579	-0.842815	-0.020013
  24	1.1500e-02	0.9449	-0.479368	0.000572	5.719307	1.937754	0.046012
  25	1.2000e-02	0.9978	-0.446441	0.000082	0.818562	0.277336	0.006585
  26	1.2500e-02	1.0363	-0.236049	0.000523	5.230295	1.772072	0.042078
  27	1.3000e-02	1.0636	-0.183024	0.000132	1.318205	0.446620	0.010605
  28	1.3500e-02	1.1230	-0.194997	-0.000030	-0.297659	-0.100850	-0.002395
  29	1.4000e-02	1.1615	-0.116742	0.000195	1.945415	0.659124	0.015651
  30	1.4500e-02	1.2048	-0.009835	0.000266	2.657670	0.900443	0.021381
  31	1.5000e-02	1.2272	0.070986	0.000201	2.009199	0.680735	0.016164
  32	1.5500e-02	1.2770	0.144110	0.000182	1.817847	0.615903	0.014625
  33	1.6000e-02	1.3123	0.319008	0.000435	4.347949	1.473125	0.034980
  34	1.6500e-02	1.3427	0.503743	0.000459	4.592454	1.555966	0.036947
  35	1.7000e-02	1.3828	0.510585	0.000017	0.170091	0.057628	0.001368
  36	1.7500e-02	1.4310	0.550354	0.000099	0.988653	0.334965	0.007954
  37	1.8000e-02	1.4743	0.791534	0.000600	5.995704	2.031400	0.048236
  38	1.8500e-02	1.4951	0.719266	-0.000180	-1.796585	-0.608700	-0.014454
  39	1.9000e-02	1.5497	0.887750	0.000419	4.188489	1.419098	0.033697
  40	1.9500e-02	1.5850	1.007058	0.000297	2.965960	1.004895	0.023861
  41	2.0000e-02	1.6106	1.079326	0.000180	1.796585	0.608700	0.014454
  42	2.0500e-02	1.6524	1.298270	0.000544	5.442909	1.844107	0.043789
  43	2.1000e-02	1.6893	1.401328	0.000256	2.561994	0.868027	0.020612
  44	2.1500e-02	1.7582	1.386789	-0.000036	-0.361443	-0.122460	-0.002908
  45	2.2000e-02	1.7919	1.411591	0.000062	0.616580	0.208903	0.004960
  46	2.2500e-02	1.8144	1.636950	0.000560	5.602369	1.898134	0.045072
  47	2.3000e-02	1.8898	1.621555	-0.000038	-0.382705	-0.129664	-0.003079
  48	2.3500e-02	1.8962	1.805862	0.000458	4.581824	1.552364	0.036861
  49	2.4000e-02	1.9427	1.898656	0.000231	2.306858	0.781585	0.018559
  50	2.4500e-02	1.9572	2.107765	0.000520	5.198403	1.761267	0.041822
  51	2.5000e-02	2.0326	1.866157	-0.000601	-6.006335	-2.035001	-0.048322
  52	2.5500e-02	2.0759	2.197994	0.000825	8.249409	2.794975	0.066367
  53	2.6000e-02	2.1112	2.264276	0.000165	1.647756	0.558275	0.013256
  54	2.6500e-02	2.1465	2.298058	0.000084	0.839824	0.284540	0.006756
  55	2.7000e-02	2.1962	2.534535	0.000588	5.878767	1.991780	0.047295
  56	2.7500e-02	2.2379	2.481509	-0.000132	-1.318205	-0.446620	-0.010605
  57	2.8000e-02	2.2636	2.521706	0.000100	0.999284	0.338567	0.008039
  58	2.8500e-02	2.3358	2.660257	0.000344	3.444341	1.166974	0.027710
  59	2.9000e-02	2.3711	2.666244	0.000015	0.148830	0.050425	0.001197
  60	2.9500e-02	2.3999	2.926667	0.000647	6.474085	2.193479	0.052085
  61	3.0000e-02	2.4240	2.948476	0.000054	0.542165	0.183690	0.004362
  62	3.0500e-02	2.4898	3.048968	0.000250	2.498210	0.846417	0.020098
  63	3.1000e-02	2.5219	3.168276	0.000297	2.965960	1.004895	0.023861
  64	3.1500e-02	2.5475	3.232419	0.000159	1.594602	0.540266	0.012829
  65	3.2000e-02	2.5892	3.202913	-0.000073	-0.733517	-0.248522	-0.005901
  66	3.2500e-02	2.6309	3.515507	0.000777	7.771028	2.632896	0.062519
  67	3.3000e-02	2.6646	3.545441	0.000074	0.744148	0.252124	0.005987
  68	3.3500e-02	2.6903	3.675012	0.000322	3.221097	1.091337	0.025914
  69	3.4000e-02	2.7561	3.657051	-0.000045	-0.446489	-0.151274	-0.003592
  70	3.4500e-02	2.8058	3.850338	0.000481	4.805068	1.628001	0.038657
  71	3.5000e-02	2.8026	3.995731	-0.000361	-3.614432	-1.224603	0.029079
  72	3.5500e-02	2.8652	4.012408	0.000041	0.414597	0.140469	0.003335
  73	3.6000e-02	2.9053	4.025237	0.000032	0.318920	0.108053	0.002566
  74	3.6500e-02	2.9518	4.156945	0.000327	3.274250	1.109346	0.026342
  75	3.7000e-02	2.9919	4.222372	0.000163	1.626494	0.551071	0.013085
  76	3.7500e-02	3.0336	4.287799	0.000163	1.626494	0.551071	0.013085
  77	3.8000e-02	3.0496	4.502467	0.000534	5.336602	1.808090	0.042934
  78	3.8500e-02	3.1170	4.650425	0.000368	3.678216	1.246213	0.029592
  79	3.9000e-02	3.1587	4.634175	-0.000040	-0.403966	-0.136867	-0.003250
  80	3.9500e-02	3.1732	4.816771	0.000454	4.539301	1.537957	0.036519
  81	4.0000e-02	3.2325	4.965585	0.000370	3.699477	1.253417	0.029763
  82	4.0500e-02	3.2486	5.022886	0.000142	1.424511	0.482638	0.011460
  83	4.1000e-02	3.2887	5.107984	0.000212	2.115506	0.716753	0.017019
  84	4.1500e-02	3.3368	5.067360	-0.000101	-1.009915	-0.342168	-0.008125
  85	4.2000e-02	3.3881	5.298277	0.000574	5.740568	1.944957	0.046184
  86	4.2500e-02	3.4186	5.520215	0.000552	5.517324	1.869320	0.044388
  87	4.3000e-02	3.4780	5.464623	-0.000138	-1.381989	-0.468230	-0.011118
  88	4.3500e-02	3.5085	5.504820	0.000100	0.999284	0.338567	0.008039
  89	4.4000e-02	3.5486	5.496268	-0.000021	-0.212614	-0.072035	-0.001711
  90	4.4500e-02	3.5758	5.670739	0.000434	4.337318	1.469523	0.034894
  91	4.5000e-02	3.6448	5.719916	0.000122	1.222528	0.414204	0.009835
  92	4.5500e-02	3.6817	5.951689	0.000576	5.761829	1.952161	0.046355
  93	4.6000e-02	3.7202	5.961524	0.000024	0.244506	0.082841	0.001967
  94	4.6500e-02	3.7459	6.246322	0.000708	7.080034	2.398780	0.056960
  95	4.7000e-02	3.7972	6.124877	-0.000302	-3.019114	-1.022903	-0.024289
  96	4.7500e-02	3.8165	6.364775	0.000596	5.963812	2.020594	0.047980
  97	4.8000e-02	3.8838	6.358360	-0.000016	-0.159460	-0.054027	-0.001283
  98	4.8500e-02	3.9159	6.341683	-0.000041	-0.414597	-0.140469	-0.003335
  99	4.9000e-02	3.9448	6.762038	0.001045	10.449960	3.540542	0.084071
 100	4.9500e-02	3.9881	6.663257	-0.000246	-2.455687	-0.832009	-0.019756
 101	5.0000e-02	4.0330	6.895030	0.000576	5.761829	1.952161	0.046355
 102	5.0500e-02	4.0635	6.809077	-0.000214	-2.136767	-0.723956	-0.017191
 103	5.1000e-02	4.1004	7.051968	0.000604	6.038227	2.045807	0.048578
 104	5.1500e-02	4.1453	7.255518	0.000506	5.060204	1.714444	0.040710
 105	5.2000e-02	4.1838	7.159302	-0.000239	-2.391903	-0.810399	-0.019243
 106	5.2500e-02	4.2480	7.241834	0.000205	2.051722	0.695142	0.016506
 107	5.3000e-02	4.2705	7.454364	0.000528	5.283449	1.790081	0.042506
 108	5.3500e-02	4.3042	7.429134	-0.000063	-0.627210	-0.212505	-0.005046
 109	5.4000e-02	4.3507	7.593770	0.000409	4.092812	1.386682	0.032927
 110	5.4500e-02	4.3908	7.624131	0.000075	0.754778	0.255726	0.006072
 111	5.5000e-02	4.4100	7.739590	0.000287	2.870284	0.972479	0.023092
 112	5.5500e-02	4.4694	7.889686	0.000373	3.731369	1.264222	0.030019
 113	5.6000e-02	4.4999	8.052184	0.000404	4.039659	1.368674	0.032500
 114	5.6500e-02	4.5512	8.031658	-0.000051	-0.510273	-0.172885	-0.004105
 115	5.7000e-02	4.6025	8.063730	0.000080	0.797301	0.270133	0.006414
 116	5.7500e-02	4.6122	8.348101	0.000707	7.069403	2.395179	0.056874
 117	5.8000e-02	4.6763	8.399416	0.000128	1.275682	0.432213	0.010263
 118	5.8500e-02	4.7020	8.529414	0.000323	3.231727	1.094939	0.026000
 119	5.9000e-02	4.7533	8.518723	-0.000027	-0.265767	-0.090044	-0.002138
 120	5.9500e-02	4.8175	8.617932	0.000247	2.466318	0.835611	0.019842
 121	6.0000e-02	4.8448	8.628623	0.000027	0.265767	0.090044	0.002138
 122	6.0500e-02	4.8432	8.879639	-0.000624	-6.240210	-2.114240	0.050203
 123	6.1000e-02	4.9202	8.956184	0.000190	1.902892	0.644717	0.015309
 124	6.1500e-02	4.9491	8.967302	0.000028	0.276398	0.093646	0.002224
 125	6.2000e-02	4.9844	9.160589	0.000481	4.805068	1.628001	0.038657
 126	6.2500e-02	5.0549	9.121247	-0.000098	-0.978023	-0.331363	-0.007868
 127	6.3000e-02	5.0437	9.468479	-0.000863	-8.632113	-2.924639	0.069446
 128	6.3500e-02	5.1239	9.346606	-0.000303	-3.029744	-1.026505	-0.024375
 129	6.4000e-02	5.1448	9.411605	0.000162	1.615864	0.547469	0.013000
 130	6.4500e-02	5.1897	9.604891	0.000481	4.805068	1.628001	0.038657
 131	6.5000e-02	5.2218	9.750712	0.000363	3.625062	1.228204	0.029164
 132	6.5500e-02	5.2779	9.775514	0.000062	0.616580	0.208903	0.004960
 133	6.6000e-02	5.3036	9.893538	0.000293	2.934068	0.994089	0.023605
 134	6.6500e-02	5.3710	9.930314	0.000091	0.914239	0.309752	0.007355
 135	6.7000e-02	5.4031	10.084259	0.000383	3.827045	1.296638	0.030789
 136	6.7500e-02	5.4480	10.159521	0.000187	1.871000	0.633912	0.015052
 137	6.8000e-02	5.4769	10.279256	0.000298	2.976591	1.008496	0.023947
 138	6.8500e-02	5.5330	10.387446	0.000269	2.689562	0.911248	0.021638
 139	6.9000e-02	5.5506	10.447741	0.000150	1.498926	0.507850	0.012059
 140	6.9500e-02	5.6068	10.644021	0.000488	4.879483	1.653214	0.039256
 141	7.0000e-02	5.6293	10.682079	0.000095	0.946131	0.320558	0.007612
 142	7.0500e-02	5.6678	10.767177	0.000212	2.115506	0.716753	0.017019
 143	7.1000e-02	5.7207	10.812077	0.000112	1.116222	0.378186	0.008980
 144	7.1500e-02	5.7544	11.080626	0.000668	6.676068	2.261913	0.053710
 145	7.2000e-02	5.7881	11.188815	0.000269	2.689562	0.911248	0.021638
 146	7.2500e-02	5.8218	11.212762	0.000060	0.595318	0.201699	0.004789
 147	7.3000e-02	5.8763	11.294866	0.000204	2.041091	0.691540	0.016421
 148	7.3500e-02	5.9100	11.411608	0.000290	2.902176	0.983284	0.023348
 149	7.4000e-02	5.9710	11.304702	-0.000266	-2.657670	-0.900443	-0.021381
 150	7.4500e-02	6.0095	11.444108	0.000347	3.465602	1.174178	0.027881
 151	7.5000e-02	6.0223	11.719926	0.000686	6.856790	2.323143	0.055164
 152	7.5500e-02	6.0672	11.856338	0.000339	3.391187	1.148965	0.027282
 153	7.6000e-02	6.1201	11.795188	-0.000152	-1.520187	-0.515053	-0.012230
 154	7.6500e-02	6.1795	11.933739	0.000344	3.444341	1.166974	0.027710
 155	7.7000e-02	6.1988	12.014987	0.000202	2.019830	0.684337	0.016250
 156	7.7500e-02	6.2292	12.073572	0.000146	1.456403	0.493443	0.011717
 157	7.8000e-02	6.2677	12.234787	0.000401	4.007767	1.357868	0.032243
 158	7.8500e-02	6.3367	12.305345	0.000175	1.754062	0.594292	0.014112
 159	7.9000e-02	6.3512	12.487941	0.000454	4.539301	1.537957	0.036519
 160	7.9500e-02	6.3913	12.636754	0.000370	3.699477	1.253417	0.029763
 161	8.0000e-02	6.4217	12.750930	0.000284	2.838392	0.961673	0.022835
 162	8.0500e-02	6.4747	12.563631	-0.000466	-4.656239	-1.577576	-0.037460
 163	8.1000e-02	6.4843	13.030597	0.001161	11.608704	3.933135	0.093393
 164	8.1500e-02	6.5340	13.061814	0.000078	0.776040	0.262929	0.006243
 165	8.2000e-02	6.6014	12.910862	-0.000375	-3.752631	-1.271426	-0.030190
 166	8.2500e-02	6.6367	13.006223	0.000237	2.370642	0.803195	0.019072
 167	8.3000e-02	6.6528	13.251680	0.000610	6.102011	2.067417	0.049091
 168	8.3500e-02	6.7057	13.388520	0.000340	3.401818	1.152567	0.027368
 169	8.4000e-02	6.7570	13.409046	0.000051	0.510273	0.172885	0.004105
 170	8.4500e-02	6.8003	13.497992	0.000221	2.211182	0.749169	0.017789
 171	8.5000e-02	6.8292	13.660917	0.000405	4.050290	1.372275	0.032585
 172	8.5500e-02	6.8565	13.745159	0.000209	2.094244	0.709549	0.016848
 173	8.6000e-02	6.9191	13.791343	0.000115	1.148114	0.388991	0.009237
 174	8.6500e-02	6.9543	13.832395	0.000102	1.020545	0.345770	0.008210
 175	8.7000e-02	6.9864	13.866605	0.000085	0.850455	0.288142	0.006842
 176	8.7500e-02	7.0506	14.098378	0.000576	5.761829	1.952161	0.046355
 177	8.8000e-02	7.0650	14.241205	0.000355	3.550648	1.202992	0.028565
 178	8.8500e-02	7.1084	14.215547	-0.000064	-0.637841	-0.216106	-0.005132
 179	8.9000e-02	7.1677	14.351959	0.000339	3.391187	1.148965	0.027282
 180	8.9500e-02	7.1982	14.523010	0.000425	4.252273	1.440709	0.034210
 181	9.0000e-02	7.2351	14.492221	-0.000077	-0.765409	-0.259328	-0.006158
 182	9.0500e-02	7.2704	14.685935	0.000482	4.815699	1.631603	0.038743
 183	9.1000e-02	7.3041	14.729125	0.000107	1.073699	0.363779	0.008638
 184	9.1500e-02	7.3362	14.915570	0.000463	4.634977	1.570373	0.037289
 185	9.2000e-02	7.3923	14.987838	0.000180	1.796585	0.608700	0.014454
 186	9.2500e-02	7.4308	15.025042	0.000092	0.924869	0.313354	0.007441
 187	9.3000e-02	7.4629	15.085764	0.000151	1.509557	0.511452	0.012145
 188	9.3500e-02	7.5014	15.270926	0.000460	4.603085	1.559567	0.037032
 189	9.4000e-02	7.5624	15.282900	0.000030	0.297659	0.100850	0.002395
 190	9.4500e-02	7.5944	15.465068	0.000453	4.528670	1.534355	0.036434
 191	9.5000e-02	7.6265	15.509541	0.000111	1.105591	0.374584	0.008895
 192	9.5500e-02	7.6570	15.724209	0.000534	5.336602	1.808090	0.042934
 193	9.6000e-02	7.7083	15.766544	0.000105	1.052437	0.356575	0.008467
 194	9.6500e-02	7.7741	15.928614	0.000403	4.029028	1.365072	0.032414
 195	9.7000e-02	7.7821	15.928614	0.000000	0.000000	0.000000	0.000000
 196	9.7500e-02	7.8575	16.001310	0.000181	1.807216	0.612301	0.014539
 197	9.8000e-02	7.8704	16.174926	0.000432	4.316057	1.462320	0.034723
 198	9.8500e-02	7.8992	16.240780	0.000164	1.637125	0.554673	0.013171
 199	9.9000e-02	7.9698	16.310483	0.000173	1.732801	0.587089	0.013941
 200	9.9500e-02	7.9891	16.482389	0.000427	4.273534	1.447913	0.034381
 201	1.0000e-01	8.0292	16.479395	-0.000007	-0.074415	-0.025212	-0.000599
 202	1.0050e-01	8.0613	16.599558	0.000299	2.987222	1.012098	0.024033
 203	1.0100e-01	8.1062	16.762483	0.000405	4.050290	1.372275	0.032585
 204	1.0150e-01	8.1431	16.765477	0.000007	0.074415	0.025212	0.000599
 205	1.0200e-01	8.1864	16.856561	0.000226	2.264335	0.767178	0.018217
 206	1.0250e-01	8.2393	17.113991	0.000640	6.399670	2.168267	0.051486
 207	1.0300e-01	8.2794	17.067380	-0.000116	-1.158744	-0.392593	-0.009322
 208	1.0350e-01	8.2907	17.312837	0.000610	6.102011	2.067417	0.049091
 209	1.0400e-01	8.3484	17.334646	0.000054	0.542165	0.183690	0.004362
 210	1.0450e-01	8.4030	17.309843	-0.000062	-0.616580	-0.208903	-0.004960
 211	1.0500e-01	8.4335	17.537340	0.000566	5.655523	1.916143	0.045499
 212	1.0550e-01	8.4543	17.613457	0.000189	1.892261	0.641115	0.015223
 213	1.0600e-01	8.4864	17.831974	0.000543	5.432278	1.840506	0.043703
 214	1.0650e-01	8.5586	17.718653	-0.000282	-2.817131	-0.954470	-0.022664
 215	1.0700e-01	8.5923	17.903815	0.000460	4.603085	1.559567	0.037032
 216	1.0750e-01	8.6276	18.000031	0.000239	2.391903	0.810399	0.019243
 217	1.0800e-01	8.6693	17.944867	-0.000137	-1.371358	-0.464629	-0.011033
 218	1.0850e-01	8.7126	18.292526	0.000864	8.642744	2.928241	0.069532
 219	1.0900e-01	8.7591	18.293809	0.000003	0.031892	0.010805	0.000257
 220	1.0950e-01	8.7912	18.443906	0.000373	3.731369	1.264222	0.030019
 221	1.1000e-01	8.8506	18.455452	0.000029	0.287028	0.097248	0.002309
 222	1.1050e-01	8.8634	18.609397	0.000383	3.827045	1.296638	0.030789
 223	1.1100e-01	8.9131	18.639330	0.000074	0.744148	0.252124	0.005987
 224	1.1150e-01	8.9612	18.750513	0.000276	2.763977	0.936461	0.022237
 225	1.1200e-01	8.9949	18.928405	0.000442	4.422364	1.498337	0.035578
 226	1.1250e-01	9.0270	19.092613	0.000408	4.082182	1.383081	0.032842
 227	1.1300e-01	9.0671	19.068666	-0.000060	-0.595318	-0.201699	-0.004789
 228	1.1350e-01	9.1233	19.220046	0.000376	3.763261	1.275027	0.030276
 229	1.1400e-01	9.1746	19.220473	0.000001	0.010631	0.003602	0.000086
 230	1.1450e-01	9.1874	19.403924	0.000456	4.560562	1.545160	0.036690
 231	1.1500e-01	9.2741	19.457378	0.000133	1.328835	0.450222	0.010691
 232	1.1550e-01	9.2773	19.566850	0.000272	2.721454	0.922054	0.021894
 233	1.1600e-01	9.3062	19.619875	0.000132	1.318205	0.446620	0.010605
 234	1.1650e-01	9.3527	19.701552	0.000203	2.030460	0.687939	0.016335
 235	1.1700e-01	9.4104	20.001317	0.000745	7.452108	2.524842	0.059953
 236	1.1750e-01	9.4377	19.878589	-0.000305	-3.051006	-1.033709	-0.024546
 237	1.1800e-01	9.4698	20.054343	0.000437	4.369210	1.480328	0.035151
 238	1.1850e-01	9.5019	20.274997	0.000549	5.485432	1.858515	0.044131
 239	1.1900e-01	9.5757	20.310490	0.000088	0.882347	0.298947	0.007099
 240	1.1950e-01	9.6029	20.339141	0.000071	0.712256	0.241319	0.005730
 241	1.2000e-01	9.6430	20.322036	-0.000043	-0.425227	-0.144071	-0.003421
 242	1.2050e-01	9.6687	20.484106	0.000403	4.029028	1.365072	0.032414
 243	1.2100e-01	9.7056	20.652163	0.000418	4.177858	1.415497	0.033611
 244	1.2150e-01	9.7329	20.746668	0.000235	2.349381	0.795992	0.018901
 245	1.2200e-01	9.8003	20.915580	0.000420	4.199119	1.422700	0.033782
 246	1.2250e-01	9.8259	20.936961	0.000053	0.531534	0.180089	0.004276
 247	1.2300e-01	9.8869	20.889067	-0.000119	-1.190636	-0.403399	-0.009579
 248	1.2350e-01	9.9045	21.150774	0.000651	6.505977	2.204285	0.052341
 249	1.2400e-01	9.9527	21.167451	0.000041	0.414597	0.140469	0.003335
 250	1.2450e-01	9.9863	21.291462	0.000308	3.082898	1.044514	0.024802
 251	1.2500e-01	10.0345	21.498005	0.000513	5.134619	1.739656	0.041309
 252	1.2550e-01	10.0730	21.537347	0.000098	0.978023	0.331363	0.007868
 253	1.2600e-01	10.1035	21.555735	0.000046	0.457119	0.154876	0.003678
 254	1.2650e-01	10.1596	21.763561	0.000517	5.166511	1.750461	0.041565
 255	1.2700e-01	10.2061	21.906815	0.000356	3.561278	1.206594	0.028651
 256	1.2750e-01	10.2414	22.025267	0.000294	2.944699	0.997691	0.023690
 257	1.2800e-01	10.2671	21.893559	-0.000327	-3.274250	-1.109346	-0.026342
 258	1.2850e-01	10.2992	22.056912	0.000406	4.060920	1.375877	0.032671
 259	1.2900e-01	10.3633	22.281843	0.000559	5.591739	1.894532	0.044986
 260	1.2950e-01	10.3954	22.180068	-0.000253	-2.530102	-0.857222	-0.020355
