»»»»»»»»»»»»»»»»»»»»»»»»»»»»»»»»»»»» Hysteresis ««««««««««««««««««««««««««««««««««««
»»»  Executed Version:	5.48.1
»»»  Vision Version:	5.48.4 (R)
»»»  Vision Compiled:	9/18/24
»»»  Driver Version:	5.47.0
»»»  Windows Version:	Windows 8 or 8.1
»»»  Processor Information:	x86 (AMD or Intel) - 32 Processors
»»»  Tester Name:	PMF21124-494 (100V)
»»»  Tester S/N:	PMF21124-494
»»»  Internal Amp Type:	100V RevK 270k
»»»  Internal Amp S/N:	iAB2-596/K     
»»»  Execution Count:	1
»»»»»»»»»»»»»»»»»»»»»»»»»»»»»»»»»»»»»»»»»»««««««««««««««««««««««««««««««««««««««««««

Stored:	6/17/2025 - 11:16:50
Configured:	06/17/25 10:39:14 AM
Executed:	06/17/25 11:15:42 AM

»»»»»»»»»»»»»»»»»»»»»»»»»»»»»»»»»»» Sample Info ««««««««««««««««««««««««««««««««««««
Sample Name:	
Lot Name:	
Wafer Name:	
Die Row/Column:	0/0
Capacitor Number:	0
Sample Area (cm2):	1.00e-04
Sample Thickness (microns):	3.00e-01

Amplifier:	Internal

»»»»»»»»»»»»»»»»»»»»»»»»»»»»»»»»»»» Tester Info «««««««««««««««««««««««««««««««««««
Tester Name:	PMF21124-494 (100V)
Tester Serial Number:	PMF21124-494
Return Signal Amp. Level:	0.2 [Index: 1]

»»»»»»»»»»»»»»»»»»»»»»»»»»»»»»»» Hysteresis Info ««««««««««««««««««««««««««««««««««
Task Name:	Hyst-180
Volts:	20.00
Field:	666.67 (kV/cm)
DCBias:	0.00
DCField:	0.00 (kV/cm)
Hysteresis Period (ms):	1.00e-02
Preset:	Enabled
Preset Delay (ms):	1.00e+03
Profile:	Standard Bipolar

»»»»»»»»»»»»»»»»»»»»»»»»»»»»»»»»»»»»»» Data «««««««««««««««««««««««««««««««««««««««
Points:	101

Valid Data

Point	Time (ms)	Drive Voltage	Measured Polarization (uC/cm2)	Capacitance (uF)	Normalized Capacitance (uF/cm2)	Dielectric Constant	Instantaneous Current (mA)
   1	0.0000e+00	0.0610	-2.319226	0.000057	0.566726	0.192012	0.447825
   2	1.0000e-04	0.5936	-1.871401	0.000057	0.566726	0.192012	0.447825
   3	2.0000e-04	1.5000	1.612900	0.000441	4.409408	1.493948	3.484301
   4	3.0000e-04	2.2379	4.139655	0.000320	3.197627	1.083385	2.526755
   5	4.0000e-04	3.1283	4.521945	0.000048	0.483791	0.163913	0.382290
   6	5.0000e-04	3.8325	6.790200	0.000287	2.870492	0.972549	2.268254
   7	6.0000e-04	4.6362	9.236856	0.000310	3.096261	1.049042	2.446656
   8	7.0000e-04	5.4464	11.115539	0.000238	2.377487	0.805514	1.878683
   9	8.0000e-04	6.2742	12.844946	0.000219	2.188578	0.741510	1.729407
  10	9.0000e-04	7.1068	15.065869	0.000281	2.810595	0.952255	2.220923
  11	1.0000e-03	7.8431	17.421504	0.000298	2.981073	1.010015	2.355635
  12	1.1000e-03	8.6613	18.808671	0.000176	1.755470	0.594769	1.387167
  13	1.2000e-03	9.4634	21.113334	0.000292	2.916568	0.988160	2.304663
  14	1.3000e-03	10.2302	23.002939	0.000239	2.391309	0.810197	1.889605
  15	1.4000e-03	11.0532	24.899826	0.000240	2.400524	0.813320	1.896887
  16	1.5000e-03	11.8585	26.742100	0.000233	2.331411	0.789903	1.842274
  17	1.6000e-03	12.6462	28.802825	0.000261	2.607863	0.883568	2.060725
  18	1.7000e-03	13.4788	30.834424	0.000257	2.571003	0.871079	2.031599
  19	1.8000e-03	14.2231	33.000734	0.000274	2.741482	0.928839	2.166310
  20	1.9000e-03	15.0493	34.511690	0.000191	1.912126	0.647846	1.510956
  21	2.0000e-03	15.8466	36.434063	0.000243	2.432777	0.824247	1.922373
  22	2.1000e-03	16.6455	38.418330	0.000251	2.511105	0.850785	1.984267
  23	2.2000e-03	17.4589	40.220555	0.000228	2.280728	0.772732	1.802225
  24	2.3000e-03	18.2481	41.920836	0.000215	2.151717	0.729022	1.700281
  25	2.4000e-03	19.0679	44.105350	0.000276	2.764519	0.936644	2.184515
  26	2.5000e-03	19.8091	45.933061	0.000231	2.312981	0.783659	1.827711
  27	2.6000e-03	19.6230	46.781381	-0.000107	-1.073555	-0.363730	0.848320
  28	2.7000e-03	18.4599	41.928117	0.000614	6.141840	2.080912	-4.853263
  29	2.8000e-03	17.7942	38.898924	0.000383	3.833467	1.298814	-3.029194
  30	2.9000e-03	16.8557	40.471774	-0.000199	-1.990454	-0.674384	1.572851
  31	3.0000e-03	16.2621	37.526320	0.000373	3.727493	1.262909	-2.945454
  32	3.1000e-03	15.4327	34.810240	0.000344	3.437219	1.164561	-2.716080
  33	3.2000e-03	14.5279	33.546863	0.000160	1.598814	0.541693	-1.263378
  34	3.3000e-03	13.8285	32.279844	0.000160	1.603421	0.543254	-1.267018
  35	3.4000e-03	12.9782	29.618377	0.000337	3.368106	1.141145	-2.661467
  36	3.5000e-03	12.2066	27.834357	0.000226	2.257691	0.764926	-1.784020
  37	3.6000e-03	11.3692	26.414423	0.000180	1.796937	0.608819	-1.419935
  38	3.7000e-03	10.6152	24.226267	0.000277	2.769127	0.938206	-2.188155
  39	3.8000e-03	9.8211	22.282049	0.000246	2.460422	0.833614	-1.944218
  40	3.9000e-03	8.9869	20.407007	0.000237	2.372879	0.803953	-1.875042
  41	4.0000e-03	8.1944	18.480994	0.000244	2.437384	0.825808	-1.926014
  42	4.1000e-03	7.3955	16.605952	0.000237	2.372879	0.803953	-1.875042
  43	4.2000e-03	6.5565	14.574353	0.000257	2.571003	0.871079	-2.031599
  44	4.3000e-03	5.7993	12.415325	0.000273	2.732266	0.925717	-2.159029
  45	4.4000e-03	5.0325	10.482029	0.000245	2.446599	0.828930	-1.933295
  46	4.5000e-03	4.2191	8.279310	0.000279	2.787557	0.944450	-2.202719
  47	4.6000e-03	3.4074	6.462522	0.000230	2.299158	0.778976	-1.816788
  48	4.7000e-03	2.5989	4.438206	0.000256	2.561788	0.867957	-2.024317
  49	4.8000e-03	1.8112	2.537678	0.000241	2.405132	0.814881	-1.900528
  50	4.9000e-03	0.9978	0.404135	0.000270	2.700014	0.914789	-2.133543
  51	5.0000e-03	0.1717	-1.758534	0.000274	2.736874	0.927278	-2.162669
  52	5.1000e-03	-0.5823	-3.611731	0.000235	2.345234	0.794587	-1.853197
  53	5.2000e-03	-1.3909	-5.370265	0.000223	2.225438	0.753999	-1.758534
  54	5.3000e-03	-2.1834	-7.725900	0.000298	2.981073	1.010015	-2.355635
  55	5.4000e-03	-2.9871	-9.768421	0.000258	2.584825	0.875763	-2.042521
  56	5.5000e-03	-3.8213	-11.355835	0.000201	2.008884	0.680628	-1.587414
  57	5.6000e-03	-4.5865	-13.452969	0.000265	2.653938	0.899179	-2.097134
  58	5.7000e-03	-5.4079	-15.229708	0.000225	2.248476	0.761804	-1.776739
  59	5.8000e-03	-6.1875	-17.217616	0.000252	2.515712	0.852346	-1.987908
  60	5.9000e-03	-7.0394	-19.139989	0.000243	2.432777	0.824247	-1.922373
  61	6.0000e-03	-7.8238	-20.956777	0.000230	2.299158	0.778976	-1.816788
  62	6.1000e-03	-8.5826	-22.551473	0.000202	2.018099	0.683750	-1.594696
  63	6.2000e-03	-9.4024	-24.593994	0.000258	2.584825	0.875763	-2.042521
  64	6.3000e-03	-10.1821	-26.345246	0.000222	2.216223	0.750877	-1.751253
  65	6.4000e-03	-11.0082	-27.950865	0.000203	2.031922	0.688434	-1.605618
  66	6.5000e-03	-11.8280	-29.665709	0.000217	2.170148	0.735266	-1.714844
  67	6.6000e-03	-12.6029	-31.682744	0.000255	2.552573	0.864835	-2.017035
  68	6.7000e-03	-13.4371	-33.437637	0.000222	2.220830	0.752438	-1.754893
  69	6.8000e-03	-14.1798	-34.955875	0.000192	1.921341	0.650968	-1.518238
  70	6.9000e-03	-15.0124	-36.459549	0.000190	1.902911	0.644724	-1.503674
  71	7.0000e-03	-15.8322	-38.276337	0.000230	2.299158	0.778976	-1.816788
  72	7.1000e-03	-16.5974	-39.576123	0.000164	1.644889	0.557303	-1.299786
  73	7.2000e-03	-17.4204	-41.323735	0.000221	2.211615	0.749316	-1.747612
  74	7.3000e-03	-18.2080	-42.696338	0.000174	1.737040	0.588525	-1.372603
  75	7.4000e-03	-19.0438	-44.294675	0.000202	2.022707	0.685312	-1.598337
  76	7.5000e-03	-19.8026	-46.078695	0.000226	2.257691	0.764926	-1.784020
  77	7.6000e-03	-19.4898	-46.781381	-0.000089	-0.889254	-0.301287	-0.702686
  78	7.7000e-03	-18.4102	-41.939040	0.000613	6.128018	2.076229	4.842341
  79	7.8000e-03	-17.6770	-40.733916	0.000153	1.525093	0.516716	1.205124
  80	7.9000e-03	-16.8364	-41.422038	-0.000087	-0.870824	-0.295043	-0.688122
  81	8.0000e-03	-16.2108	-38.290900	0.000396	3.962478	1.342524	3.131138
  82	8.1000e-03	-15.2755	-36.761740	0.000194	1.935163	0.655651	1.529160
  83	8.2000e-03	-14.4926	-35.749582	0.000128	1.280894	0.433979	1.012158
  84	8.3000e-03	-13.7403	-34.231344	0.000192	1.921341	0.650968	1.518238
  85	8.4000e-03	-12.8884	-31.875709	0.000298	2.981073	1.010015	2.355635
  86	8.5000e-03	-12.1440	-30.787093	0.000138	1.377652	0.466761	1.088616
  87	8.6000e-03	-11.3275	-29.490947	0.000164	1.640281	0.555742	1.296145
  88	8.7000e-03	-10.5398	-27.240897	0.000285	2.847455	0.964744	2.250050
  89	8.8000e-03	-9.7489	-25.402264	0.000233	2.326804	0.788342	1.838633
  90	8.9000e-03	-8.9292	-23.905872	0.000189	1.893696	0.641601	1.496393
  91	9.0000e-03	-8.1238	-22.194669	0.000217	2.165540	0.733705	1.711203
  92	9.1000e-03	-7.3313	-20.443416	0.000222	2.216223	0.750877	1.751253
  93	9.2000e-03	-6.5084	-18.666677	0.000225	2.248476	0.761804	1.776739
  94	9.3000e-03	-5.7656	-16.580466	0.000264	2.640116	0.894495	2.086211
  95	9.4000e-03	-4.9346	-15.167813	0.000179	1.787722	0.605697	1.412653
  96	9.5000e-03	-4.1181	-12.830383	0.000296	2.958036	1.002210	2.337431
  97	9.6000e-03	-3.3480	-10.922573	0.000241	2.414347	0.818003	1.907809
  98	9.7000e-03	-2.5555	-9.036609	0.000239	2.386702	0.808636	1.885964
  99	9.8000e-03	-1.7438	-7.179771	0.000235	2.349841	0.796148	1.856837
 100	9.9000e-03	-0.9401	-5.224631	0.000247	2.474245	0.838297	1.955141
 101	1.0000e-02	-0.1428	-3.254927	0.000247	2.474245	0.838297	1.969704

PMax (uC/cm2):	4.84e+01
Pr (uC/cm2):	2.84e-01
-Pr (uC/cm2):	-7.90e-01
PLoss (uC/cm2):	-9.36e-01
-Vc:	-1.16e-01
C (Max-Eff) (nF):	2.44e-01
K (Eff):	8.28e+02
Vert. (+/-Pr) Shift (uC/cm2):	-2.53e-01
Offset (uC/cm2):	2.46e+00

A (Loop Area - uC/cm2·Volts):	1.85e+00



Hysteresis Version: 5.48.1 - Radiant Technologies, Inc., 1999 - 9/12/24

