»»»»»»»»»»»»»»»»»»»»»»»»»»»»»»»»»»»» Hysteresis ««««««««««««««««««««««««««««««««««««
»»»  Executed Version:	5.48.1
»»»  Vision Version:	5.48.4 (R)
»»»  Vision Compiled:	9/18/24
»»»  Driver Version:	5.47.0
»»»  Windows Version:	Windows 8 or 8.1
»»»  Processor Information:	x86 (AMD or Intel) - 32 Processors
»»»  Tester Name:	PMF21124-494 (100V)
»»»  Tester S/N:	PMF21124-494
»»»  Internal Amp Type:	100V RevK 270k
»»»  Internal Amp S/N:	iAB2-596/K     
»»»  Execution Count:	1
»»»»»»»»»»»»»»»»»»»»»»»»»»»»»»»»»»»»»»»»»»««««««««««««««««««««««««««««««««««««««««««

Stored:	6/17/2025 - 11:5:48
Configured:	06/17/25 10:39:14 AM
Executed:	06/17/25 11:05:16 AM

»»»»»»»»»»»»»»»»»»»»»»»»»»»»»»»»»»» Sample Info ««««««««««««««««««««««««««««««««««««
Sample Name:	
Lot Name:	
Wafer Name:	
Die Row/Column:	0/0
Capacitor Number:	0
Sample Area (cm2):	1.00e-04
Sample Thickness (microns):	3.00e-01

Amplifier:	Internal

»»»»»»»»»»»»»»»»»»»»»»»»»»»»»»»»»»» Tester Info «««««««««««««««««««««««««««««««««««
Tester Name:	PMF21124-494 (100V)
Tester Serial Number:	PMF21124-494
Return Signal Amp. Level:	1.79 [Index: 2]

»»»»»»»»»»»»»»»»»»»»»»»»»»»»»»»» Hysteresis Info ««««««««««««««««««««««««««««««««««
Task Name:	Hyst-180
Volts:	20.00
Field:	666.67 (kV/cm)
DCBias:	0.00
DCField:	0.00 (kV/cm)
Hysteresis Period (ms):	1.00e+00
Preset:	Enabled
Preset Delay (ms):	1.00e+03
Profile:	Standard Bipolar

»»»»»»»»»»»»»»»»»»»»»»»»»»»»»»»»»»»»»» Data «««««««««««««««««««««««««««««««««««««««
Points:	2001

Valid Data

Point	Time (ms)	Drive Voltage	Measured Polarization (uC/cm2)	Capacitance (uF)	Normalized Capacitance (uF/cm2)	Dielectric Constant	Instantaneous Current (mA)
   1	0.0000e+00	0.0353	-2.779992	0.000734	7.337000	2.485843	0.058927
   2	5.0000e-04	0.0497	-2.485358	0.000734	7.337000	2.485843	0.058927
   3	1.0000e-03	0.1123	-2.680355	-0.000486	-4.855838	-1.645202	-0.038999
   4	1.5000e-03	0.1588	-2.503746	0.000440	4.397941	1.490063	0.035322
   5	2.0000e-03	0.2037	-2.481082	0.000056	0.564385	0.191219	0.004533
   6	2.5000e-03	0.2134	-2.209967	0.000675	6.751318	2.287409	0.054223
   7	3.0000e-03	0.2679	-2.276677	-0.000166	-1.661208	-0.562832	-0.013342
   8	3.5000e-03	0.3112	-2.104344	0.000429	4.291453	1.453984	0.034467
   9	4.0000e-03	0.3577	-2.087667	0.000042	0.415302	0.140708	0.003335
  10	4.5000e-03	0.4139	-2.009411	0.000195	1.948724	0.660246	0.015651
  11	5.0000e-03	0.4155	-1.824677	0.000460	4.600267	1.558613	0.036947
  12	5.5000e-03	0.4604	-1.745139	0.000198	1.980671	0.671069	0.015908
  13	6.0000e-03	0.4925	-1.701521	0.000109	1.086174	0.368006	0.008724
  14	6.5000e-03	0.5519	-1.451788	0.000622	6.218880	2.107014	0.049947
  15	7.0000e-03	0.5791	-1.480866	-0.000072	-0.724116	-0.245337	-0.005816
  16	7.5000e-03	0.6240	-1.259356	0.000552	5.516061	1.868892	0.044302
  17	8.0000e-03	0.6433	-1.195213	0.000160	1.597315	0.541185	0.012829
  18	8.5000e-03	0.7107	-1.034853	0.000399	3.993288	1.352962	0.032072
  19	9.0000e-03	0.7203	-1.106694	-0.000179	-1.788993	-0.606127	-0.014368
  20	9.5000e-03	0.7957	-1.142615	-0.000089	-0.894496	-0.303064	-0.007184
  21	1.0000e-02	0.8358	-0.791534	0.000874	8.742638	2.962086	0.070216
  22	1.0500e-02	0.8823	-0.723114	0.000170	1.703803	0.577264	0.013684
  23	1.1000e-02	0.9337	-0.683345	0.000099	0.990335	0.335535	0.007954
  24	1.1500e-02	0.9706	-0.693608	-0.000026	-0.255570	-0.086590	-0.002053
  25	1.2000e-02	1.0251	-0.690187	0.000009	0.085190	0.028863	0.000684
  26	1.2500e-02	1.0395	-0.352791	0.000840	8.401877	2.846633	0.067479
  27	1.3000e-02	1.1037	-0.336969	0.000039	0.394004	0.133492	0.003164
  28	1.3500e-02	1.0989	-0.202694	-0.000334	-3.343713	-1.132881	0.026855
  29	1.4000e-02	1.1262	0.032500	0.000586	5.856822	1.984345	0.047039
  30	1.4500e-02	1.1919	-0.011546	-0.000110	-1.096823	-0.371614	-0.008809
  31	1.5000e-02	1.2385	0.182596	0.000483	4.834540	1.637987	0.038828
  32	1.5500e-02	1.2625	0.209964	0.000068	0.681521	0.230906	0.005474
  33	1.6000e-02	1.3203	0.304042	0.000234	2.342729	0.793738	0.018816
  34	1.6500e-02	1.3443	0.524696	0.000549	5.494764	1.861676	0.044131
  35	1.7000e-02	1.3716	0.594399	0.000174	1.735749	0.588088	0.013941
  36	1.7500e-02	1.4374	0.599103	0.000012	0.117136	0.039687	0.000941
  37	1.8000e-02	1.4647	0.616636	0.000044	0.436599	0.147924	0.003507
  38	1.8500e-02	1.4935	0.873211	0.000639	6.389260	2.164740	0.051315
  39	1.9000e-02	1.5577	0.871073	-0.000005	-0.053244	-0.018039	-0.000428
  40	1.9500e-02	1.5994	0.933934	0.000157	1.565369	0.530361	0.012572
  41	2.0000e-02	1.6251	1.190509	0.000639	6.389260	2.164740	0.051315
  42	2.0500e-02	1.6700	1.201199	0.000027	0.266219	0.090197	0.002138
  43	2.1000e-02	1.7262	1.322217	0.000301	3.013601	1.021036	0.024204
  44	2.1500e-02	1.7631	1.441952	0.000298	2.981655	1.010212	0.023947
  45	2.2000e-02	1.8016	1.387644	-0.000135	-1.352393	-0.458203	-0.010862
  46	2.2500e-02	1.8368	1.480011	0.000230	2.300134	0.779306	0.018473
  47	2.3000e-02	1.8818	1.681850	0.000503	5.026218	1.702929	0.040368
  48	2.3500e-02	1.9155	1.816980	0.000337	3.365010	1.140096	0.027026
  49	2.4000e-02	1.9556	1.877275	0.000150	1.501476	0.508714	0.012059
  50	2.4500e-02	2.0149	1.888393	0.000028	0.276868	0.093805	0.002224
  51	2.5000e-02	2.0261	1.984181	0.000239	2.385324	0.808170	0.019158
  52	2.5500e-02	2.0839	2.086384	0.000255	2.545055	0.862288	0.020440
  53	2.6000e-02	2.1064	2.440457	0.000882	8.817179	2.987341	0.070815
  54	2.6500e-02	2.1481	2.493483	0.000132	1.320447	0.447380	0.010605
  55	2.7000e-02	2.1882	2.632461	0.000346	3.460849	1.172567	0.027796
  56	2.7500e-02	2.2315	2.584140	-0.000120	-1.203311	-0.407693	-0.009664
  57	2.8000e-02	2.2844	2.691046	0.000266	2.662192	0.901975	0.021381
  58	2.8500e-02	2.2908	2.809070	0.000294	2.939060	0.995780	0.023605
  59	2.9000e-02	2.3566	2.880056	0.000177	1.767695	0.598911	0.014197
  60	2.9500e-02	2.3919	2.877490	-0.000006	-0.063893	-0.021647	-0.000513
  61	3.0000e-02	2.4352	3.128507	0.000625	6.250826	2.117837	0.050203
  62	3.0500e-02	2.4593	3.165710	0.000093	0.926443	0.313887	0.007441
  63	3.1000e-02	2.5186	3.117388	-0.000120	-1.203311	-0.407693	-0.009664
  64	3.1500e-02	2.5395	3.472317	0.000884	8.838476	2.994557	0.070986
  65	3.2000e-02	2.5892	3.539882	0.000168	1.682505	0.570048	0.013513
  66	3.2500e-02	2.6117	3.690834	0.000376	3.759015	1.273589	0.030190
  67	3.3000e-02	2.6839	3.678005	-0.000032	-0.319463	-0.108237	-0.002566
  68	3.3500e-02	2.6983	3.787477	0.000273	2.726084	0.923622	0.021894
  69	3.4000e-02	2.7561	3.941850	0.000384	3.844205	1.302452	0.030875
  70	3.4500e-02	2.7849	3.926883	-0.000037	-0.372707	-0.126276	-0.002993
  71	3.5000e-02	2.8299	4.255299	0.000818	8.178253	2.770867	0.065683
  72	3.5500e-02	2.8796	4.272404	0.000043	0.425951	0.144316	0.003421
  73	3.6000e-02	2.9069	4.239049	-0.000083	-0.830604	-0.281416	-0.006671
  74	3.6500e-02	2.9502	4.328423	0.000223	2.225592	0.754051	0.017875
  75	3.7000e-02	2.9935	4.488783	0.000399	3.993288	1.352962	0.032072
  76	3.7500e-02	3.0256	4.612366	0.000308	3.077494	1.042683	0.024717
  77	3.8000e-02	3.0673	4.690194	0.000194	1.938076	0.656638	0.015566
  78	3.8500e-02	3.1186	4.973710	0.000706	7.060132	2.392038	0.056703
  79	3.9000e-02	3.1443	4.993808	0.000050	0.500492	0.169571	0.004020
  80	3.9500e-02	3.2069	4.859961	-0.000333	-3.333064	-1.129273	-0.026769
  81	4.0000e-02	3.2470	5.101570	0.000602	6.016553	2.038463	0.048322
  82	4.0500e-02	3.2534	5.327783	0.000563	5.633198	1.908579	0.045243
  83	4.1000e-02	3.3095	5.156306	-0.000427	-4.270155	-1.446768	-0.034296
  84	4.1500e-02	3.3593	5.261501	0.000262	2.619597	0.887543	0.021039
  85	4.2000e-02	3.3978	5.504820	0.000606	6.059148	2.052895	0.048664
  86	4.2500e-02	3.4282	5.466762	-0.000095	-0.947740	-0.321103	-0.007612
  87	4.3000e-02	3.4716	5.606595	0.000348	3.482147	1.179783	0.027967
  88	4.3500e-02	3.5165	5.796033	0.000472	4.717404	1.598300	0.037888
  89	4.4000e-02	3.5486	5.786198	-0.000024	-0.244922	-0.082982	-0.001967
  90	4.4500e-02	3.5790	6.001293	0.000536	5.356330	1.814774	0.043019
  91	4.5000e-02	3.6432	5.989747	-0.000029	-0.287517	-0.097413	-0.002309
  92	4.5500e-02	3.6881	6.142837	0.000381	3.812259	1.291628	0.030618
  93	4.6000e-02	3.7090	6.395564	0.000629	6.293421	2.132269	0.050545
  94	4.6500e-02	3.7523	6.354939	-0.000101	-1.011633	-0.342750	-0.008125
  95	4.7000e-02	3.7860	6.585857	0.000575	5.750334	1.948266	0.046184
  96	4.7500e-02	3.8341	6.513588	-0.000180	-1.799642	-0.609735	-0.014454
  97	4.8000e-02	3.8838	6.640593	0.000316	3.162684	1.071546	0.025401
  98	4.8500e-02	3.9079	6.915984	0.000686	6.857806	2.323488	0.055078
  99	4.9000e-02	3.9464	7.180684	0.000659	6.591587	2.233290	0.052940
 100	4.9500e-02	3.9961	6.928385	-0.000628	-6.282772	-2.128661	-0.050460
 101	5.0000e-02	4.0395	7.117395	0.000471	4.706755	1.594692	0.037802
 102	5.0500e-02	4.0667	7.254235	0.000341	3.407605	1.154528	0.027368
 103	5.1000e-02	4.1084	7.437686	0.000457	4.568321	1.547789	0.036690
 104	5.1500e-02	4.1582	7.366273	-0.000178	-1.778344	-0.602519	-0.014283
 105	5.2000e-02	4.2015	7.645512	0.000695	6.953645	2.355959	0.055848
 106	5.2500e-02	4.2448	7.589066	-0.000141	-1.405637	-0.476243	-0.011289
 107	5.3000e-02	4.2657	7.561698	-0.000068	-0.681521	-0.230906	-0.005474
 108	5.3500e-02	4.2897	7.807582	0.000612	6.123041	2.074542	0.049177
 109	5.4000e-02	4.3411	7.893107	0.000213	2.129753	0.721580	0.017105
 110	5.4500e-02	4.3988	7.999586	0.000265	2.651543	0.898367	0.021296
 111	5.5000e-02	4.4469	8.164222	0.000410	4.099775	1.389041	0.032927
 112	5.5500e-02	4.4694	8.290371	0.000314	3.141386	1.064330	0.025230
 113	5.6000e-02	4.5111	8.296358	0.000015	0.149083	0.050511	0.001197
 114	5.6500e-02	4.5576	8.474678	0.000444	4.440536	1.504494	0.035664
 115	5.7000e-02	4.6009	8.572604	0.000244	2.438568	0.826209	0.019585
 116	5.7500e-02	4.6314	8.631189	0.000146	1.458881	0.494282	0.011717
 117	5.8000e-02	4.6908	8.668392	0.000093	0.926443	0.313887	0.007441
 118	5.8500e-02	4.7116	8.944210	0.000687	6.868455	2.327095	0.055164
 119	5.9000e-02	4.7421	9.148615	0.000509	5.090111	1.724576	0.040881
 120	5.9500e-02	4.7870	9.139207	-0.000023	-0.234273	-0.079374	-0.001882
 121	6.0000e-02	4.8432	9.125951	-0.000033	-0.330112	-0.111845	-0.002651
 122	6.0500e-02	4.8737	9.190522	0.000161	1.607964	0.544793	0.012914
 123	6.1000e-02	4.9041	9.474893	0.000708	7.081430	2.399253	0.056874
 124	6.1500e-02	4.9154	9.563839	0.000221	2.214943	0.750443	0.017789
 125	6.2000e-02	4.9827	9.583510	0.000049	0.489843	0.165963	0.003934
 126	6.2500e-02	5.0277	9.705383	0.000303	3.034899	1.028251	0.024375
 127	6.3000e-02	5.0710	9.632687	-0.000181	-1.810290	-0.613343	-0.014539
 128	6.3500e-02	5.1175	9.890545	0.000642	6.421206	2.175564	0.051572
 129	6.4000e-02	5.1496	9.831960	-0.000146	-1.458881	-0.494282	-0.011717
 130	6.4500e-02	5.1865	10.102219	0.000673	6.730021	2.280193	0.054052
 131	6.5000e-02	5.2298	10.171922	0.000174	1.735749	0.588088	0.013941
 132	6.5500e-02	5.2571	10.466984	0.000735	7.347649	2.489451	0.059012
 133	6.6000e-02	5.3020	10.422511	-0.000111	-1.107472	-0.375222	-0.008895
 134	6.6500e-02	5.3389	10.454583	0.000080	0.798658	0.270592	0.006414
 135	6.7000e-02	5.3710	10.597837	0.000357	3.567337	1.208646	0.028651
 136	6.7500e-02	5.4496	10.623922	0.000065	0.649575	0.220082	0.005217
 137	6.8000e-02	5.4624	10.782571	0.000395	3.950692	1.338531	0.031730
 138	6.8500e-02	5.5170	10.940365	0.000393	3.929395	1.331315	0.031559
 139	6.9000e-02	5.5763	10.842439	-0.000244	-2.438568	-0.826209	-0.019585
 140	6.9500e-02	5.5827	10.909576	0.000167	1.671856	0.566440	0.013427
 141	7.0000e-02	5.6357	11.198651	0.000720	7.198566	2.438940	0.057815
 142	7.0500e-02	5.6629	11.409042	0.000524	5.239193	1.775087	0.042078
 143	7.1000e-02	5.7127	11.440687	0.000079	0.788009	0.266985	0.006329
 144	7.1500e-02	5.7752	11.457364	0.000042	0.415302	0.140708	0.003335
 145	7.2000e-02	5.8073	11.558711	0.000252	2.523758	0.855072	0.020269
 146	7.2500e-02	5.8282	11.769958	0.000526	5.260491	1.782303	0.042249
 147	7.3000e-02	5.8715	11.840516	0.000176	1.757047	0.595303	0.014112
 148	7.3500e-02	5.9164	11.812293	-0.000070	-0.702819	-0.238121	-0.005645
 149	7.4000e-02	5.9629	12.079559	0.000666	6.655479	2.254937	0.053453
 150	7.4500e-02	6.0095	11.870878	-0.000520	-5.196598	-1.760655	-0.041736
 151	7.5000e-02	6.0303	12.283964	0.001029	10.286709	3.485231	0.082617
 152	7.5500e-02	6.0656	12.293799	0.000024	0.244922	0.082982	0.001967
 153	7.6000e-02	6.0816	12.610669	0.000789	7.890736	2.673454	0.063374
 154	7.6500e-02	6.1635	12.527282	-0.000208	-2.076510	-0.703540	-0.016677
 155	7.7000e-02	6.1939	12.605965	0.000196	1.959373	0.663854	0.015737
 156	7.7500e-02	6.2292	12.853988	0.000618	6.176285	2.092582	0.049605
 157	7.8000e-02	6.2806	12.843297	-0.000027	-0.266219	-0.090197	-0.002138
 158	7.8500e-02	6.3287	12.974151	0.000326	3.258523	1.104017	0.026171
 159	7.9000e-02	6.3544	13.096452	0.000305	3.045547	1.031859	0.024460
 160	7.9500e-02	6.3832	13.301284	0.000510	5.100759	1.728184	0.040967
 161	8.0000e-02	6.4362	13.386382	0.000212	2.119105	0.717972	0.017019
 162	8.0500e-02	6.5036	13.273489	-0.000281	-2.811274	-0.952486	-0.022579
 163	8.1000e-02	6.4795	13.716081	-0.001102	-11.021474	-3.734176	0.088518
 164	8.1500e-02	6.5437	13.518518	-0.000492	-4.919730	-1.666850	-0.039513
 165	8.2000e-02	6.5886	13.610030	0.000228	2.278836	0.772091	0.018302
 166	8.2500e-02	6.6544	13.846506	0.000589	5.888768	1.995169	0.047295
 167	8.3000e-02	6.6592	13.894400	0.000119	1.192662	0.404085	0.009579
 168	8.3500e-02	6.6945	14.123608	0.000571	5.707739	1.933834	0.045841
 169	8.4000e-02	6.7538	14.027820	-0.000239	-2.385324	-0.808170	-0.019158
 170	8.4500e-02	6.7859	14.331861	0.000757	7.571273	2.565217	0.060808
 171	8.5000e-02	6.8324	14.393439	0.000153	1.533422	0.519538	0.012316
 172	8.5500e-02	6.8677	14.452024	0.000146	1.458881	0.494282	0.011717
 173	8.6000e-02	6.9078	14.544818	0.000231	2.310782	0.782914	0.018559
 174	8.6500e-02	6.9640	14.665836	0.000301	3.013601	1.021036	0.024204
 175	8.7000e-02	6.9961	14.738105	0.000180	1.799642	0.609735	0.014454
 176	8.7500e-02	7.0233	14.951918	0.000532	5.324383	1.803950	0.042763
 177	8.8000e-02	7.0699	14.933957	-0.000045	-0.447248	-0.151532	-0.003592
 178	8.8500e-02	7.1116	14.884781	-0.000122	-1.224608	-0.414908	-0.009835
 179	8.9000e-02	7.1420	15.247834	0.000904	9.040803	3.063107	0.072611
 180	8.9500e-02	7.1822	15.390234	0.000355	3.546039	1.201431	0.028480
 181	9.0000e-02	7.2351	15.270071	-0.000299	-2.992303	-1.013820	-0.024033
 182	9.0500e-02	7.3025	15.347043	0.000192	1.916778	0.649422	0.015395
 183	9.1000e-02	7.3281	15.450101	0.000257	2.566353	0.869504	0.020612
 184	9.1500e-02	7.3731	15.568126	0.000294	2.939060	0.995780	0.023605
 185	9.2000e-02	7.3827	15.696841	0.000321	3.205279	1.085978	0.025743
 186	9.2500e-02	7.4356	15.908943	0.000528	5.281788	1.789518	0.042420
 187	9.3000e-02	7.4661	15.924765	0.000039	0.394004	0.133492	0.003164
 188	9.3500e-02	7.5431	15.898680	-0.000065	-0.649575	-0.220082	-0.005217
 189	9.4000e-02	7.5768	16.131308	0.000579	5.792929	1.962698	0.046526
 190	9.4500e-02	7.6025	16.174926	0.000109	1.086174	0.368006	0.008724
 191	9.5000e-02	7.6297	16.461863	0.000715	7.145322	2.420901	0.057387
 192	9.5500e-02	7.6602	16.529000	0.000167	1.671856	0.566440	0.013427
 193	9.6000e-02	7.7051	16.662846	0.000333	3.333064	1.129273	0.026769
 194	9.6500e-02	7.7533	16.685938	0.000058	0.575033	0.194827	0.004618
 195	9.7000e-02	7.7950	16.763766	0.000194	1.938076	0.656638	0.015566
 196	9.7500e-02	7.8415	16.804390	0.000101	1.011633	0.342750	0.008125
 197	9.8000e-02	7.8607	16.946362	0.000354	3.535391	1.197823	0.028394
 198	9.8500e-02	7.8944	17.184549	0.000593	5.931363	2.009600	0.047637
 199	9.9000e-02	7.9474	17.303429	0.000296	2.960357	1.002996	0.023776
 200	9.9500e-02	8.0067	17.313692	0.000026	0.255570	0.086590	0.002053
 201	1.0000e-01	8.0356	17.427440	0.000283	2.832572	0.959701	0.022750
 202	1.0050e-01	8.0918	17.507406	0.000199	1.991319	0.674677	0.015993
 203	1.0100e-01	8.1174	17.782797	0.000686	6.857806	2.323488	0.055078
 204	1.0150e-01	8.1671	17.733620	-0.000122	-1.224608	-0.414908	-0.009835
 205	1.0200e-01	8.1816	17.752436	0.000047	0.468546	0.158748	0.003763
 206	1.0250e-01	8.2393	17.852500	0.000249	2.491811	0.844249	0.020013
 207	1.0300e-01	8.2810	18.079141	0.000564	5.643846	1.912187	0.045328
 208	1.0350e-01	8.3035	17.937170	-0.000354	-3.535391	-1.197823	-0.028394
 209	1.0400e-01	8.3532	18.259599	0.000803	8.029170	2.720356	0.064486
 210	1.0450e-01	8.4142	18.250191	-0.000023	-0.234273	-0.079374	-0.001882
 211	1.0500e-01	8.4511	18.301934	0.000129	1.288501	0.436556	0.010349
 212	1.0550e-01	8.4703	18.645745	0.000856	8.561608	2.900751	0.068762
 213	1.0600e-01	8.5361	18.655580	0.000024	0.244922	0.082982	0.001967
 214	1.0650e-01	8.5554	18.744526	0.000221	2.214943	0.750443	0.017789
 215	1.0700e-01	8.5939	18.887353	0.000356	3.556688	1.205039	0.028565
 216	1.0750e-01	8.6163	19.171296	0.000707	7.070781	2.395645	0.056789
 217	1.0800e-01	8.6757	19.019062	-0.000379	-3.790961	-1.284412	-0.030447
 218	1.0850e-01	8.7383	19.118271	0.000247	2.470514	0.837033	0.019842
 219	1.0900e-01	8.7639	19.131100	0.000032	0.319463	0.108237	0.002566
 220	1.0950e-01	8.7848	19.380833	0.000622	6.218880	2.107014	0.049947
 221	1.1000e-01	8.8345	19.382971	0.000005	0.053244	0.018039	0.000428
 222	1.1050e-01	8.8955	19.466358	0.000208	2.076510	0.703540	0.016677
 223	1.1100e-01	8.9324	19.779379	0.000779	7.794897	2.640983	0.062604
 224	1.1150e-01	8.9292	19.855069	-0.000188	-1.884832	-0.638598	0.015138
 225	1.1200e-01	8.9837	19.910660	0.000138	1.384340	0.469027	0.011118
 226	1.1250e-01	9.0382	20.037665	0.000316	3.162684	1.071546	0.025401
 227	1.1300e-01	9.0511	20.038520	0.000002	0.021298	0.007216	0.000171
 228	1.1350e-01	9.1120	20.173222	0.000335	3.354362	1.136488	0.026940
 229	1.1400e-01	9.1409	20.378055	0.000510	5.100759	1.728184	0.040967
 230	1.1450e-01	9.1746	20.469567	0.000228	2.278836	0.772091	0.018302
 231	1.1500e-01	9.2372	20.495224	0.000064	0.638926	0.216474	0.005132
 232	1.1550e-01	9.2773	20.543118	0.000119	1.192662	0.404085	0.009579
 233	1.1600e-01	9.3142	20.856568	0.000781	7.805546	2.644591	0.062690
 234	1.1650e-01	9.3607	20.904462	0.000119	1.192662	0.404085	0.009579
 235	1.1700e-01	9.4056	20.911731	0.000018	0.181029	0.061334	0.001454
 236	1.1750e-01	9.4553	20.865975	-0.000114	-1.139418	-0.386045	-0.009151
 237	1.1800e-01	9.4826	21.107584	0.000602	6.016553	2.038463	0.048322
 238	1.1850e-01	9.4987	21.368007	0.000649	6.485099	2.197211	0.052085
 239	1.1900e-01	9.5388	21.298304	-0.000174	-1.735749	-0.588088	-0.013941
 240	1.1950e-01	9.6142	21.495440	0.000491	4.909081	1.663242	0.039427
 241	1.2000e-01	9.6414	21.502282	0.000017	0.170380	0.057726	0.001368
 242	1.2050e-01	9.6607	21.582675	0.000200	2.001968	0.678285	0.016079
 243	1.2100e-01	9.7217	21.748594	0.000413	4.131722	1.399865	0.033184
 244	1.2150e-01	9.7521	21.831126	0.000206	2.055212	0.696325	0.016506
 245	1.2200e-01	9.8051	21.879875	0.000121	1.213959	0.411301	0.009750
 246	1.2250e-01	9.8243	22.095398	0.000537	5.366978	1.818382	0.043105
 247	1.2300e-01	9.8981	21.995761	-0.000248	-2.481163	-0.840641	-0.019927
 248	1.2350e-01	9.9206	22.467432	0.001175	11.745590	3.979514	0.094334
 249	1.2400e-01	9.9639	22.366085	-0.000252	-2.523758	-0.855072	-0.020269
 250	1.2450e-01	10.0072	22.360953	-0.000013	-0.127785	-0.043295	-0.001026
 251	1.2500e-01	10.0265	22.624798	0.000657	6.570289	2.226074	0.052769
 252	1.2550e-01	10.0569	22.635916	0.000028	0.276868	0.093805	0.002224
 253	1.2600e-01	10.1307	22.762066	0.000314	3.141386	1.064330	0.025230
 254	1.2650e-01	10.1596	22.779171	0.000043	0.425951	0.144316	0.003421
 255	1.2700e-01	10.1965	22.911307	0.000329	3.290469	1.114841	0.026427
 256	1.2750e-01	10.2478	23.037456	0.000314	3.141386	1.064330	0.025230
 257	1.2800e-01	10.2847	22.999398	-0.000095	-0.947740	-0.321103	-0.007612
 258	1.2850e-01	10.3361	23.323538	0.000807	8.071765	2.734788	0.064828
 259	1.2900e-01	10.3489	23.381695	0.000145	1.448232	0.490674	0.011631
