»»»»»»»»»»»»»»»»»»»»»»»»»»»»»»»»»»»» Hysteresis ««««««««««««««««««««««««««««««««««««
»»»  Executed Version:	5.48.1
»»»  Vision Version:	5.48.4 (R)
»»»  Vision Compiled:	9/18/24
»»»  Driver Version:	5.47.0
»»»  Windows Version:	Windows 8 or 8.1
»»»  Processor Information:	x86 (AMD or Intel) - 32 Processors
»»»  Tester Name:	PMF21124-494 (100V)
»»»  Tester S/N:	PMF21124-494
»»»  Internal Amp Type:	100V RevK 270k
»»»  Internal Amp S/N:	iAB2-596/K     
»»»  Execution Count:	1
»»»»»»»»»»»»»»»»»»»»»»»»»»»»»»»»»»»»»»»»»»««««««««««««««««««««««««««««««««««««««««««

Stored:	6/17/2025 - 12:28:47
Configured:	06/17/25 10:39:14 AM
Executed:	06/17/25 12:28:12 PM

»»»»»»»»»»»»»»»»»»»»»»»»»»»»»»»»»»» Sample Info ««««««««««««««««««««««««««««««««««««
Sample Name:	
Lot Name:	
Wafer Name:	
Die Row/Column:	0/0
Capacitor Number:	0
Sample Area (cm2):	1.00e-04
Sample Thickness (microns):	3.00e-01

Amplifier:	Internal

»»»»»»»»»»»»»»»»»»»»»»»»»»»»»»»»»»» Tester Info «««««««««««««««««««««««««««««««««««
Tester Name:	PMF21124-494 (100V)
Tester Serial Number:	PMF21124-494
Return Signal Amp. Level:	1.79 [Index: 2]

»»»»»»»»»»»»»»»»»»»»»»»»»»»»»»»» Hysteresis Info ««««««««««««««««««««««««««««««««««
Task Name:	Hyst-180
Volts:	20.00
Field:	666.67 (kV/cm)
DCBias:	0.00
DCField:	0.00 (kV/cm)
Hysteresis Period (ms):	1.00e+00
Preset:	Enabled
Preset Delay (ms):	1.00e+03
Profile:	Standard Bipolar

»»»»»»»»»»»»»»»»»»»»»»»»»»»»»»»»»»»»»» Data «««««««««««««««««««««««««««««««««««««««
Points:	2001

Valid Data

Point	Time (ms)	Drive Voltage	Measured Polarization (uC/cm2)	Capacitance (uF)	Normalized Capacitance (uF/cm2)	Dielectric Constant	Instantaneous Current (mA)
   1	0.0000e+00	0.0401	-2.508877	0.000365	3.653200	1.237738	0.029592
   2	5.0000e-04	0.0674	-2.360919	0.000365	3.653200	1.237738	0.029592
   3	1.0000e-03	0.1267	-2.407103	-0.000114	-1.140305	-0.386346	-0.009237
   4	1.5000e-03	0.1829	-2.244177	0.000402	4.022743	1.362942	0.032585
   5	2.0000e-03	0.1925	-2.166777	0.000191	1.911067	0.647487	0.015480
   6	2.5000e-03	0.2262	-2.046187	0.000298	2.977463	1.008792	0.024118
   7	3.0000e-03	0.2968	-1.949116	0.000240	2.396752	0.812042	0.019414
   8	3.5000e-03	0.3176	-1.803296	0.000360	3.600408	1.219851	0.029164
   9	4.0000e-03	0.3369	-1.710073	0.000230	2.301727	0.779846	0.018644
  10	4.5000e-03	0.4299	-1.629680	0.000198	1.984975	0.672528	0.016079
  11	5.0000e-03	0.4412	-1.528333	0.000250	2.502336	0.847814	0.020269
  12	5.5000e-03	0.5053	-1.399618	0.000318	3.178072	1.076760	0.025743
  13	6.0000e-03	0.5166	-1.316658	0.000205	2.048326	0.693992	0.016592
  14	6.5000e-03	0.5406	-1.185805	0.000323	3.230864	1.094646	0.026171
  15	7.0000e-03	0.6096	-1.105839	0.000197	1.974417	0.668951	0.015993
  16	7.5000e-03	0.6481	-1.026301	0.000196	1.963859	0.665373	0.015908
  17	8.0000e-03	0.6978	-0.922815	0.000256	2.555128	0.865701	0.020697
  18	8.5000e-03	0.7283	-0.794955	0.000316	3.156956	1.069606	0.025572
  19	9.0000e-03	0.7412	-0.694891	0.000247	2.470661	0.837083	0.020013
  20	9.5000e-03	0.8230	-0.614925	0.000197	1.974417	0.668951	0.015993
  21	1.0000e-02	0.8502	-0.486638	0.000317	3.167514	1.073183	0.025658
  22	1.0500e-02	0.8807	-0.358778	0.000316	3.156956	1.069606	0.025572
  23	1.1000e-02	0.9160	-0.210819	0.000365	3.653200	1.237738	0.029592
  24	1.1500e-02	0.9738	-0.121018	0.000222	2.217260	0.751228	0.017960
  25	1.2000e-02	0.9914	-0.020526	0.000248	2.481219	0.840660	0.020098
  26	1.2500e-02	1.0251	0.043190	0.000157	1.573199	0.533014	0.012743
  27	1.3000e-02	1.0813	0.152235	0.000269	2.692387	0.912205	0.021809
  28	1.3500e-02	1.1230	0.254437	0.000252	2.523453	0.854969	0.020440
  29	1.4000e-02	1.1871	0.345094	0.000224	2.238377	0.758383	0.018131
  30	1.4500e-02	1.1887	0.454138	0.000269	2.692387	0.912205	0.021809
  31	1.5000e-02	1.2304	0.572590	0.000292	2.924671	0.990905	0.023690
  32	1.5500e-02	1.2738	0.737226	0.000406	4.064976	1.377251	0.032927
  33	1.6000e-02	1.3139	0.775285	0.000094	0.939696	0.318378	0.007612
  34	1.6500e-02	1.3460	0.861665	0.000213	2.132793	0.722610	0.017276
  35	1.7000e-02	1.4005	1.020742	0.000393	3.927717	1.330747	0.031815
  36	1.7500e-02	1.4214	1.144325	0.000305	3.051372	1.033833	0.024717
  37	1.8000e-02	1.4951	1.198206	0.000133	1.330356	0.450737	0.010776
  38	1.8500e-02	1.5112	1.321790	0.000305	3.051372	1.033833	0.024717
  39	1.9000e-02	1.5962	1.411591	0.000222	2.217260	0.751228	0.017960
  40	1.9500e-02	1.6235	1.527905	0.000287	2.871879	0.973019	0.023263
  41	2.0000e-02	1.6251	1.664745	0.000338	3.378682	1.144728	0.027368
  42	2.0500e-02	1.6812	1.786618	0.000301	3.009138	1.019524	0.024375
  43	2.1000e-02	1.7550	1.789184	0.000006	0.063350	0.021464	0.000513
  44	2.1500e-02	1.7486	1.979905	-0.000471	-4.709038	-1.595465	0.038144
  45	2.2000e-02	1.7951	2.094509	0.000283	2.829646	0.958710	0.022921
  46	2.2500e-02	1.8096	2.192862	0.000243	2.428427	0.822773	0.019671
  47	2.3000e-02	1.9042	2.276249	0.000206	2.058884	0.697569	0.016677
  48	2.3500e-02	1.9122	2.388287	0.000277	2.766296	0.937246	0.022408
  49	2.4000e-02	1.9876	2.463122	0.000185	1.847717	0.626023	0.014967
  50	2.4500e-02	1.9844	2.554633	-0.000226	-2.259493	-0.765537	0.018302
  51	2.5000e-02	2.0310	2.711144	0.000386	3.864367	1.309283	0.031302
  52	2.5500e-02	2.0839	2.818051	0.000264	2.639595	0.894319	0.021381
  53	2.6000e-02	2.1080	2.945911	0.000316	3.156956	1.069606	0.025572
  54	2.6500e-02	2.1513	3.036995	0.000225	2.248935	0.761960	0.018217
  55	2.7000e-02	2.2170	3.124658	0.000216	2.164468	0.733342	0.017533
  56	2.7500e-02	2.2684	3.205907	0.000201	2.006092	0.679682	0.016250
  57	2.8000e-02	2.2764	3.365839	0.000395	3.948834	1.337901	0.031986
  58	2.8500e-02	2.3165	3.442811	0.000190	1.900508	0.643910	0.015395
  59	2.9000e-02	2.3662	3.559980	0.000289	2.892996	0.980174	0.023434
  60	2.9500e-02	2.4192	3.631821	0.000177	1.773808	0.600982	0.014368
  61	3.0000e-02	2.4336	3.784911	0.000378	3.779900	1.280665	0.030618
  62	3.0500e-02	2.4946	3.870436	0.000211	2.111676	0.715455	0.017105
  63	3.1000e-02	2.5202	3.975632	0.000260	2.597362	0.880010	0.021039
  64	3.1500e-02	2.5443	4.114183	0.000342	3.420915	1.159037	0.027710
  65	3.2000e-02	2.6197	4.171912	0.000143	1.425381	0.482932	0.011546
  66	3.2500e-02	2.6438	4.312601	0.000347	3.473707	1.176924	0.028138
  67	3.3000e-02	2.6630	4.404113	0.000226	2.259493	0.765537	0.018302
  68	3.3500e-02	2.7176	4.507598	0.000256	2.555128	0.865701	0.020697
  69	3.4000e-02	2.7769	4.654701	0.000363	3.632083	1.230583	0.029421
  70	3.4500e-02	2.7978	4.715852	0.000151	1.509848	0.511550	0.012230
  71	3.5000e-02	2.8700	4.840290	0.000307	3.072489	1.040987	0.024888
  72	3.5500e-02	2.8796	4.951901	0.000276	2.755737	0.933669	0.022322
  73	3.6000e-02	2.9390	5.019465	0.000167	1.668224	0.565210	0.013513
  74	3.6500e-02	2.9710	5.139201	0.000296	2.956346	1.001637	0.023947
  75	3.7000e-02	2.9935	5.249528	0.000272	2.724062	0.922937	0.022065
  76	3.7500e-02	3.0144	5.365414	0.000286	2.861321	0.969442	0.023177
  77	3.8000e-02	3.0914	5.447518	0.000203	2.027209	0.686837	0.016421
  78	3.8500e-02	3.1347	5.581793	0.000332	3.315331	1.123265	0.026855
  79	3.9000e-02	3.1555	5.679719	0.000242	2.417869	0.819196	0.019585
  80	3.9500e-02	3.1812	5.804585	0.000308	3.083047	1.044565	0.024973
  81	4.0000e-02	3.2486	5.878137	0.000182	1.816041	0.615291	0.014710
  82	4.0500e-02	3.2855	6.035076	0.000387	3.874926	1.312860	0.031388
  83	4.1000e-02	3.3464	6.104351	0.000171	1.710458	0.579519	0.013855
  84	4.1500e-02	3.3625	6.251026	0.000362	3.621524	1.227006	0.029335
  85	4.2000e-02	3.4266	6.296355	0.000112	1.119188	0.379191	0.009066
  86	4.2500e-02	3.4603	6.440464	0.000356	3.558174	1.205542	0.028822
  87	4.3000e-02	3.4635	6.556778	0.000287	2.871879	0.973019	0.023263
  88	4.3500e-02	3.5405	6.648718	0.000227	2.270052	0.769114	0.018388
  89	4.4000e-02	3.5502	6.744933	0.000238	2.375636	0.804887	0.019243
  90	4.4500e-02	3.5935	6.859965	0.000284	2.840204	0.962287	0.023006
  91	4.5000e-02	3.6464	6.947628	0.000216	2.164468	0.733342	0.017533
  92	4.5500e-02	3.6881	7.093020	0.000359	3.589849	1.216274	0.029079
  93	4.6000e-02	3.7090	7.188381	0.000235	2.354519	0.797733	0.019072
  94	4.6500e-02	3.7764	7.285452	0.000240	2.396752	0.812042	0.019414
  95	4.7000e-02	3.8068	7.418016	0.000327	3.273098	1.108956	0.026513
  96	4.7500e-02	3.8325	7.545448	0.000315	3.146397	1.066028	0.025486
  97	4.8000e-02	3.8822	7.599329	0.000133	1.330356	0.450737	0.010776
  98	4.8500e-02	3.9272	7.773372	0.000430	4.297261	1.455951	0.034809
  99	4.9000e-02	3.9432	7.838371	0.000160	1.604874	0.543746	0.013000
 100	4.9500e-02	4.0234	7.929028	0.000224	2.238377	0.758383	0.018131
 101	5.0000e-02	4.0282	8.043204	0.000282	2.819087	0.955133	0.022835
 102	5.0500e-02	4.0764	8.100506	0.000141	1.414823	0.479355	0.011460
 103	5.1000e-02	4.1213	8.232214	0.000325	3.251981	1.101801	0.026342
 104	5.1500e-02	4.1678	8.360929	0.000318	3.178072	1.076760	0.025743
 105	5.2000e-02	4.2207	8.500335	0.000344	3.442032	1.166192	0.027881
 106	5.2500e-02	4.2464	8.554216	0.000133	1.330356	0.450737	0.010776
 107	5.3000e-02	4.2913	8.666254	0.000277	2.766296	0.937246	0.022408
 108	5.3500e-02	4.3122	8.802239	0.000336	3.357565	1.137574	0.027197
 109	5.4000e-02	4.3651	8.931809	0.000320	3.199189	1.083915	0.025914
 110	5.4500e-02	4.3924	9.037005	0.000260	2.597362	0.880010	0.021039
 111	5.5000e-02	4.4132	9.169141	0.000326	3.262539	1.105378	0.026427
 112	5.5500e-02	4.4967	9.217463	0.000119	1.193097	0.404232	0.009664
 113	5.6000e-02	4.5384	9.315817	0.000243	2.428427	0.822773	0.019671
 114	5.6500e-02	4.5592	9.449663	0.000330	3.304773	1.119687	0.026769
 115	5.7000e-02	4.6025	9.536471	0.000214	2.143351	0.726187	0.017362
 116	5.7500e-02	4.6314	9.669890	0.000329	3.294215	1.116110	0.026684
 117	5.8000e-02	4.6731	9.791764	0.000301	3.009138	1.019524	0.024375
 118	5.8500e-02	4.7421	9.892255	0.000248	2.481219	0.840660	0.020098
 119	5.9000e-02	4.7790	9.957255	0.000160	1.604874	0.543746	0.013000
 120	5.9500e-02	4.7918	10.082976	0.000310	3.104164	1.051719	0.025144
 121	6.0000e-02	4.8271	10.163798	0.000200	1.995534	0.676105	0.016164
 122	6.0500e-02	4.8929	10.317315	0.000379	3.790458	1.284242	0.030703
 123	6.1000e-02	4.9234	10.433629	0.000287	2.871879	0.973019	0.023263
 124	6.1500e-02	4.9523	10.540108	0.000263	2.629037	0.890742	0.021296
 125	6.2000e-02	5.0148	10.603824	0.000157	1.573199	0.533014	0.012743
 126	6.2500e-02	5.0261	10.765039	0.000398	3.980509	1.348633	0.032243
 127	6.3000e-02	5.1015	10.822340	0.000141	1.414823	0.479355	0.011460
 128	6.3500e-02	5.1191	10.971582	0.000368	3.684875	1.248469	0.029848
 129	6.4000e-02	5.1592	11.055824	0.000208	2.080001	0.704723	0.016848
 130	6.4500e-02	5.2041	11.164013	0.000267	2.671270	0.905051	0.021638
 131	6.5000e-02	5.2507	11.241413	0.000191	1.911067	0.647487	0.015480
 132	6.5500e-02	5.2876	11.413319	0.000424	4.244469	1.438065	0.034381
 133	6.6000e-02	5.3325	11.477890	0.000159	1.594315	0.540169	0.012914
 134	6.6500e-02	5.3533	11.623710	0.000360	3.600408	1.219851	0.029164
 135	6.7000e-02	5.4159	11.675025	0.000127	1.267006	0.429273	0.010263
 136	6.7500e-02	5.4448	11.790912	0.000286	2.861321	0.969442	0.023177
 137	6.8000e-02	5.4913	11.909792	0.000294	2.935230	0.994483	0.023776
 138	6.8500e-02	5.5346	12.004724	0.000234	2.343960	0.794155	0.018987
 139	6.9000e-02	5.5522	12.174919	0.000420	4.202235	1.423756	0.034039
 140	6.9500e-02	5.5811	12.249326	0.000184	1.837158	0.622446	0.014881
 141	7.0000e-02	5.6357	12.404982	0.000384	3.843250	1.302128	0.031131
 142	7.0500e-02	5.6854	12.425080	0.000050	0.496244	0.168132	0.004020
 143	7.1000e-02	5.7496	12.548664	0.000305	3.051372	1.033833	0.024717
 144	7.1500e-02	5.7464	12.686787	-0.000341	-3.410357	-1.155460	0.027625
 145	7.2000e-02	5.7977	12.806522	0.000296	2.956346	1.001637	0.023947
 146	7.2500e-02	5.8410	12.863824	0.000141	1.414823	0.479355	0.011460
 147	7.3000e-02	5.8795	12.999381	0.000335	3.347007	1.133997	0.027111
 148	7.3500e-02	5.9068	13.121682	0.000302	3.019697	1.023101	0.024460
 149	7.4000e-02	5.9549	13.238423	0.000288	2.882438	0.976596	0.023348
 150	7.4500e-02	6.0127	13.294870	0.000139	1.393706	0.472200	0.011289
 151	7.5000e-02	6.0111	13.394934	-0.000247	-2.470661	-0.837083	0.020013
 152	7.5500e-02	6.0833	13.554011	0.000393	3.927717	1.330747	0.031815
 153	7.6000e-02	6.1073	13.640391	0.000213	2.132793	0.722610	0.017276
 154	7.6500e-02	6.1731	13.763119	0.000303	3.030255	1.026678	0.024546
 155	7.7000e-02	6.1972	13.879434	0.000287	2.871879	0.973019	0.023263
 156	7.7500e-02	6.2677	13.922624	0.000107	1.066396	0.361305	0.008638
 157	7.8000e-02	6.2774	14.081273	0.000392	3.917159	1.327169	0.031730
 158	7.8500e-02	6.3383	14.146699	0.000162	1.615432	0.547323	0.013085
 159	7.9000e-02	6.3528	14.286533	0.000345	3.452590	1.169769	0.027967
 160	7.9500e-02	6.4025	14.407978	0.000300	2.998580	1.015946	0.024289
 161	8.0000e-02	6.4458	14.519161	0.000275	2.745179	0.930092	0.022237
 162	8.0500e-02	6.4667	14.644883	0.000310	3.104164	1.051719	0.025144
 163	8.1000e-02	6.5084	14.803532	0.000392	3.917159	1.327169	0.031730
 164	8.1500e-02	6.5725	14.807808	0.000011	0.105584	0.035773	0.000855
 165	8.2000e-02	6.5918	14.955766	0.000365	3.653200	1.237738	0.029592
 166	8.2500e-02	6.6479	15.058824	0.000254	2.544570	0.862124	0.020612
 167	8.3000e-02	6.7009	15.137507	0.000194	1.942742	0.658219	0.015737
 168	8.3500e-02	6.7041	15.234578	0.000240	2.396752	0.812042	0.019414
 169	8.4000e-02	6.7618	15.324379	0.000222	2.217260	0.751228	0.017960
 170	8.4500e-02	6.7907	15.487305	0.000402	4.022743	1.362942	0.032585
 171	8.5000e-02	6.8372	15.547172	0.000148	1.478173	0.500819	0.011974
 172	8.5500e-02	6.8806	15.649802	0.000253	2.534011	0.858546	0.020526
 173	8.6000e-02	6.9078	15.781938	0.000326	3.262539	1.105378	0.026427
 174	8.6500e-02	6.9704	15.876444	0.000233	2.333402	0.790578	0.018901
 175	8.7000e-02	6.9864	15.964962	0.000219	2.185585	0.740496	0.017704
 176	8.7500e-02	7.0538	16.094105	0.000319	3.188631	1.080337	0.025829
 177	8.8000e-02	7.0618	16.236504	0.000352	3.515941	1.191233	0.028480
 178	8.8500e-02	7.1324	16.295516	0.000146	1.457056	0.493664	0.011802
 179	8.9000e-02	7.1693	16.407982	0.000278	2.776854	0.940824	0.022493
 180	8.9500e-02	7.2094	16.521302	0.000280	2.797971	0.947978	0.022664
 181	9.0000e-02	7.2415	16.656004	0.000333	3.325890	1.126842	0.026940
 182	9.0500e-02	7.2768	16.703043	0.000116	1.161422	0.393500	0.009408
 183	9.1000e-02	7.3137	16.827055	0.000306	3.061930	1.037410	0.024802
 184	9.1500e-02	7.3666	16.962184	0.000334	3.336448	1.130419	0.027026
 185	9.2000e-02	7.3987	17.084913	0.000303	3.030255	1.026678	0.024546
 186	9.2500e-02	7.4549	17.186260	0.000250	2.502336	0.847814	0.020269
 187	9.3000e-02	7.4805	17.293166	0.000264	2.639595	0.894319	0.021381
 188	9.3500e-02	7.5030	17.444118	0.000373	3.727108	1.262778	0.030190
 189	9.4000e-02	7.5720	17.493722	0.000122	1.224772	0.414964	0.009921
 190	9.4500e-02	7.6169	17.583524	0.000222	2.217260	0.751228	0.017960
 191	9.5000e-02	7.6378	17.701976	0.000292	2.924671	0.990905	0.023690
 192	9.5500e-02	7.6827	17.839671	0.000340	3.399798	1.151883	0.027539
 193	9.6000e-02	7.7067	17.932894	0.000230	2.301727	0.779846	0.018644
 194	9.6500e-02	7.7645	18.011149	0.000193	1.932184	0.654642	0.015651
 195	9.7000e-02	7.7998	18.194600	0.000453	4.529545	1.534651	0.036690
 196	9.7500e-02	7.8463	18.220685	0.000064	0.644061	0.218214	0.005217
 197	9.8000e-02	7.8864	18.338282	0.000290	2.903555	0.983751	0.023519
 198	9.8500e-02	7.8944	18.460583	0.000302	3.019697	1.023101	0.024460
 199	9.9000e-02	7.9827	18.556371	0.000237	2.365077	0.801310	0.019158
 200	9.9500e-02	7.9907	18.661567	0.000260	2.597362	0.880010	0.021039
 201	1.0000e-01	8.0436	18.750941	0.000221	2.206701	0.747651	0.017875
 202	1.0050e-01	8.0661	18.898044	0.000363	3.632083	1.230583	0.029421
 203	1.0100e-01	8.1110	19.036167	0.000341	3.410357	1.155460	0.027625
 204	1.0150e-01	8.1351	19.157185	0.000299	2.988022	1.012369	0.024204
 205	1.0200e-01	8.1928	19.202513	0.000112	1.119188	0.379191	0.009066
 206	1.0250e-01	8.2618	19.309847	0.000265	2.650153	0.897896	0.021467
 207	1.0300e-01	8.2907	19.402642	0.000229	2.291168	0.776269	0.018559
 208	1.0350e-01	8.3147	19.524515	0.000301	3.009138	1.019524	0.024375
 209	1.0400e-01	8.3548	19.630993	0.000263	2.629037	0.890742	0.021296
 210	1.0450e-01	8.4078	19.725926	0.000234	2.343960	0.794155	0.018987
 211	1.0500e-01	8.4479	19.852931	0.000314	3.135839	1.062451	0.025401
 212	1.0550e-01	8.4784	19.992337	0.000344	3.442032	1.166192	0.027881
 213	1.0600e-01	8.5153	20.028257	0.000089	0.886904	0.300491	0.007184
 214	1.0650e-01	8.5698	20.168091	0.000345	3.452590	1.169769	0.027967
 215	1.0700e-01	8.5923	20.308780	0.000347	3.473707	1.176924	0.028138
 216	1.0750e-01	8.6388	20.383614	0.000185	1.847717	0.626023	0.014967
 217	1.0800e-01	8.6725	20.480685	0.000240	2.396752	0.812042	0.019414
 218	1.0850e-01	8.7318	20.565782	0.000210	2.101118	0.711878	0.017019
 219	1.0900e-01	8.7671	20.712458	0.000362	3.621524	1.227006	0.029335
 220	1.0950e-01	8.8169	20.777884	0.000162	1.615432	0.547323	0.013085
 221	1.1000e-01	8.8137	20.925843	-0.000365	-3.653200	-1.237738	0.029592
 222	1.1050e-01	8.8971	20.974164	0.000119	1.193097	0.404232	0.009664
 223	1.1100e-01	8.9131	21.122978	0.000367	3.674316	1.244892	0.029763
 224	1.1150e-01	8.9805	21.213207	0.000223	2.227818	0.754805	0.018046
 225	1.1200e-01	9.0126	21.314127	0.000249	2.491778	0.844237	0.020184
 226	1.1250e-01	9.0447	21.431296	0.000289	2.892996	0.980174	0.023434
 227	1.1300e-01	9.0687	21.550603	0.000295	2.945788	0.998060	0.023861
 228	1.1350e-01	9.0992	21.663924	0.000280	2.797971	0.947978	0.022664
 229	1.1400e-01	9.1730	21.796060	0.000326	3.262539	1.105378	0.026427
 230	1.1450e-01	9.1874	21.870895	0.000185	1.847717	0.626023	0.014967
 231	1.1500e-01	9.2660	21.959413	0.000219	2.185585	0.740496	0.017704
 232	1.1550e-01	9.2853	22.038524	0.000195	1.953300	0.661796	0.015822
 233	1.1600e-01	9.3270	22.188620	0.000371	3.705991	1.255624	0.030019
 234	1.1650e-01	9.3655	22.260889	0.000178	1.784366	0.604560	0.014454
 235	1.1700e-01	9.4024	22.423387	0.000401	4.012184	1.359365	0.032500
 236	1.1750e-01	9.4457	22.485820	0.000154	1.541523	0.522282	0.012487
 237	1.1800e-01	9.4906	22.588022	0.000252	2.523453	0.854969	0.020440
 238	1.1850e-01	9.5179	22.718448	0.000322	3.220306	1.091069	0.026085
 239	1.1900e-01	9.5725	22.819795	0.000250	2.502336	0.847814	0.020269
 240	1.1950e-01	9.6029	22.915583	0.000237	2.365077	0.801310	0.019158
 241	1.2000e-01	9.6703	23.025055	0.000270	2.702945	0.915783	0.021894
 242	1.2050e-01	9.6976	23.119988	0.000234	2.343960	0.794155	0.018987
 243	1.2100e-01	9.7602	23.207224	0.000215	2.153910	0.729764	0.017447
 244	1.2150e-01	9.7650	23.359886	0.000377	3.769342	1.277088	0.030532
 245	1.2200e-01	9.7874	23.458667	0.000244	2.438986	0.826351	0.019756
 246	1.2250e-01	9.8548	23.560870	0.000252	2.523453	0.854969	0.020440
 247	1.2300e-01	9.8580	23.711821	0.000373	3.727108	1.262778	0.030190
 248	1.2350e-01	9.9158	23.781097	0.000171	1.710458	0.579519	0.013855
 249	1.2400e-01	9.9366	23.886720	0.000261	2.607920	0.883587	0.021125
 250	1.2450e-01	10.0136	24.016291	0.000320	3.199189	1.083915	0.025914
 251	1.2500e-01	10.0473	24.071882	0.000137	1.372589	0.465046	0.011118
 252	1.2550e-01	10.0858	24.168098	0.000238	2.375636	0.804887	0.019243
 253	1.2600e-01	10.1051	24.355398	0.000462	4.624570	1.566847	0.037460
 254	1.2650e-01	10.1644	24.392601	0.000092	0.918579	0.311223	0.007441
 255	1.2700e-01	10.2029	24.523882	0.000324	3.241423	1.098224	0.026256
 256	1.2750e-01	10.2382	24.593157	0.000171	1.710458	0.579519	0.013855
 257	1.2800e-01	10.2767	24.697925	0.000259	2.586803	0.876433	0.020954
 258	1.2850e-01	10.3313	24.812101	0.000282	2.819087	0.955133	0.022835
 259	1.2900e-01	10.3585	24.904041	0.000227	2.270052	0.769114	0.018388
 260	1.2950e-01	10.4163	24.995553	0.000226	2.259493	0.765537	0.018302
 261	1.3000e-01	10.4420	25.152491	0.000387	3.874926	1.312860	0.031388
 262	1.3050e-01	10.4788	25.252128	0.000246	2.460103	0.833505	0.019927
