»»»»»»»»»»»»»»»»»»»»»»»»»»»»»»»»»»»» Hysteresis ««««««««««««««««««««««««««««««««««««
»»»  Executed Version:	5.48.1
»»»  Vision Version:	5.48.4 (R)
»»»  Vision Compiled:	9/18/24
»»»  Driver Version:	5.47.0
»»»  Windows Version:	Windows 8 or 8.1
»»»  Processor Information:	x86 (AMD or Intel) - 32 Processors
»»»  Tester Name:	PMF21124-494 (100V)
»»»  Tester S/N:	PMF21124-494
»»»  Internal Amp Type:	100V RevK 270k
»»»  Internal Amp S/N:	iAB2-596/K     
»»»  Execution Count:	1
»»»»»»»»»»»»»»»»»»»»»»»»»»»»»»»»»»»»»»»»»»««««««««««««««««««««««««««««««««««««««««««

Stored:	6/17/2025 - 12:41:41
Configured:	06/17/25 10:39:14 AM
Executed:	06/17/25 12:41:11 PM

»»»»»»»»»»»»»»»»»»»»»»»»»»»»»»»»»»» Sample Info ««««««««««««««««««««««««««««««««««««
Sample Name:	
Lot Name:	
Wafer Name:	
Die Row/Column:	0/0
Capacitor Number:	0
Sample Area (cm2):	1.00e-04
Sample Thickness (microns):	3.00e-01

Amplifier:	Internal

»»»»»»»»»»»»»»»»»»»»»»»»»»»»»»»»»»» Tester Info «««««««««««««««««««««««««««««««««««
Tester Name:	PMF21124-494 (100V)
Tester Serial Number:	PMF21124-494
Return Signal Amp. Level:	1.79 [Index: 2]

»»»»»»»»»»»»»»»»»»»»»»»»»»»»»»»» Hysteresis Info ««««««««««««««««««««««««««««««««««
Task Name:	Hyst-180
Volts:	20.00
Field:	666.67 (kV/cm)
DCBias:	0.00
DCField:	0.00 (kV/cm)
Hysteresis Period (ms):	1.00e+00
Preset:	Enabled
Preset Delay (ms):	1.00e+03
Profile:	Standard Bipolar

»»»»»»»»»»»»»»»»»»»»»»»»»»»»»»»»»»»»»» Data «««««««««««««««««««««««««««««««««««««««
Points:	2001

Valid Data

Point	Time (ms)	Drive Voltage	Measured Polarization (uC/cm2)	Capacitance (uF)	Normalized Capacitance (uF/cm2)	Dielectric Constant	Instantaneous Current (mA)
   1	0.0000e+00	0.0273	-2.953394	0.000573	5.733029	1.942403	0.046269
   2	5.0000e-04	0.0513	-2.722049	0.000573	5.733029	1.942403	0.046269
   3	1.0000e-03	0.1091	-2.751982	-0.000074	-0.741797	-0.251328	-0.005987
   4	1.5000e-03	0.1765	-2.789186	-0.000092	-0.921947	-0.312364	-0.007441
   5	2.0000e-03	0.2069	-2.573663	0.000534	5.340937	1.809558	0.043105
   6	2.5000e-03	0.2150	-2.438961	0.000334	3.338086	1.130974	0.026940
   7	3.0000e-03	0.2807	-2.320509	0.000294	2.935396	0.994539	0.023690
   8	3.5000e-03	0.3497	-2.366692	-0.000114	-1.144486	-0.387763	-0.009237
   9	4.0000e-03	0.3626	-2.205905	0.000398	3.984508	1.349988	0.032157
  10	4.5000e-03	0.4123	-2.175116	0.000076	0.762991	0.258508	0.006158
  11	5.0000e-03	0.4315	-1.923672	0.000623	6.231093	2.111151	0.050289
  12	5.5000e-03	0.4989	-1.900581	0.000057	0.572243	0.193881	0.004618
  13	6.0000e-03	0.5342	-1.807358	0.000231	2.310167	0.782706	0.018644
  14	6.5000e-03	0.5470	-1.738511	0.000171	1.706133	0.578053	0.013770
  15	7.0000e-03	0.6032	-1.689334	0.000122	1.218666	0.412895	0.009835
  16	7.5000e-03	0.6609	-1.561046	0.000318	3.179129	1.077118	0.025658
  17	8.0000e-03	0.6706	-1.354931	0.000511	5.107801	1.730570	0.041223
  18	8.5000e-03	0.7283	-1.301478	0.000132	1.324637	0.448799	0.010691
  19	9.0000e-03	0.7845	-1.290359	0.000028	0.275525	0.093350	0.002224
  20	9.5000e-03	0.7861	-1.094507	0.000485	4.853470	1.644400	0.039170
  21	1.0000e-02	0.8438	-1.065428	0.000072	0.720603	0.244147	0.005816
  22	1.0500e-02	0.8823	-0.907635	0.000391	3.910329	1.324855	0.031559
  23	1.1000e-02	0.9096	-0.765235	0.000353	3.528833	1.195601	0.028480
  24	1.1500e-02	0.9657	-0.725894	0.000097	0.974933	0.330316	0.007868
  25	1.2000e-02	0.9994	-0.656619	0.000172	1.716730	0.581644	0.013855
  26	1.2500e-02	1.0604	-0.549285	0.000266	2.659871	0.901189	0.021467
  27	1.3000e-02	1.0925	-0.471884	0.000192	1.918075	0.649861	0.015480
  28	1.3500e-02	1.1374	-0.360274	0.000277	2.765842	0.937093	0.022322
  29	1.4000e-02	1.1518	-0.143041	0.000538	5.383325	1.823920	0.043447
  30	1.4500e-02	1.2272	-0.142613	0.000001	0.010597	0.003590	0.000086
  31	1.5000e-02	1.2706	-0.084028	0.000145	1.451802	0.491884	0.011717
  32	1.5500e-02	1.2706	0.066923	-0.000374	-3.740775	-1.267409	0.030190
  33	1.6000e-02	1.3155	0.217447	0.000373	3.730178	1.263819	0.030105
  34	1.6500e-02	1.3331	0.374814	0.000390	3.899732	1.321265	0.031473
  35	1.7000e-02	1.4085	0.396622	0.000054	0.540452	0.183110	0.004362
  36	1.7500e-02	1.4486	0.460339	0.000158	1.578967	0.534969	0.012743
  37	1.8000e-02	1.4743	0.585205	0.000309	3.094352	1.048395	0.024973
  38	1.8500e-02	1.5336	0.695105	0.000272	2.723454	0.922731	0.021980
  39	1.9000e-02	1.5577	0.831517	0.000338	3.380474	1.145336	0.027282
  40	1.9500e-02	1.5802	0.857602	0.000065	0.646423	0.219014	0.005217
  41	2.0000e-02	1.6588	0.968357	0.000274	2.744648	0.929912	0.022151
  42	2.0500e-02	1.6893	1.183025	0.000532	5.319743	1.802378	0.042934
  43	2.1000e-02	1.7101	1.212104	0.000072	0.720603	0.244147	0.005816
  44	2.1500e-02	1.7695	1.246314	0.000085	0.847768	0.287231	0.006842
  45	2.2000e-02	1.8016	1.397693	0.000375	3.751372	1.270999	0.030276
  46	2.2500e-02	1.8513	1.478514	0.000200	2.002851	0.678584	0.016164
  47	2.3000e-02	1.8962	1.562329	0.000208	2.077031	0.703717	0.016763
  48	2.3500e-02	1.9219	1.688906	0.000314	3.136741	1.062757	0.025315
  49	2.4000e-02	1.9572	1.826601	0.000341	3.412265	1.156107	0.027539
  50	2.4500e-02	1.9941	1.965152	0.000343	3.433459	1.163288	0.027710
  51	2.5000e-02	2.0582	1.915120	-0.000124	-1.239860	-0.420076	-0.010006
  52	2.5500e-02	2.0727	2.191366	0.000685	6.845725	2.319394	0.055249
  53	2.6000e-02	2.1128	2.240543	0.000122	1.218666	0.412895	0.009835
  54	2.6500e-02	2.1737	2.305114	0.000160	1.600162	0.542149	0.012914
  55	2.7000e-02	2.1802	2.488138	0.000454	4.535558	1.536688	0.036605
  56	2.7500e-02	2.2122	2.598893	0.000274	2.744648	0.929912	0.022151
  57	2.8000e-02	2.2796	2.590768	-0.000020	-0.201345	-0.068217	-0.001625
  58	2.8500e-02	2.3310	2.704944	0.000283	2.829425	0.958635	0.022835
  59	2.9000e-02	2.3406	2.817409	0.000279	2.787037	0.944274	0.022493
  60	2.9500e-02	2.3967	2.958098	0.000349	3.486445	1.181240	0.028138
  61	3.0000e-02	2.4240	3.054741	0.000239	2.394944	0.811429	0.019329
  62	3.0500e-02	2.4817	3.140694	0.000213	2.130017	0.721669	0.017191
  63	3.1000e-02	2.5186	3.175331	0.000086	0.858365	0.290822	0.006928
  64	3.1500e-02	2.5539	3.344671	0.000420	4.196450	1.421796	0.033868
  65	3.2000e-02	2.5908	3.427203	0.000205	2.045240	0.692946	0.016506
  66	3.2500e-02	2.6342	3.556346	0.000320	3.200323	1.084299	0.025829
  67	3.3000e-02	2.6727	3.709863	0.000380	3.804358	1.288951	0.030703
  68	3.3500e-02	2.7256	3.614075	-0.000237	-2.373750	-0.804248	-0.019158
  69	3.4000e-02	2.7657	3.862098	0.000615	6.146316	2.082428	0.049605
  70	3.4500e-02	2.8010	4.011767	0.000371	3.708984	1.256638	0.029934
  71	3.5000e-02	2.8459	3.959169	-0.000130	-1.303443	-0.441618	-0.010520
  72	3.5500e-02	2.9021	4.140054	0.000448	4.482572	1.518737	0.036177
  73	3.6000e-02	2.9053	4.272618	0.000329	3.285100	1.113022	0.026513
  74	3.6500e-02	2.9726	4.313242	0.000101	1.006724	0.341087	0.008125
  75	3.7000e-02	2.9791	4.534325	0.000548	5.478699	1.856234	0.044216
  76	3.7500e-02	3.0416	4.524489	-0.000024	-0.243733	-0.082579	-0.001967
  77	3.8000e-02	3.0978	4.662612	0.000342	3.422862	1.159697	0.027625
  78	3.8500e-02	3.1443	4.706658	0.000109	1.091501	0.369811	0.008809
  79	3.9000e-02	3.1491	4.908069	0.000499	4.991233	1.691075	0.040282
  80	3.9500e-02	3.2149	4.935437	0.000068	0.678214	0.229785	0.005474
  81	4.0000e-02	3.2325	5.054745	0.000296	2.956590	1.001720	0.023861
  82	4.0500e-02	3.2807	5.198427	0.000356	3.560625	1.206372	0.028736
  83	4.1000e-02	3.3384	5.244610	0.000114	1.144486	0.387763	0.009237
  84	4.1500e-02	3.3641	5.469113	0.000556	5.563476	1.884957	0.044901
  85	4.2000e-02	3.4154	5.428489	-0.000101	-1.006724	-0.341087	-0.008125
  86	4.2500e-02	3.4507	5.572171	0.000356	3.560625	1.206372	0.028736
  87	4.3000e-02	3.4796	5.684209	0.000278	2.776439	0.940683	0.022408
  88	4.3500e-02	3.5261	5.824898	0.000349	3.486445	1.181240	0.028138
  89	4.4000e-02	3.5662	5.945916	0.000300	2.998978	1.016081	0.024204
  90	4.4500e-02	3.6047	5.962593	0.000041	0.413287	0.140025	0.003335
  91	4.5000e-02	3.6416	6.114400	0.000376	3.761969	1.274590	0.030361
  92	4.5500e-02	3.6785	6.200353	0.000213	2.130017	0.721669	0.017191
  93	4.6000e-02	3.7202	6.197787	-0.000006	-0.063583	-0.021542	-0.000513
  94	4.6500e-02	3.7539	6.404758	0.000513	5.128995	1.737751	0.041394
  95	4.7000e-02	3.7972	6.510809	0.000263	2.628080	0.890418	0.021210
  96	4.7500e-02	3.8421	6.535611	0.000061	0.614632	0.208243	0.004960
  97	4.8000e-02	3.8935	6.651497	0.000287	2.871813	0.972997	0.023177
  98	4.8500e-02	3.9223	6.764818	0.000281	2.808231	0.951454	0.022664
  99	4.9000e-02	3.9592	6.950835	0.000461	4.609737	1.561821	0.037203
 100	4.9500e-02	4.0026	6.991887	0.000102	1.017321	0.344678	0.008210
 101	5.0000e-02	4.0539	7.125306	0.000331	3.306294	1.120203	0.026684
 102	5.0500e-02	4.1052	7.158233	0.000082	0.815976	0.276460	0.006585
 103	5.1000e-02	4.1068	7.466551	0.000764	7.640507	2.588674	0.061664
 104	5.1500e-02	4.1550	7.452867	-0.000034	-0.339107	-0.114893	-0.002737
 105	5.2000e-02	4.2223	7.555070	0.000253	2.532706	0.858104	0.020440
 106	5.2500e-02	4.2464	7.556780	0.000004	0.042388	0.014362	0.000342
 107	5.3000e-02	4.3106	7.684212	0.000316	3.157935	1.069937	0.025486
 108	5.3500e-02	4.3186	7.885196	0.000498	4.980636	1.687485	0.040197
 109	5.4000e-02	4.3635	7.963879	0.000195	1.949866	0.660632	0.015737
 110	5.4500e-02	4.4052	8.025457	0.000153	1.525982	0.517017	0.012316
 111	5.5000e-02	4.4309	8.219172	0.000480	4.800485	1.626448	0.038743
 112	5.5500e-02	4.4951	8.269204	0.000124	1.239860	0.420076	0.010006
 113	5.6000e-02	4.5239	8.373544	0.000259	2.585692	0.876056	0.020868
 114	5.6500e-02	4.5785	8.438971	0.000162	1.621356	0.549330	0.013085
 115	5.7000e-02	4.6202	8.595054	0.000387	3.867940	1.310494	0.031217
 116	5.7500e-02	4.6298	8.775512	0.000447	4.471975	1.515146	0.036092
 117	5.8000e-02	4.6812	8.833669	0.000144	1.441205	0.488294	0.011631
 118	5.8500e-02	4.7213	8.883701	0.000124	1.239860	0.420076	0.010006
 119	5.9000e-02	4.7533	9.086396	0.000502	5.023024	1.701847	0.040539
 120	5.9500e-02	4.7886	9.151395	0.000161	1.610759	0.545740	0.013000
 121	6.0000e-02	4.8303	9.213400	0.000154	1.536579	0.520607	0.012401
 122	6.0500e-02	4.8801	9.332708	0.000296	2.956590	1.001720	0.023861
 123	6.1000e-02	4.8913	9.507607	0.000433	4.334213	1.468471	0.034980
 124	6.1500e-02	4.9619	9.553790	0.000114	1.144486	0.387763	0.009237
 125	6.2000e-02	5.0036	9.611947	0.000144	1.441205	0.488294	0.011631
 126	6.2500e-02	5.0485	9.648295	0.000090	0.900753	0.305183	0.007270
 127	6.3000e-02	5.0694	9.840299	0.000476	4.758097	1.612087	0.038401
 128	6.3500e-02	5.1143	9.961317	0.000300	2.998978	1.016081	0.024204
 129	6.4000e-02	5.1416	10.106282	0.000359	3.592416	1.217143	0.028993
 130	6.4500e-02	5.1945	10.186675	0.000199	1.992254	0.674994	0.016079
 131	6.5000e-02	5.2362	10.270490	0.000208	2.077031	0.703717	0.016763
 132	6.5500e-02	5.2683	10.352594	0.000203	2.034643	0.689356	0.016421
 133	6.6000e-02	5.3180	10.485158	0.000329	3.285100	1.113022	0.026513
 134	6.6500e-02	5.3549	10.584367	0.000246	2.458527	0.832971	0.019842
 135	6.7000e-02	5.4111	10.619860	0.000088	0.879559	0.298003	0.007099
 136	6.7500e-02	5.4111	10.805449	-0.000460	-4.599140	-1.558231	0.037118
 137	6.8000e-02	5.4769	10.910645	0.000261	2.606886	0.883237	0.021039
 138	6.8500e-02	5.5362	10.923901	0.000033	0.328510	0.111302	0.002651
 139	6.9000e-02	5.5683	11.120181	0.000486	4.864068	1.647991	0.039256
 140	6.9500e-02	5.6116	11.202286	0.000203	2.034643	0.689356	0.016421
 141	7.0000e-02	5.6228	11.328007	0.000312	3.115547	1.055576	0.025144
 142	7.0500e-02	5.6597	11.473400	0.000360	3.603013	1.220734	0.029079
 143	7.1000e-02	5.7271	11.538827	0.000162	1.621356	0.549330	0.013085
 144	7.1500e-02	5.7688	11.645733	0.000265	2.649274	0.897598	0.021381
 145	7.2000e-02	5.8057	11.708166	0.000155	1.547176	0.524197	0.012487
 146	7.2500e-02	5.8426	11.796257	0.000218	2.183002	0.739621	0.017618
 147	7.3000e-02	5.8715	11.924545	0.000318	3.179129	1.077118	0.025658
 148	7.3500e-02	5.9164	12.113555	0.000468	4.683917	1.586954	0.037802
 149	7.4000e-02	5.9661	12.129377	0.000039	0.392093	0.132845	0.003164
 150	7.4500e-02	6.0079	12.335492	0.000511	5.107801	1.730570	0.041223
 151	7.5000e-02	6.0480	12.325229	-0.000025	-0.254330	-0.086169	-0.002053
 152	7.5500e-02	6.0993	12.434274	0.000270	2.702260	0.915550	0.021809
 153	7.6000e-02	6.1218	12.586509	0.000377	3.772567	1.278180	0.030447
 154	7.6500e-02	6.1715	12.658777	0.000179	1.790909	0.606777	0.014454
 155	7.7000e-02	6.1843	12.822130	0.000405	4.048091	1.371530	0.032671
 156	7.7500e-02	6.2260	12.982490	0.000397	3.973911	1.346398	0.032072
 157	7.8000e-02	6.2966	12.991042	0.000021	0.211942	0.071808	0.001711
 158	7.8500e-02	6.3383	13.106501	0.000286	2.861216	0.969406	0.023092
 159	7.9000e-02	6.3463	13.197585	0.000226	2.257182	0.764754	0.018217
 160	7.9500e-02	6.4025	13.385313	0.000465	4.652126	1.576183	0.037545
 161	8.0000e-02	6.4458	13.389589	0.000011	0.105971	0.035904	0.000855
 162	8.0500e-02	6.4827	13.505048	0.000286	2.861216	0.969406	0.023092
 163	8.1000e-02	6.5180	13.761195	0.000635	6.347661	2.150646	0.051230
 164	8.1500e-02	6.5661	13.668828	-0.000229	-2.288973	-0.775525	-0.018473
 165	8.2000e-02	6.6062	13.859549	0.000473	4.726305	1.601316	0.038144
 166	8.2500e-02	6.6303	14.001521	0.000352	3.518236	1.192011	0.028394
 167	8.3000e-02	6.6864	14.072934	0.000177	1.769715	0.599596	0.014283
 168	8.3500e-02	6.7089	14.222175	0.000370	3.698387	1.253047	0.029848
 169	8.4000e-02	6.7570	14.320101	0.000243	2.426735	0.822200	0.019585
 170	8.4500e-02	6.7923	14.273490	-0.000116	-1.155084	-0.391353	-0.009322
 171	8.5000e-02	6.8709	14.397929	0.000308	3.083755	1.044805	0.024888
 172	8.5500e-02	6.8773	14.565986	0.000416	4.164659	1.411025	0.033611
 173	8.6000e-02	6.9110	14.738747	0.000428	4.281227	1.450519	0.034552
 174	8.6500e-02	6.9752	14.792627	0.000134	1.335234	0.452390	0.010776
 175	8.7000e-02	6.9961	14.928612	0.000337	3.369877	1.141745	0.027197
 176	8.7500e-02	7.0458	14.979072	0.000125	1.250457	0.423666	0.010092
 177	8.8000e-02	7.0891	15.097952	0.000295	2.945993	0.998129	0.023776
 178	8.8500e-02	7.1340	15.229233	0.000325	3.253309	1.102251	0.026256
 179	8.9000e-02	7.1629	15.295515	0.000164	1.642550	0.556511	0.013256
 180	8.9500e-02	7.1918	15.436203	0.000349	3.486445	1.181240	0.028138
 181	9.0000e-02	7.2367	15.560642	0.000308	3.083755	1.044805	0.024888
 182	9.0500e-02	7.2977	15.644457	0.000208	2.077031	0.703717	0.016763
 183	9.1000e-02	7.3153	15.732975	0.000219	2.193599	0.743211	0.017704
 184	9.1500e-02	7.3731	15.849717	0.000289	2.893007	0.980177	0.023348
 185	9.2000e-02	7.4003	15.970307	0.000299	2.988381	1.012491	0.024118
 186	9.2500e-02	7.4468	16.019912	0.000123	1.229263	0.416486	0.009921
 187	9.3000e-02	7.4982	16.159745	0.000347	3.465251	1.174059	0.027967
 188	9.3500e-02	7.5287	16.266652	0.000265	2.649274	0.897598	0.021381
 189	9.4000e-02	7.5575	16.367144	0.000249	2.490318	0.843743	0.020098
 190	9.4500e-02	7.6153	16.490727	0.000306	3.062561	1.037624	0.024717
 191	9.5000e-02	7.6730	16.571121	0.000199	1.992254	0.674994	0.016079
 192	9.5500e-02	7.6955	16.688290	0.000290	2.903605	0.983768	0.023434
 193	9.6000e-02	7.7035	16.876018	0.000465	4.652126	1.576183	0.037545
 194	9.6500e-02	7.7565	16.951280	0.000187	1.865089	0.631909	0.015052
 195	9.7000e-02	7.8046	16.973089	0.000054	0.540452	0.183110	0.004362
 196	9.7500e-02	7.8495	17.109073	0.000337	3.369877	1.141745	0.027197
 197	9.8000e-02	7.8736	17.327162	0.000540	5.404519	1.831101	0.043618
 198	9.8500e-02	7.9201	17.351965	0.000061	0.614632	0.208243	0.004960
 199	9.9000e-02	7.9698	17.394727	0.000106	1.059710	0.359039	0.008553
 200	9.9500e-02	7.9939	17.611961	0.000538	5.383325	1.823920	0.043447
 201	1.0000e-01	8.0420	17.758636	0.000363	3.634804	1.231505	0.029335
 202	1.0050e-01	8.0885	17.774886	0.000040	0.402690	0.136435	0.003250
 203	1.0100e-01	8.1158	17.869819	0.000235	2.352556	0.797067	0.018987
 204	1.0150e-01	8.1848	17.986988	0.000290	2.903605	0.983768	0.023434
 205	1.0200e-01	8.1960	18.040441	0.000132	1.324637	0.448799	0.010691
 206	1.0250e-01	8.2249	18.214057	0.000430	4.302421	1.457700	0.034723
 207	1.0300e-01	8.2939	18.294878	0.000200	2.002851	0.678584	0.016164
 208	1.0350e-01	8.3292	18.403923	0.000270	2.702260	0.915550	0.021809
 209	1.0400e-01	8.3548	18.492441	0.000219	2.193599	0.743211	0.017704
 210	1.0450e-01	8.3917	18.620301	0.000317	3.168532	1.073528	0.025572
 211	1.0500e-01	8.4447	18.722076	0.000252	2.522109	0.854514	0.020355
 212	1.0550e-01	8.4816	18.824706	0.000254	2.543303	0.861694	0.020526
 213	1.0600e-01	8.5297	19.017993	0.000479	4.789888	1.622858	0.038657
 214	1.0650e-01	8.5377	19.069308	0.000127	1.271652	0.430847	0.010263
 215	1.0700e-01	8.5875	19.174931	0.000262	2.617483	0.886827	0.021125
 216	1.0750e-01	8.6532	19.241641	0.000165	1.653147	0.560101	0.013342
 217	1.0800e-01	8.6869	19.304074	0.000155	1.547176	0.524197	0.012487
 218	1.0850e-01	8.7270	19.427658	0.000306	3.062561	1.037624	0.024717
 219	1.0900e-01	8.7463	19.518314	0.000225	2.246585	0.761163	0.018131
 220	1.0950e-01	8.8185	19.635056	0.000289	2.893007	0.980177	0.023348
 221	1.1000e-01	8.8762	19.616668	-0.000046	-0.455675	-0.154387	-0.003678
 222	1.1050e-01	8.8874	19.855283	0.000591	5.913180	2.003440	0.047723
 223	1.1100e-01	8.9067	20.031892	0.000438	4.376601	1.482833	0.035322
 224	1.1150e-01	8.9292	20.156331	0.000308	3.083755	1.044805	0.024888
 225	1.1200e-01	8.9901	20.215343	0.000146	1.462399	0.495474	0.011802
 226	1.1250e-01	9.0318	20.244850	0.000073	0.731200	0.247737	0.005901
 227	1.1300e-01	9.1088	20.373992	0.000320	3.200323	1.084299	0.025829
 228	1.1350e-01	9.1185	20.472346	0.000244	2.437332	0.825791	0.019671
 229	1.1400e-01	9.1858	20.571128	0.000245	2.447929	0.829381	0.019756
 230	1.1450e-01	9.2356	20.619877	0.000121	1.208069	0.409305	0.009750
 231	1.1500e-01	9.2243	20.746026	-0.000313	-3.126144	-1.059166	0.025230
 232	1.1550e-01	9.2853	20.953425	0.000514	5.139592	1.741341	0.041480
 233	1.1600e-01	9.3222	21.063324	0.000272	2.723454	0.922731	0.021980
 234	1.1650e-01	9.3350	21.213848	0.000373	3.730178	1.263819	0.030105
 235	1.1700e-01	9.3767	21.285262	0.000177	1.769715	0.599596	0.014283
 236	1.1750e-01	9.4650	21.305788	0.000051	0.508661	0.172339	0.004105
 237	1.1800e-01	9.4971	21.471706	0.000411	4.111674	1.393073	0.033184
 238	1.1850e-01	9.5163	21.552528	0.000200	2.002851	0.678584	0.016164
 239	1.1900e-01	9.5404	21.737262	0.000458	4.577946	1.551050	0.036947
 240	1.1950e-01	9.6013	21.829629	0.000229	2.288973	0.775525	0.018473
 241	1.2000e-01	9.6623	21.813379	-0.000040	-0.402690	-0.136435	-0.003250
 242	1.2050e-01	9.6815	21.995547	0.000451	4.514363	1.529508	0.036434
 243	1.2100e-01	9.7120	22.087914	0.000229	2.288973	0.775525	0.018473
 244	1.2150e-01	9.7585	22.166170	0.000194	1.939269	0.657042	0.015651
 245	1.2200e-01	9.8083	22.240149	0.000183	1.833298	0.621138	0.014796
 246	1.2250e-01	9.8612	22.388963	0.000369	3.687790	1.249457	0.029763
 247	1.2300e-01	9.8837	22.497580	0.000269	2.691663	0.911960	0.021723
 248	1.2350e-01	9.9286	22.561723	0.000159	1.589565	0.538559	0.012829
 249	1.2400e-01	9.9623	22.719517	0.000391	3.910329	1.324855	0.031559
 250	1.2450e-01	10.0120	22.759286	0.000099	0.985530	0.333907	0.007954
 251	1.2500e-01	10.0441	22.848660	0.000221	2.214793	0.750392	0.017875
 252	1.2550e-01	10.0682	23.069315	0.000547	5.468102	1.852643	0.044131
 253	1.2600e-01	10.1147	23.134741	0.000162	1.621356	0.549330	0.013085
 254	1.2650e-01	10.1612	23.286121	0.000375	3.751372	1.270999	0.030276
 255	1.2700e-01	10.1981	23.335725	0.000123	1.229263	0.416486	0.009921
 256	1.2750e-01	10.2462	23.397731	0.000154	1.536579	0.520607	0.012401
 257	1.2800e-01	10.2944	23.524308	0.000314	3.136741	1.062757	0.025315
 258	1.2850e-01	10.3120	23.650457	0.000313	3.126144	1.059166	0.025230
 259	1.2900e-01	10.3617	23.749239	0.000245	2.447929	0.829381	0.019756
 260	1.2950e-01	10.4083	23.879237	0.000322	3.221517	1.091480	0.026000
 261	1.3000e-01	10.4227	23.985288	0.000263	2.628080	0.890418	0.021210
