»»»»»»»»»»»»»»»»»»»»»»»»»»»»»»»»»»»» Hysteresis ««««««««««««««««««««««««««««««««««««
»»»  Executed Version:	5.48.1
»»»  Vision Version:	5.48.4 (R)
»»»  Vision Compiled:	9/18/24
»»»  Driver Version:	5.47.0
»»»  Windows Version:	Windows 8 or 8.1
»»»  Processor Information:	x86 (AMD or Intel) - 32 Processors
»»»  Tester Name:	PMF21124-494 (100V)
»»»  Tester S/N:	PMF21124-494
»»»  Internal Amp Type:	100V RevK 270k
»»»  Internal Amp S/N:	iAB2-596/K     
»»»  Execution Count:	1
»»»»»»»»»»»»»»»»»»»»»»»»»»»»»»»»»»»»»»»»»»««««««««««««««««««««««««««««««««««««««««««

Stored:	6/17/2025 - 12:39:32
Configured:	06/17/25 10:39:14 AM
Executed:	06/17/25 12:38:23 PM

»»»»»»»»»»»»»»»»»»»»»»»»»»»»»»»»»»» Sample Info ««««««««««««««««««««««««««««««««««««
Sample Name:	
Lot Name:	
Wafer Name:	
Die Row/Column:	0/0
Capacitor Number:	0
Sample Area (cm2):	1.00e-04
Sample Thickness (microns):	3.00e-01

Amplifier:	Internal

»»»»»»»»»»»»»»»»»»»»»»»»»»»»»»»»»»» Tester Info «««««««««««««««««««««««««««««««««««
Tester Name:	PMF21124-494 (100V)
Tester Serial Number:	PMF21124-494
Return Signal Amp. Level:	0.2 [Index: 1]

»»»»»»»»»»»»»»»»»»»»»»»»»»»»»»»» Hysteresis Info ««««««««««««««««««««««««««««««««««
Task Name:	Hyst-180
Volts:	20.00
Field:	666.67 (kV/cm)
DCBias:	0.00
DCField:	0.00 (kV/cm)
Hysteresis Period (ms):	1.00e-02
Preset:	Enabled
Preset Delay (ms):	1.00e+03
Profile:	Standard Bipolar

»»»»»»»»»»»»»»»»»»»»»»»»»»»»»»»»»»»»»» Data «««««««««««««««««««««««««««««««««««««««
Points:	101

Valid Data

Point	Time (ms)	Drive Voltage	Measured Polarization (uC/cm2)	Capacitance (uF)	Normalized Capacitance (uF/cm2)	Dielectric Constant	Instantaneous Current (mA)
   1	0.0000e+00	0.0674	-2.728823	0.000035	0.354830	0.120220	0.280346
   2	1.0000e-04	0.6112	-2.448477	0.000035	0.354830	0.120220	0.280346
   3	2.0000e-04	1.6139	-0.307652	0.000271	2.709614	0.918042	2.140824
   4	3.0000e-04	2.2475	2.004292	0.000293	2.926199	0.991423	2.311945
   5	4.0000e-04	3.0914	4.654837	0.000335	3.354760	1.136623	2.650544
   6	5.0000e-04	3.8678	5.514079	0.000109	1.087532	0.368466	0.859242
   7	6.0000e-04	4.6298	7.585727	0.000262	2.622058	0.888377	2.071648
   8	7.0000e-04	5.4624	9.762960	0.000276	2.755696	0.933655	2.177233
   9	8.0000e-04	6.2726	11.790918	0.000257	2.566760	0.869642	2.027958
  10	9.0000e-04	7.0699	15.202401	0.000432	4.317871	1.462934	3.411484
  11	1.0000e-03	7.8495	15.719403	0.000065	0.654363	0.221704	0.517002
  12	1.1000e-03	8.6308	17.721875	0.000253	2.534503	0.858713	2.002472
  13	1.2000e-03	9.4794	20.030179	0.000292	2.921590	0.989862	2.308304
  14	1.3000e-03	10.2446	22.112749	0.000264	2.635883	0.893061	2.082571
  15	1.4000e-03	11.0403	25.356753	0.000411	4.105894	1.391115	3.244004
  16	1.5000e-03	11.8376	25.844628	0.000062	0.617497	0.209214	0.487875
  17	1.6000e-03	12.6510	27.908995	0.000261	2.612842	0.885255	2.064366
  18	1.7000e-03	13.4884	30.126277	0.000281	2.806386	0.950829	2.217282
  19	1.8000e-03	14.2456	32.136030	0.000254	2.543719	0.861835	2.009753
  20	1.9000e-03	15.0413	35.077843	0.000372	3.723415	1.261527	2.941813
  21	2.0000e-03	15.8482	35.787811	0.000090	0.898596	0.304453	0.709967
  22	2.1000e-03	16.6279	37.764796	0.000250	2.502245	0.847784	1.976986
  23	2.2000e-03	17.4541	39.872853	0.000267	2.668140	0.903990	2.108057
  24	2.3000e-03	18.2481	41.751536	0.000238	2.377824	0.805629	1.878683
  25	2.4000e-03	19.0615	44.784370	0.000384	3.838620	1.300560	3.032834
  26	2.5000e-03	19.8235	45.363266	0.000073	0.732702	0.248246	0.578896
  27	2.6000e-03	19.6101	46.579313	-0.000154	-1.539134	-0.521473	1.216046
  28	2.7000e-03	18.2899	44.413003	0.000274	2.741871	0.928971	-2.166310
  29	2.8000e-03	17.7412	42.730926	0.000213	2.128982	0.721319	-1.682076
  30	2.9000e-03	16.9423	40.859525	0.000237	2.368608	0.802506	-1.871401
  31	3.0000e-03	16.1450	39.789113	0.000135	1.354807	0.459021	-1.070412
  32	3.1000e-03	15.4006	37.961403	0.000231	2.313310	0.783771	-1.827711
  33	3.2000e-03	14.5825	36.221073	0.000220	2.202713	0.746299	-1.740330
  34	3.3000e-03	13.7739	34.426130	0.000227	2.271836	0.769719	-1.794943
  35	3.4000e-03	12.9734	30.697892	0.000472	4.718783	1.598767	-3.728238
  36	3.5000e-03	12.2307	30.464877	0.000029	0.294924	0.099923	-0.233015
  37	3.6000e-03	11.4334	28.746392	0.000218	2.175064	0.736932	-1.718485
  38	3.7000e-03	10.5671	26.667462	0.000263	2.631275	0.891500	-2.078930
  39	3.8000e-03	9.8131	24.839752	0.000231	2.313310	0.783771	-1.827711
  40	3.9000e-03	9.0334	20.954956	0.000492	4.916935	1.665903	-3.884795
  41	4.0000e-03	8.1992	20.820245	0.000017	0.170503	0.057768	-0.134712
  42	4.1000e-03	7.3843	18.952485	0.000236	2.364000	0.800945	-1.867760
  43	4.2000e-03	6.5774	16.764329	0.000277	2.769520	0.938339	-2.188155
  44	4.3000e-03	5.8218	14.849238	0.000242	2.423906	0.821242	-1.915091
  45	4.4000e-03	5.0325	10.960802	0.000492	4.921544	1.667464	-3.888436
  46	4.5000e-03	4.2239	10.749632	0.000027	0.267275	0.090555	-0.211170
  47	4.6000e-03	3.3930	8.685266	0.000261	2.612842	0.885255	-2.064366
  48	4.7000e-03	2.6069	6.580850	0.000266	2.663532	0.902429	-2.104416
  49	4.8000e-03	1.7759	4.687604	0.000240	2.396257	0.811874	-1.893246
  50	4.9000e-03	1.0026	0.460568	0.000535	5.350105	1.812665	-4.227036
  51	5.0000e-03	0.1797	0.318575	0.000018	0.179719	0.060891	-0.141993
  52	5.1000e-03	-0.5535	-1.694819	0.000255	2.548327	0.863397	-2.013394
  53	5.2000e-03	-1.3812	-3.700932	0.000254	2.539111	0.860274	-2.006113
  54	5.3000e-03	-2.2122	-5.714326	0.000255	2.548327	0.863397	-2.013394
  55	5.4000e-03	-2.9887	-9.792087	0.000516	5.161169	1.748651	-4.077761
  56	5.5000e-03	-3.8101	-9.861263	0.000009	0.087556	0.029665	-0.069176
  57	5.6000e-03	-4.5528	-11.958397	0.000265	2.654316	0.899306	-2.097134
  58	5.7000e-03	-5.4127	-13.924460	0.000249	2.488421	0.843100	-1.966063
  59	5.8000e-03	-6.2308	-15.803143	0.000238	2.377824	0.805629	-1.878683
  60	5.9000e-03	-7.0201	-19.622403	0.000483	4.833988	1.637799	-3.819260
  61	6.0000e-03	-7.8014	-19.808086	0.000024	0.235018	0.079626	-0.185684
  62	6.1000e-03	-8.5987	-21.621233	0.000229	2.294877	0.777525	-1.813147
  63	6.2000e-03	-9.4152	-23.550888	0.000244	2.442339	0.827487	-1.929655
  64	6.3000e-03	-10.2174	-25.287577	0.000220	2.198105	0.744738	-1.736689
  65	6.4000e-03	-11.0243	-28.706343	0.000433	4.327087	1.466057	-3.418765
  66	6.5000e-03	-11.8184	-29.026738	0.000041	0.405520	0.137394	-0.320395
  67	6.6000e-03	-12.5852	-30.821681	0.000227	2.271836	0.769719	-1.794943
  68	6.7000e-03	-13.4210	-32.558370	0.000220	2.198105	0.744738	-1.736689
  69	6.8000e-03	-14.1975	-34.244087	0.000213	2.133591	0.722880	-1.685717
  70	6.9000e-03	-15.0012	-37.291485	0.000386	3.857052	1.306805	-3.047398
  71	7.0000e-03	-15.7905	-37.641007	0.000044	0.442386	0.149884	-0.349522
  72	7.1000e-03	-16.6086	-39.301238	0.000210	2.101333	0.711951	-1.660231
  73	7.2000e-03	-17.4091	-40.925061	0.000206	2.055251	0.696338	-1.623823
  74	7.3000e-03	-18.2225	-42.363200	0.000182	1.820234	0.616712	-1.438139
  75	7.4000e-03	-19.0021	-45.374189	0.000381	3.810971	1.291192	-3.010989
  76	7.5000e-03	-19.8107	-45.745557	0.000047	0.470035	0.159252	-0.371367
  77	7.6000e-03	-19.4626	-46.579313	-0.000106	-1.055275	-0.357537	-0.833756
  78	7.7000e-03	-18.2498	-44.747962	0.000232	2.317918	0.785332	1.831351
  79	7.8000e-03	-17.7749	-42.858356	0.000239	2.391649	0.810313	1.889605
  80	7.9000e-03	-16.8396	-42.122903	0.000093	0.930854	0.315382	0.735453
  81	8.0000e-03	-16.0648	-40.495440	0.000206	2.059860	0.697899	1.627463
  82	8.1000e-03	-15.2883	-38.999047	0.000189	1.893965	0.641693	1.496393
  83	8.2000e-03	-14.5071	-37.302408	0.000215	2.147415	0.727564	1.696640
  84	8.3000e-03	-13.7178	-35.554796	0.000221	2.211930	0.749422	1.747612
  85	8.4000e-03	-12.8900	-33.308387	0.000284	2.843251	0.963320	2.246409
  86	8.5000e-03	-12.1344	-32.663955	0.000082	0.815649	0.276349	0.644432
  87	8.6000e-03	-11.3275	-31.134795	0.000194	1.935438	0.655744	1.529160
  88	8.7000e-03	-10.4933	-29.165091	0.000249	2.493029	0.844661	1.969704
  89	8.8000e-03	-9.7104	-27.155337	0.000254	2.543719	0.861835	2.009753
  90	8.9000e-03	-8.9260	-24.938055	0.000281	2.806386	0.950829	2.217282
  91	9.0000e-03	-8.1254	-24.198961	0.000094	0.935462	0.316943	0.739094
  92	9.1000e-03	-7.3185	-22.309356	0.000239	2.391649	0.810313	1.889605
  93	9.2000e-03	-6.4795	-20.219503	0.000265	2.645099	0.896184	2.089852
  94	9.3000e-03	-5.7287	-18.067756	0.000272	2.723438	0.922726	2.151747
  95	9.4000e-03	-4.9394	-15.872319	0.000278	2.778737	0.941461	2.195437
  96	9.5000e-03	-4.1341	-14.932978	0.000119	1.188912	0.402814	0.939341
  97	9.6000e-03	-3.3448	-13.025168	0.000241	2.414690	0.818119	1.907809
  98	9.7000e-03	-2.5267	-10.767837	0.000286	2.857076	0.968004	2.257332
  99	9.8000e-03	-1.7294	-8.535991	0.000282	2.824819	0.957074	2.231846
 100	9.9000e-03	-0.9481	-5.656072	0.000365	3.645076	1.234985	2.879918
 101	1.0000e-02	-0.1925	-5.128148	0.000365	3.645076	1.234985	0.527924

PMax (uC/cm2):	4.81e+01
Pr (uC/cm2):	2.53e+00
-Pr (uC/cm2):	-2.42e+00
PLoss (uC/cm2):	-2.40e+00
-Vc:	-9.71e-01
C (Max-Eff) (nF):	2.42e-01
K (Eff):	8.22e+02
Vert. (+/-Pr) Shift (uC/cm2):	5.55e-02
Offset (uC/cm2):	2.71e+00

A (Loop Area - uC/cm2·Volts):	4.37e-01



Hysteresis Version: 5.48.1 - Radiant Technologies, Inc., 1999 - 9/12/24

