»»»»»»»»»»»»»»»»»»»»»»»»»»»»»»»»»»»» Hysteresis ««««««««««««««««««««««««««««««««««««
»»»  Executed Version:	5.48.1
»»»  Vision Version:	5.48.4 (R)
»»»  Vision Compiled:	9/18/24
»»»  Driver Version:	5.47.0
»»»  Windows Version:	Windows 8 or 8.1
»»»  Processor Information:	x86 (AMD or Intel) - 32 Processors
»»»  Tester Name:	PMF21124-494 (100V)
»»»  Tester S/N:	PMF21124-494
»»»  Internal Amp Type:	100V RevK 270k
»»»  Internal Amp S/N:	iAB2-596/K     
»»»  Execution Count:	1
»»»»»»»»»»»»»»»»»»»»»»»»»»»»»»»»»»»»»»»»»»««««««««««««««««««««««««««««««««««««««««««

Stored:	6/17/2025 - 15:44:10
Configured:	06/17/25 10:39:14 AM
Executed:	06/17/25 03:43:36 PM

»»»»»»»»»»»»»»»»»»»»»»»»»»»»»»»»»»» Sample Info ««««««««««««««««««««««««««««««««««««
Sample Name:	
Lot Name:	
Wafer Name:	
Die Row/Column:	0/0
Capacitor Number:	0
Sample Area (cm2):	1.00e-04
Sample Thickness (microns):	3.00e-01

Amplifier:	Internal

»»»»»»»»»»»»»»»»»»»»»»»»»»»»»»»»»»» Tester Info «««««««««««««««««««««««««««««««««««
Tester Name:	PMF21124-494 (100V)
Tester Serial Number:	PMF21124-494
Return Signal Amp. Level:	0.19 [Index: 3]

»»»»»»»»»»»»»»»»»»»»»»»»»»»»»»»» Hysteresis Info ««««««««««««««««««««««««««««««««««
Task Name:	Hyst-180
Volts:	20.00
Field:	666.67 (kV/cm)
DCBias:	0.00
DCField:	0.00 (kV/cm)
Hysteresis Period (ms):	2.00e+02
Preset:	Enabled
Preset Delay (ms):	1.00e+03
Profile:	Standard Bipolar

»»»»»»»»»»»»»»»»»»»»»»»»»»»»»»»»»»»»»» Data «««««««««««««««««««««««««««««««««««««««
Points:	2009

Valid Data

Point	Time (ms)	Drive Voltage	Measured Polarization (uC/cm2)	Capacitance (uF)	Normalized Capacitance (uF/cm2)	Dielectric Constant	Instantaneous Current (mA)
   1	0.0000e+00	0.0000	-2.601934	0.000152	1.520350	0.515108	0.000061
   2	9.9500e-02	0.0321	-2.541377	0.000152	1.520350	0.515108	0.000061
   3	1.9900e-01	0.0770	-2.440449	0.000253	2.533916	0.858514	0.000101
   4	2.9850e-01	0.1155	-2.347594	0.000233	2.331203	0.789833	0.000093
   5	3.9800e-01	0.1444	-2.234555	0.000284	2.837986	0.961536	0.000114
   6	4.9750e-01	0.1925	-2.141701	0.000233	2.331203	0.789833	0.000093
   7	5.9700e-01	0.2310	-1.996364	0.000365	3.648839	1.236260	0.000146
   8	6.9650e-01	0.2727	-1.903510	0.000233	2.331203	0.789833	0.000093
   9	7.9600e-01	0.3192	-1.798544	0.000264	2.635273	0.892855	0.000105
  10	8.9550e-01	0.3545	-1.713764	0.000213	2.128490	0.721152	0.000085
  11	9.9500e-01	0.3930	-1.616873	0.000243	2.432560	0.824173	0.000097
  12	1.0945e+00	0.4219	-1.487685	0.000324	3.243413	1.098898	0.000130
  13	1.1940e+00	0.4732	-1.398868	0.000223	2.229846	0.755492	0.000089
  14	1.2935e+00	0.5198	-1.245456	0.000385	3.851553	1.304941	0.000154
  15	1.3930e+00	0.5519	-1.160677	0.000213	2.128490	0.721152	0.000085
  16	1.4925e+00	0.5839	-1.108194	0.000132	1.317636	0.446427	0.000053
  17	1.5920e+00	0.6369	-0.979005	0.000324	3.243413	1.098898	0.000130
  18	1.6915e+00	0.6722	-0.861928	0.000294	2.939343	0.995876	0.000118
  19	1.7910e+00	0.7107	-0.773111	0.000223	2.229846	0.755492	0.000089
  20	1.8905e+00	0.7524	-0.623737	0.000375	3.750196	1.270601	0.000150
  21	1.9900e+00	0.7877	-0.526846	0.000243	2.432560	0.824173	0.000097
  22	2.0895e+00	0.8390	-0.478401	0.000122	1.216280	0.412087	0.000049
  23	2.1890e+00	0.8727	-0.341138	0.000345	3.446126	1.167579	0.000138
  24	2.2885e+00	0.9080	-0.264432	0.000193	1.925776	0.652471	0.000077
  25	2.3880e+00	0.9481	-0.111021	0.000385	3.851553	1.304941	0.000154
  26	2.4875e+00	0.9962	0.002019	0.000284	2.837986	0.961536	0.000114
  27	2.5870e+00	1.0267	0.123133	0.000304	3.040699	1.030217	0.000122
  28	2.6865e+00	1.0668	0.220024	0.000243	2.432560	0.824173	0.000097
  29	2.7860e+00	1.0989	0.329027	0.000274	2.736630	0.927195	0.000110
  30	2.8855e+00	1.1502	0.409769	0.000203	2.027133	0.686811	0.000081
  31	2.9850e+00	1.1855	0.518772	0.000274	2.736630	0.927195	0.000110
  32	3.0845e+00	1.2240	0.615663	0.000243	2.432560	0.824173	0.000097
  33	3.1840e+00	1.2802	0.736777	0.000304	3.040699	1.030217	0.000122
  34	3.2835e+00	1.3107	0.825594	0.000223	2.229846	0.755492	0.000089
  35	3.3830e+00	1.3476	0.918448	0.000233	2.331203	0.789833	0.000093
  36	3.4825e+00	1.3861	0.995154	0.000193	1.925776	0.652471	0.000077
  37	3.5820e+00	1.4358	1.160677	0.000416	4.155623	1.407963	0.000166
  38	3.6815e+00	1.4711	1.233345	0.000182	1.824420	0.618130	0.000073
  39	3.7810e+00	1.5016	1.370608	0.000345	3.446126	1.167579	0.000138
  40	3.8805e+00	1.5385	1.439239	0.000172	1.723063	0.583790	0.000069
  41	3.9800e+00	1.5882	1.556316	0.000294	2.939343	0.995876	0.000118
  42	4.0795e+00	1.6235	1.633021	0.000193	1.925776	0.652471	0.000077
  43	4.1790e+00	1.6716	1.766247	0.000334	3.344769	1.133239	0.000134
  44	4.2785e+00	1.7005	1.851027	0.000213	2.128490	0.721152	0.000085
  45	4.3780e+00	1.7454	1.947918	0.000243	2.432560	0.824173	0.000097
  46	4.4775e+00	1.7903	2.097292	0.000375	3.750196	1.270601	0.000150
  47	4.5770e+00	1.8336	2.173998	0.000193	1.925776	0.652471	0.000077
  48	4.6765e+00	1.8625	2.303186	0.000324	3.243413	1.098898	0.000130
  49	4.7760e+00	1.9106	2.371817	0.000172	1.723063	0.583790	0.000069
  50	4.8755e+00	1.9395	2.472746	0.000253	2.533916	0.858514	0.000101
  51	4.9750e+00	1.9860	2.601934	0.000324	3.243413	1.098898	0.000130
  52	5.0745e+00	2.0310	2.698825	0.000243	2.432560	0.824173	0.000097
  53	5.1740e+00	2.0646	2.819939	0.000304	3.040699	1.030217	0.000122
  54	5.2735e+00	2.1080	2.932979	0.000284	2.837986	0.961536	0.000114
  55	5.3730e+00	2.1481	3.029870	0.000243	2.432560	0.824173	0.000097
  56	5.4725e+00	2.1802	3.118687	0.000223	2.229846	0.755492	0.000089
  57	5.5720e+00	2.2251	3.211541	0.000233	2.331203	0.789833	0.000093
  58	5.6715e+00	2.2620	3.344767	0.000334	3.344769	1.133239	0.000134
  59	5.7710e+00	2.3069	3.429547	0.000213	2.128490	0.721152	0.000085
  60	5.8705e+00	2.3422	3.530475	0.000253	2.533916	0.858514	0.000101
  61	5.9700e+00	2.3775	3.671775	0.000355	3.547483	1.201920	0.000142
  62	6.0695e+00	2.4240	3.752518	0.000203	2.027133	0.686811	0.000081
  63	6.1690e+00	2.4641	3.877669	0.000314	3.142056	1.064557	0.000126
  64	6.2685e+00	2.5074	3.970523	0.000233	2.331203	0.789833	0.000093
  65	6.3680e+00	2.5491	4.051266	0.000203	2.027133	0.686811	0.000081
  66	6.4675e+00	2.5908	4.176417	0.000314	3.142056	1.064557	0.000126
  67	6.5670e+00	2.6229	4.301568	0.000314	3.142056	1.064557	0.000126
  68	6.6665e+00	2.6694	4.402497	0.000253	2.533916	0.858514	0.000101
  69	6.7660e+00	2.7047	4.539759	0.000345	3.446126	1.167579	0.000138
  70	6.8655e+00	2.7464	4.604353	0.000162	1.621706	0.549449	0.000065
  71	6.9650e+00	2.7866	4.701245	0.000243	2.432560	0.824173	0.000097
  72	7.0645e+00	2.8299	4.834470	0.000334	3.344769	1.133239	0.000134
  73	7.1640e+00	2.8571	4.943473	0.000274	2.736630	0.927195	0.000110
  74	7.2635e+00	2.9101	5.044401	0.000253	2.533916	0.858514	0.000101
  75	7.3630e+00	2.9438	5.153404	0.000274	2.736630	0.927195	0.000110
  76	7.4625e+00	2.9855	5.250295	0.000243	2.432560	0.824173	0.000097
  77	7.5620e+00	3.0224	5.367372	0.000294	2.939343	0.995876	0.000118
  78	7.6615e+00	3.0657	5.464263	0.000243	2.432560	0.824173	0.000097
  79	7.7610e+00	3.1026	5.565192	0.000253	2.533916	0.858514	0.000101
  80	7.8605e+00	3.1427	5.694380	0.000324	3.243413	1.098898	0.000130
  81	7.9600e+00	3.1828	5.811457	0.000294	2.939343	0.995876	0.000118
  82	8.0595e+00	3.2277	5.912385	0.000253	2.533916	0.858514	0.000101
  83	8.1590e+00	3.2630	6.017351	0.000264	2.635273	0.892855	0.000105
  84	8.2585e+00	3.3031	6.122316	0.000264	2.635273	0.892855	0.000105
  85	8.3580e+00	3.3352	6.223245	0.000253	2.533916	0.858514	0.000101
  86	8.4575e+00	3.3913	6.336285	0.000284	2.837986	0.961536	0.000114
  87	8.5570e+00	3.4315	6.453361	0.000294	2.939343	0.995876	0.000118
  88	8.6565e+00	3.4555	6.590624	0.000345	3.446126	1.167579	0.000138
  89	8.7560e+00	3.4988	6.687515	0.000243	2.432560	0.824173	0.000097
  90	8.8555e+00	3.5373	6.768258	0.000203	2.027133	0.686811	0.000081
  91	8.9550e+00	3.5742	6.873224	0.000264	2.635273	0.892855	0.000105
  92	9.0545e+00	3.6143	6.974152	0.000253	2.533916	0.858514	0.000101
  93	9.1540e+00	3.6625	7.083155	0.000274	2.736630	0.927195	0.000110
  94	9.2535e+00	3.6994	7.180046	0.000243	2.432560	0.824173	0.000097
  95	9.3530e+00	3.7427	7.321346	0.000355	3.547483	1.201920	0.000142
  96	9.4525e+00	3.7796	7.389977	0.000172	1.723063	0.583790	0.000069
  97	9.5520e+00	3.8165	7.515128	0.000314	3.142056	1.064557	0.000126
  98	9.6515e+00	3.8630	7.640279	0.000314	3.142056	1.064557	0.000126
  99	9.7510e+00	3.8999	7.725059	0.000213	2.128490	0.721152	0.000085
 100	9.8505e+00	3.9432	7.793691	0.000172	1.723063	0.583790	0.000069
 101	9.9500e+00	3.9865	7.943065	0.000375	3.750196	1.270601	0.000150
 102	1.0050e+01	4.0154	7.987473	0.000111	1.114923	0.377746	0.000045
 103	1.0149e+01	4.0619	8.193367	0.000517	5.169189	1.751369	0.000207
 104	1.0248e+01	4.1052	8.266035	0.000182	1.824420	0.618130	0.000073
 105	1.0348e+01	4.1405	8.391187	0.000314	3.142056	1.064557	0.000126
 106	1.0447e+01	4.1758	8.480004	0.000223	2.229846	0.755492	0.000089
 107	1.0547e+01	4.2175	8.580932	0.000253	2.533916	0.858514	0.000101
 108	1.0646e+01	4.2608	8.698009	0.000294	2.939343	0.995876	0.000118
 109	1.0746e+01	4.2993	8.770677	0.000182	1.824420	0.618130	0.000073
 110	1.0845e+01	4.3443	8.863532	0.000233	2.331203	0.789833	0.000093
 111	1.0945e+01	4.3715	9.016943	0.000385	3.851553	1.304941	0.000154
 112	1.1044e+01	4.4148	9.129982	0.000284	2.837986	0.961536	0.000114
 113	1.1144e+01	4.4566	9.238985	0.000274	2.736630	0.927195	0.000110
 114	1.1243e+01	4.4935	9.360099	0.000304	3.040699	1.030217	0.000122
 115	1.1343e+01	4.5416	9.432768	0.000182	1.824420	0.618130	0.000073
 116	1.1443e+01	4.5721	9.557919	0.000314	3.142056	1.064557	0.000126
 117	1.1542e+01	4.6122	9.658847	0.000253	2.533916	0.858514	0.000101
 118	1.1642e+01	4.6603	9.743627	0.000213	2.128490	0.721152	0.000085
 119	1.1741e+01	4.6924	9.905113	0.000405	4.054266	1.373622	0.000162
 120	1.1841e+01	4.7389	10.014115	0.000274	2.736630	0.927195	0.000110
 121	1.1940e+01	4.7630	10.094858	0.000203	2.027133	0.686811	0.000081
 122	1.2040e+01	4.8143	10.215972	0.000304	3.040699	1.030217	0.000122
 123	1.2139e+01	4.8512	10.296715	0.000203	2.027133	0.686811	0.000081
 124	1.2239e+01	4.9025	10.433977	0.000345	3.446126	1.167579	0.000138
 125	1.2338e+01	4.9410	10.510683	0.000193	1.925776	0.652471	0.000077
 126	1.2438e+01	4.9747	10.660057	0.000375	3.750196	1.270601	0.000150
 127	1.2537e+01	5.0164	10.756948	0.000243	2.432560	0.824173	0.000097
 128	1.2636e+01	5.0646	10.894211	0.000345	3.446126	1.167579	0.000138
 129	1.2736e+01	5.0870	10.974954	0.000203	2.027133	0.686811	0.000081
 130	1.2835e+01	5.1319	11.120290	0.000365	3.648839	1.236260	0.000146
 131	1.2935e+01	5.1720	11.180847	0.000152	1.520350	0.515108	0.000061
 132	1.3034e+01	5.2138	11.342333	0.000405	4.054266	1.373622	0.000162
 133	1.3134e+01	5.2458	11.435187	0.000233	2.331203	0.789833	0.000093
 134	1.3233e+01	5.2956	11.552264	0.000294	2.939343	0.995876	0.000118
 135	1.3333e+01	5.3421	11.657229	0.000264	2.635273	0.892855	0.000105
 136	1.3432e+01	5.3742	11.838901	0.000456	4.561049	1.545325	0.000183
 137	1.3532e+01	5.4095	11.903495	0.000162	1.621706	0.549449	0.000065
 138	1.3632e+01	5.4560	11.943866	0.000101	1.013566	0.343406	0.000041
 139	1.3731e+01	5.4961	12.105352	0.000405	4.054266	1.373622	0.000162
 140	1.3831e+01	5.5298	12.210317	0.000264	2.635273	0.892855	0.000105
 141	1.3930e+01	5.5731	12.315283	0.000264	2.635273	0.892855	0.000105
 142	1.4030e+01	5.6084	12.436397	0.000304	3.040699	1.030217	0.000122
 143	1.4129e+01	5.6533	12.476768	0.000101	1.013566	0.343406	0.000041
 144	1.4229e+01	5.6934	12.634216	0.000395	3.952909	1.339282	0.000158
 145	1.4328e+01	5.7255	12.751293	0.000294	2.939343	0.995876	0.000118
 146	1.4428e+01	5.7608	12.832036	0.000203	2.027133	0.686811	0.000081
 147	1.4527e+01	5.8121	12.969299	0.000345	3.446126	1.167579	0.000138
 148	1.4627e+01	5.8522	13.106561	0.000345	3.446126	1.167579	0.000138
 149	1.4726e+01	5.8940	13.215564	0.000274	2.736630	0.927195	0.000110
 150	1.4825e+01	5.9405	13.284195	0.000172	1.723063	0.583790	0.000069
 151	1.4925e+01	5.9694	13.393198	0.000274	2.736630	0.927195	0.000110
 152	1.5024e+01	6.0143	13.518349	0.000314	3.142056	1.064557	0.000126
 153	1.5124e+01	6.0560	13.619277	0.000253	2.533916	0.858514	0.000101
 154	1.5223e+01	6.0881	13.768651	0.000375	3.750196	1.270601	0.000150
 155	1.5323e+01	6.1378	13.829208	0.000152	1.520350	0.515108	0.000061
 156	1.5422e+01	6.1747	13.962434	0.000334	3.344769	1.133239	0.000134
 157	1.5522e+01	6.2244	14.055288	0.000233	2.331203	0.789833	0.000093
 158	1.5621e+01	6.2485	14.180439	0.000314	3.142056	1.064557	0.000126
 159	1.5721e+01	6.2966	14.289442	0.000274	2.736630	0.927195	0.000110
 160	1.5820e+01	6.3239	14.406519	0.000294	2.939343	0.995876	0.000118
 161	1.5920e+01	6.3608	14.479187	0.000182	1.824420	0.618130	0.000073
 162	1.6020e+01	6.4009	14.596264	0.000294	2.939343	0.995876	0.000118
 163	1.6119e+01	6.4298	14.693156	0.000243	2.432560	0.824173	0.000097
 164	1.6218e+01	6.4811	14.773898	0.000203	2.027133	0.686811	0.000081
 165	1.6318e+01	6.5228	14.939421	0.000416	4.155623	1.407963	0.000166
 166	1.6418e+01	6.5741	15.024201	0.000213	2.128490	0.721152	0.000085
 167	1.6517e+01	6.6030	15.117055	0.000233	2.331203	0.789833	0.000093
 168	1.6616e+01	6.6511	15.217983	0.000253	2.533916	0.858514	0.000101
 169	1.6716e+01	6.6816	15.339097	0.000304	3.040699	1.030217	0.000122
 170	1.6816e+01	6.7314	15.440026	0.000253	2.533916	0.858514	0.000101
 171	1.6915e+01	6.7634	15.573251	0.000334	3.344769	1.133239	0.000134
 172	1.7015e+01	6.8068	15.653994	0.000203	2.027133	0.686811	0.000081
 173	1.7114e+01	6.8469	15.771071	0.000294	2.939343	0.995876	0.000118
 174	1.7213e+01	6.8806	15.908333	0.000345	3.446126	1.167579	0.000138
 175	1.7313e+01	6.9239	15.976965	0.000172	1.723063	0.583790	0.000069
 176	1.7413e+01	6.9608	16.138450	0.000405	4.054266	1.373622	0.000162
 177	1.7512e+01	7.0121	16.235341	0.000243	2.432560	0.824173	0.000097
 178	1.7611e+01	7.0490	16.376641	0.000355	3.547483	1.201920	0.000142
 179	1.7711e+01	7.0859	16.437198	0.000152	1.520350	0.515108	0.000061
 180	1.7811e+01	7.1228	16.562349	0.000314	3.142056	1.064557	0.000126
 181	1.7910e+01	7.1677	16.622906	0.000152	1.520350	0.515108	0.000061
 182	1.8009e+01	7.2110	16.760169	0.000345	3.446126	1.167579	0.000138
 183	1.8109e+01	7.2479	16.873209	0.000284	2.837986	0.961536	0.000114
 184	1.8209e+01	7.2832	16.986249	0.000284	2.837986	0.961536	0.000114
 185	1.8308e+01	7.3217	17.099288	0.000284	2.837986	0.961536	0.000114
 186	1.8407e+01	7.3618	17.192143	0.000233	2.331203	0.789833	0.000093
 187	1.8507e+01	7.3971	17.329405	0.000345	3.446126	1.167579	0.000138
 188	1.8607e+01	7.4420	17.446482	0.000294	2.939343	0.995876	0.000118
 189	1.8706e+01	7.4870	17.531262	0.000213	2.128490	0.721152	0.000085
 190	1.8805e+01	7.5287	17.652376	0.000304	3.040699	1.030217	0.000122
 191	1.8905e+01	7.5704	17.749267	0.000243	2.432560	0.824173	0.000097
 192	1.9005e+01	7.6057	17.842121	0.000233	2.331203	0.789833	0.000093
 193	1.9104e+01	7.6313	17.963235	0.000304	3.040699	1.030217	0.000122
 194	1.9203e+01	7.6811	18.064164	0.000253	2.533916	0.858514	0.000101
 195	1.9303e+01	7.7180	18.169129	0.000264	2.635273	0.892855	0.000105
 196	1.9402e+01	7.7629	18.270058	0.000253	2.533916	0.858514	0.000101
 197	1.9502e+01	7.8030	18.383098	0.000284	2.837986	0.961536	0.000114
 198	1.9602e+01	7.8431	18.516323	0.000334	3.344769	1.133239	0.000134
 199	1.9701e+01	7.8832	18.588992	0.000182	1.824420	0.618130	0.000073
 200	1.9800e+01	7.9185	18.730291	0.000355	3.547483	1.201920	0.000142
 201	1.9900e+01	7.9506	18.819108	0.000223	2.229846	0.755492	0.000089
 202	2.0000e+01	7.9971	18.916000	0.000243	2.432560	0.824173	0.000097
 203	2.0099e+01	8.0324	19.037114	0.000304	3.040699	1.030217	0.000122
 204	2.0198e+01	8.0869	19.121893	0.000213	2.128490	0.721152	0.000085
 205	2.0298e+01	8.1158	19.234933	0.000284	2.837986	0.961536	0.000114
 206	2.0398e+01	8.1543	19.347973	0.000284	2.837986	0.961536	0.000114
 207	2.0497e+01	8.2040	19.481199	0.000334	3.344769	1.133239	0.000134
 208	2.0596e+01	8.2442	19.557904	0.000193	1.925776	0.652471	0.000077
 209	2.0696e+01	8.2794	19.654795	0.000243	2.432560	0.824173	0.000097
 210	2.0796e+01	8.3212	19.759761	0.000264	2.635273	0.892855	0.000105
 211	2.0895e+01	8.3581	19.876838	0.000294	2.939343	0.995876	0.000118
 212	2.0994e+01	8.3917	19.993915	0.000294	2.939343	0.995876	0.000118
 213	2.1094e+01	8.4431	20.050435	0.000142	1.418993	0.480768	0.000057
 214	2.1194e+01	8.4784	20.167512	0.000294	2.939343	0.995876	0.000118
 215	2.1293e+01	8.5249	20.280551	0.000284	2.837986	0.961536	0.000114
 216	2.1392e+01	8.5650	20.401665	0.000304	3.040699	1.030217	0.000122
 217	2.1492e+01	8.6003	20.498557	0.000243	2.432560	0.824173	0.000097
 218	2.1591e+01	8.6484	20.615634	0.000294	2.939343	0.995876	0.000118
 219	2.1691e+01	8.6757	20.708488	0.000233	2.331203	0.789833	0.000093
 220	2.1791e+01	8.7302	20.813453	0.000264	2.635273	0.892855	0.000105
 221	2.1890e+01	8.7623	20.914382	0.000253	2.533916	0.858514	0.000101
 222	2.1989e+01	8.8072	21.039533	0.000314	3.142056	1.064557	0.000126
 223	2.2089e+01	8.8457	21.144498	0.000264	2.635273	0.892855	0.000105
 224	2.2189e+01	8.8810	21.221204	0.000193	1.925776	0.652471	0.000077
 225	2.2288e+01	8.9163	21.358467	0.000345	3.446126	1.167579	0.000138
 226	2.2387e+01	8.9661	21.443246	0.000213	2.128490	0.721152	0.000085
 227	2.2487e+01	8.9901	21.552249	0.000274	2.736630	0.927195	0.000110
 228	2.2587e+01	9.0318	21.653178	0.000253	2.533916	0.858514	0.000101
 229	2.2686e+01	9.0816	21.750069	0.000243	2.432560	0.824173	0.000097
 230	2.2785e+01	9.1169	21.846960	0.000243	2.432560	0.824173	0.000097
 231	2.2885e+01	9.1521	21.980186	0.000334	3.344769	1.133239	0.000134
 232	2.2985e+01	9.1987	22.089188	0.000274	2.736630	0.927195	0.000110
 233	2.3084e+01	9.2372	22.186079	0.000243	2.432560	0.824173	0.000097
 234	2.3183e+01	9.2741	22.238562	0.000132	1.317636	0.446427	0.000053
 235	2.3283e+01	9.3174	22.396011	0.000395	3.952909	1.339282	0.000158
 236	2.3383e+01	9.3463	22.505013	0.000274	2.736630	0.927195	0.000110
 237	2.3482e+01	9.3944	22.577682	0.000182	1.824420	0.618130	0.000073
 238	2.3581e+01	9.4393	22.694759	0.000294	2.939343	0.995876	0.000118
 239	2.3681e+01	9.4810	22.799724	0.000264	2.635273	0.892855	0.000105
 240	2.3780e+01	9.5227	22.936987	0.000345	3.446126	1.167579	0.000138
 241	2.3880e+01	9.5548	23.025804	0.000223	2.229846	0.755492	0.000089
 242	2.3980e+01	9.5997	23.114621	0.000223	2.229846	0.755492	0.000089
 243	2.4079e+01	9.6302	23.203438	0.000223	2.229846	0.755492	0.000089
 244	2.4178e+01	9.6767	23.356849	0.000385	3.851553	1.304941	0.000154
 245	2.4278e+01	9.7104	23.469889	0.000284	2.837986	0.961536	0.000114
 246	2.4378e+01	9.7521	23.566780	0.000243	2.432560	0.824173	0.000097
 247	2.4477e+01	9.8019	23.667708	0.000253	2.533916	0.858514	0.000101
 248	2.4576e+01	9.8388	23.780748	0.000284	2.837986	0.961536	0.000114
 249	2.4676e+01	9.8773	23.857454	0.000193	1.925776	0.652471	0.000077
 250	2.4776e+01	9.9142	24.002791	0.000365	3.648839	1.236260	0.000146
 251	2.4875e+01	9.9478	24.071422	0.000172	1.723063	0.583790	0.000069
 252	2.4974e+01	9.9976	24.160239	0.000223	2.229846	0.755492	0.000089
 253	2.5074e+01	10.0232	24.265204	0.000264	2.635273	0.892855	0.000105
 254	2.5174e+01	10.0682	24.370170	0.000264	2.635273	0.892855	0.000105
 255	2.5273e+01	10.1131	24.519544	0.000375	3.750196	1.270601	0.000150
 256	2.5372e+01	10.1564	24.608361	0.000223	2.229846	0.755492	0.000089
 257	2.5472e+01	10.1933	24.701215	0.000233	2.331203	0.789833	0.000093
 258	2.5572e+01	10.2286	24.790032	0.000223	2.229846	0.755492	0.000089
 259	2.5671e+01	10.2703	24.915183	0.000314	3.142056	1.064557	0.000126
 260	2.5770e+01	10.3152	25.040334	0.000314	3.142056	1.064557	0.000126
 261	2.5870e+01	10.3505	25.104929	0.000162	1.621706	0.549449	0.000065
 262	2.5970e+01	10.3938	25.209894	0.000264	2.635273	0.892855	0.000105
