»»»»»»»»»»»»»»»»»»»»»»»»»»»»»»»»»»»» Hysteresis ««««««««««««««««««««««««««««««««««««
»»»  Executed Version:	5.48.1
»»»  Vision Version:	5.48.4 (R)
»»»  Vision Compiled:	9/18/24
»»»  Driver Version:	5.47.0
»»»  Windows Version:	Windows 8 or 8.1
»»»  Processor Information:	x86 (AMD or Intel) - 32 Processors
»»»  Tester Name:	PMF21124-494 (100V)
»»»  Tester S/N:	PMF21124-494
»»»  Internal Amp Type:	100V RevK 270k
»»»  Internal Amp S/N:	iAB2-596/K     
»»»  Execution Count:	1
»»»»»»»»»»»»»»»»»»»»»»»»»»»»»»»»»»»»»»»»»»««««««««««««««««««««««««««««««««««««««««««

Stored:	6/18/2025 - 18:50:58
Configured:	06/18/25 09:47:30 AM
Executed:	06/18/25 06:50:26 PM

»»»»»»»»»»»»»»»»»»»»»»»»»»»»»»»»»»» Sample Info ««««««««««««««««««««««««««««««««««««
Sample Name:	
Lot Name:	
Wafer Name:	
Die Row/Column:	0/0
Capacitor Number:	0
Sample Area (cm2):	1.00e-04
Sample Thickness (microns):	3.00e-01

Amplifier:	Internal

»»»»»»»»»»»»»»»»»»»»»»»»»»»»»»»»»»» Tester Info «««««««««««««««««««««««««««««««««««
Tester Name:	PMF21124-494 (100V)
Tester Serial Number:	PMF21124-494
Return Signal Amp. Level:	0.19 [Index: 3]

»»»»»»»»»»»»»»»»»»»»»»»»»»»»»»»» Hysteresis Info ««««««««««««««««««««««««««««««««««
Task Name:	Hyst-554
Volts:	20.00
Field:	666.67 (kV/cm)
DCBias:	0.00
DCField:	0.00 (kV/cm)
Hysteresis Period (ms):	2.00e+02
Preset:	Enabled
Preset Delay (ms):	1.00e+03
Profile:	Standard Bipolar

»»»»»»»»»»»»»»»»»»»»»»»»»»»»»»»»»»»»»» Data «««««««««««««««««««««««««««««««««««««««
Points:	2009

Valid Data

Point	Time (ms)	Drive Voltage	Measured Polarization (uC/cm2)	Capacitance (uF)	Normalized Capacitance (uF/cm2)	Dielectric Constant	Instantaneous Current (mA)
   1	0.0000e+00	0.0080	-2.248685	0.000253	2.534831	0.858824	0.000101
   2	9.9500e-02	0.0417	-2.147756	0.000253	2.534831	0.858824	0.000101
   3	1.9900e-01	0.0802	-2.034716	0.000284	2.839011	0.961883	0.000114
   4	2.9850e-01	0.1251	-2.006456	0.000071	0.709753	0.240471	0.000028
   5	3.9800e-01	0.1588	-1.877268	0.000324	3.244584	1.099295	0.000130
   6	4.9750e-01	0.1941	-1.723857	0.000385	3.852944	1.305413	0.000154
   7	5.9700e-01	0.2326	-1.614854	0.000274	2.737618	0.927530	0.000110
   8	6.9650e-01	0.2679	-1.489703	0.000314	3.143191	1.064942	0.000126
   9	7.9600e-01	0.3144	-1.412998	0.000193	1.926472	0.652706	0.000077
  10	8.9550e-01	0.3561	-1.308032	0.000264	2.636225	0.893177	0.000105
  11	9.9500e-01	0.3946	-1.199029	0.000274	2.737618	0.927530	0.000110
  12	1.0945e+00	0.4283	-1.158658	0.000101	1.013933	0.343530	0.000041
  13	1.1940e+00	0.4781	-1.033507	0.000314	3.143191	1.064942	0.000126
  14	1.2935e+00	0.5182	-0.920467	0.000284	2.839011	0.961883	0.000114
  15	1.3930e+00	0.5551	-0.847799	0.000183	1.825079	0.618353	0.000073
  16	1.4925e+00	0.5936	-0.799353	0.000122	1.216719	0.412236	0.000049
  17	1.5920e+00	0.6369	-0.666127	0.000335	3.345977	1.133648	0.000134
  18	1.6915e+00	0.6802	-0.593459	0.000183	1.825079	0.618353	0.000073
  19	1.7910e+00	0.7155	-0.492531	0.000253	2.534831	0.858824	0.000101
  20	1.8905e+00	0.7620	-0.391602	0.000253	2.534831	0.858824	0.000101
  21	1.9900e+00	0.7877	-0.266451	0.000314	3.143191	1.064942	0.000126
  22	2.0895e+00	0.8294	-0.157448	0.000274	2.737618	0.927530	0.000110
  23	2.1890e+00	0.8743	-0.036334	0.000304	3.041798	1.030589	0.000122
  24	2.2885e+00	0.9112	0.092854	0.000324	3.244584	1.099295	0.000130
  25	2.3880e+00	0.9497	0.213968	0.000304	3.041798	1.030589	0.000122
  26	2.4875e+00	0.9882	0.298748	0.000213	2.129258	0.721412	0.000085
  27	2.5870e+00	1.0395	0.419862	0.000304	3.041798	1.030589	0.000122
  28	2.6865e+00	1.0716	0.540976	0.000304	3.041798	1.030589	0.000122
  29	2.7860e+00	1.1101	0.605570	0.000162	1.622292	0.549647	0.000065
  30	2.8855e+00	1.1567	0.714573	0.000274	2.737618	0.927530	0.000110
  31	2.9850e+00	1.1903	0.807427	0.000233	2.332045	0.790118	0.000093
  32	3.0845e+00	1.2321	0.916430	0.000274	2.737618	0.927530	0.000110
  33	3.1840e+00	1.2770	1.001210	0.000213	2.129258	0.721412	0.000085
  34	3.2835e+00	1.3074	1.037544	0.000091	0.912539	0.309177	0.000037
  35	3.3830e+00	1.3604	1.166732	0.000324	3.244584	1.099295	0.000130
  36	3.4825e+00	1.3989	1.263623	0.000243	2.433438	0.824471	0.000097
  37	3.5820e+00	1.4262	1.332255	0.000172	1.723685	0.584000	0.000069
  38	3.6815e+00	1.4823	1.485666	0.000385	3.852944	1.305413	0.000154
  39	3.7810e+00	1.5112	1.586594	0.000253	2.534831	0.858824	0.000101
  40	3.8805e+00	1.5433	1.667337	0.000203	2.027865	0.687059	0.000081
  41	3.9800e+00	1.5850	1.784414	0.000294	2.940404	0.996236	0.000118
  42	4.0795e+00	1.6363	1.921677	0.000345	3.447371	1.168001	0.000138
  43	4.1790e+00	1.6748	2.083162	0.000406	4.055730	1.374119	0.000162
  44	4.2785e+00	1.7021	2.163905	0.000203	2.027865	0.687059	0.000081
  45	4.3780e+00	1.7470	2.264833	0.000253	2.534831	0.858824	0.000101
  46	4.4775e+00	1.7919	2.394021	0.000324	3.244584	1.099295	0.000130
  47	4.5770e+00	1.8272	2.466690	0.000183	1.825079	0.618353	0.000073
  48	4.6765e+00	1.8689	2.571655	0.000264	2.636225	0.893177	0.000105
  49	4.7760e+00	1.9042	2.676621	0.000264	2.636225	0.893177	0.000105
  50	4.8755e+00	1.9427	2.745252	0.000172	1.723685	0.584000	0.000069
  51	4.9750e+00	1.9812	2.878478	0.000335	3.345977	1.133648	0.000134
  52	5.0745e+00	2.0310	2.918849	0.000101	1.013933	0.343530	0.000041
  53	5.1740e+00	2.0711	3.044000	0.000314	3.143191	1.064942	0.000126
  54	5.2735e+00	2.1080	3.124743	0.000203	2.027865	0.687059	0.000081
  55	5.3730e+00	2.1449	3.209523	0.000213	2.129258	0.721412	0.000085
  56	5.4725e+00	2.1866	3.334674	0.000314	3.143191	1.064942	0.000126
  57	5.5720e+00	2.2283	3.459825	0.000314	3.143191	1.064942	0.000126
  58	5.6715e+00	2.2700	3.584977	0.000314	3.143191	1.064942	0.000126
  59	5.7710e+00	2.3101	3.677831	0.000233	2.332045	0.790118	0.000093
  60	5.8705e+00	2.3486	3.802982	0.000314	3.143191	1.064942	0.000126
  61	5.9700e+00	2.3871	3.899873	0.000243	2.433438	0.824471	0.000097
  62	6.0695e+00	2.4224	4.000802	0.000253	2.534831	0.858824	0.000101
  63	6.1690e+00	2.4657	4.113841	0.000284	2.839011	0.961883	0.000114
  64	6.2685e+00	2.5154	4.214770	0.000253	2.534831	0.858824	0.000101
  65	6.3680e+00	2.5523	4.319735	0.000264	2.636225	0.893177	0.000105
  66	6.4675e+00	2.5844	4.412589	0.000233	2.332045	0.790118	0.000093
  67	6.5670e+00	2.6213	4.533703	0.000304	3.041798	1.030589	0.000122
  68	6.6665e+00	2.6630	4.642706	0.000274	2.737618	0.927530	0.000110
  69	6.7660e+00	2.7095	4.735560	0.000233	2.332045	0.790118	0.000093
  70	6.8655e+00	2.7497	4.784006	0.000122	1.216719	0.412236	0.000049
  71	6.9650e+00	2.7833	4.880897	0.000243	2.433438	0.824471	0.000097
  72	7.0645e+00	2.8218	5.026234	0.000365	3.650157	1.236707	0.000146
  73	7.1640e+00	2.8620	5.086791	0.000152	1.520899	0.515294	0.000061
  74	7.2635e+00	2.9085	5.191757	0.000264	2.636225	0.893177	0.000105
  75	7.3630e+00	2.9422	5.300759	0.000274	2.737618	0.927530	0.000110
  76	7.4625e+00	2.9823	5.433985	0.000335	3.345977	1.133648	0.000134
  77	7.5620e+00	3.0192	5.555099	0.000304	3.041798	1.030589	0.000122
  78	7.6615e+00	3.0609	5.668139	0.000284	2.839011	0.961883	0.000114
  79	7.7610e+00	3.1058	5.760993	0.000233	2.332045	0.790118	0.000093
  80	7.8605e+00	3.1475	5.865958	0.000264	2.636225	0.893177	0.000105
  81	7.9600e+00	3.1748	5.974961	0.000274	2.737618	0.927530	0.000110
  82	8.0595e+00	3.2341	6.079926	0.000264	2.636225	0.893177	0.000105
  83	8.1590e+00	3.2598	6.205078	0.000314	3.143191	1.064942	0.000126
  84	8.2585e+00	3.3047	6.301969	0.000243	2.433438	0.824471	0.000097
  85	8.3580e+00	3.3400	6.374637	0.000183	1.825079	0.618353	0.000073
  86	8.4575e+00	3.3785	6.483640	0.000274	2.737618	0.927530	0.000110
  87	8.5570e+00	3.4186	6.576494	0.000233	2.332045	0.790118	0.000093
  88	8.6565e+00	3.4635	6.657237	0.000203	2.027865	0.687059	0.000081
  89	8.7560e+00	3.5036	6.786425	0.000324	3.244584	1.099295	0.000130
  90	8.8555e+00	3.5405	6.846982	0.000152	1.520899	0.515294	0.000061
  91	8.9550e+00	3.5871	6.992319	0.000365	3.650157	1.236707	0.000146
  92	9.0545e+00	3.6224	7.081136	0.000223	2.230652	0.755765	0.000089
  93	9.1540e+00	3.6625	7.206287	0.000314	3.143191	1.064942	0.000126
  94	9.2535e+00	3.7026	7.319327	0.000284	2.839011	0.961883	0.000114
  95	9.3530e+00	3.7427	7.492924	0.000436	4.359910	1.477177	0.000174
  96	9.4525e+00	3.7780	7.561555	0.000172	1.723685	0.584000	0.000069
  97	9.5520e+00	3.8149	7.706892	0.000365	3.650157	1.236707	0.000146
  98	9.6515e+00	3.8518	7.795709	0.000223	2.230652	0.755765	0.000089
  99	9.7510e+00	3.9111	7.916823	0.000304	3.041798	1.030589	0.000122
 100	9.8505e+00	3.9352	7.965269	0.000122	1.216719	0.412236	0.000049
 101	9.9500e+00	3.9833	8.118680	0.000385	3.852944	1.305413	0.000154
 102	1.0050e+01	4.0122	8.203460	0.000213	2.129258	0.721412	0.000085
 103	1.0149e+01	4.0683	8.296314	0.000233	2.332045	0.790118	0.000093
 104	1.0248e+01	4.1052	8.393205	0.000243	2.433438	0.824471	0.000097
 105	1.0348e+01	4.1437	8.506245	0.000284	2.839011	0.961883	0.000114
 106	1.0447e+01	4.1774	8.599099	0.000233	2.332045	0.790118	0.000093
 107	1.0547e+01	4.2223	8.712139	0.000284	2.839011	0.961883	0.000114
 108	1.0646e+01	4.2641	8.788845	0.000193	1.926472	0.652706	0.000077
 109	1.0746e+01	4.2977	8.909959	0.000304	3.041798	1.030589	0.000122
 110	1.0845e+01	4.3362	9.018961	0.000274	2.737618	0.927530	0.000110
 111	1.0945e+01	4.3780	9.119890	0.000253	2.534831	0.858824	0.000101
 112	1.1044e+01	4.4116	9.241004	0.000304	3.041798	1.030589	0.000122
 113	1.1144e+01	4.4614	9.418638	0.000446	4.461303	1.511530	0.000179
 114	1.1243e+01	4.5063	9.543789	0.000314	3.143191	1.064942	0.000126
 115	1.1343e+01	4.5368	9.620494	0.000193	1.926472	0.652706	0.000077
 116	1.1443e+01	4.5817	9.749683	0.000324	3.244584	1.099295	0.000130
 117	1.1542e+01	4.6122	9.850611	0.000253	2.534831	0.858824	0.000101
 118	1.1642e+01	4.6571	9.967688	0.000294	2.940404	0.996236	0.000118
 119	1.1741e+01	4.6956	10.088802	0.000304	3.041798	1.030589	0.000122
 120	1.1841e+01	4.7485	10.185693	0.000243	2.433438	0.824471	0.000097
 121	1.1940e+01	4.7774	10.282585	0.000243	2.433438	0.824471	0.000097
 122	1.2040e+01	4.8207	10.375439	0.000233	2.332045	0.790118	0.000093
 123	1.2139e+01	4.8624	10.468293	0.000233	2.332045	0.790118	0.000093
 124	1.2239e+01	4.9025	10.569221	0.000253	2.534831	0.858824	0.000101
 125	1.2338e+01	4.9410	10.706484	0.000345	3.447371	1.168001	0.000138
 126	1.2438e+01	4.9811	10.783190	0.000193	1.926472	0.652706	0.000077
 127	1.2537e+01	5.0196	10.924489	0.000355	3.548764	1.202354	0.000142
 128	1.2636e+01	5.0598	11.037529	0.000284	2.839011	0.961883	0.000114
 129	1.2736e+01	5.0950	11.134420	0.000243	2.433438	0.824471	0.000097
 130	1.2835e+01	5.1335	11.263609	0.000324	3.244584	1.099295	0.000130
 131	1.2935e+01	5.1720	11.392797	0.000324	3.244584	1.099295	0.000130
 132	1.3034e+01	5.2186	11.501800	0.000274	2.737618	0.927530	0.000110
 133	1.3134e+01	5.2715	11.618877	0.000294	2.940404	0.996236	0.000118
 134	1.3233e+01	5.3004	11.792473	0.000436	4.359910	1.477177	0.000174
 135	1.3333e+01	5.3309	11.848993	0.000142	1.419506	0.480942	0.000057
 136	1.3432e+01	5.3822	11.966070	0.000294	2.940404	0.996236	0.000118
 137	1.3532e+01	5.4111	12.115444	0.000375	3.751550	1.271060	0.000150
 138	1.3632e+01	5.4544	12.208298	0.000233	2.332045	0.790118	0.000093
 139	1.3731e+01	5.4977	12.297115	0.000223	2.230652	0.755765	0.000089
 140	1.3831e+01	5.5410	12.394007	0.000243	2.433438	0.824471	0.000097
 141	1.3930e+01	5.5699	12.515121	0.000304	3.041798	1.030589	0.000122
 142	1.4030e+01	5.6180	12.599901	0.000213	2.129258	0.721412	0.000085
 143	1.4129e+01	5.6597	12.680643	0.000203	2.027865	0.687059	0.000081
 144	1.4229e+01	5.6934	12.834055	0.000385	3.852944	1.305413	0.000154
 145	1.4328e+01	5.7351	12.951131	0.000294	2.940404	0.996236	0.000118
 146	1.4428e+01	5.7801	13.052060	0.000253	2.534831	0.858824	0.000101
 147	1.4527e+01	5.8202	13.197397	0.000365	3.650157	1.236707	0.000146
 148	1.4627e+01	5.8651	13.314474	0.000294	2.940404	0.996236	0.000118
 149	1.4726e+01	5.8875	13.455773	0.000355	3.548764	1.202354	0.000142
 150	1.4825e+01	5.9341	13.584962	0.000324	3.244584	1.099295	0.000130
 151	1.4925e+01	5.9838	13.702039	0.000294	2.940404	0.996236	0.000118
 152	1.5024e+01	6.0159	13.807004	0.000264	2.636225	0.893177	0.000105
 153	1.5124e+01	6.0544	13.895821	0.000223	2.230652	0.755765	0.000089
 154	1.5223e+01	6.0865	14.069418	0.000436	4.359910	1.477177	0.000174
 155	1.5323e+01	6.1298	14.154198	0.000213	2.129258	0.721412	0.000085
 156	1.5422e+01	6.1635	14.259163	0.000264	2.636225	0.893177	0.000105
 157	1.5522e+01	6.2148	14.396426	0.000345	3.447371	1.168001	0.000138
 158	1.5621e+01	6.2565	14.473132	0.000193	1.926472	0.652706	0.000077
 159	1.5721e+01	6.2854	14.578097	0.000264	2.636225	0.893177	0.000105
 160	1.5820e+01	6.3351	14.695174	0.000294	2.940404	0.996236	0.000118
 161	1.5920e+01	6.3720	14.763805	0.000172	1.723685	0.584000	0.000069
 162	1.6020e+01	6.4137	14.868771	0.000264	2.636225	0.893177	0.000105
 163	1.6119e+01	6.4458	14.989885	0.000304	3.041798	1.030589	0.000122
 164	1.6218e+01	6.4955	15.086776	0.000243	2.433438	0.824471	0.000097
 165	1.6318e+01	6.5308	15.272484	0.000466	4.664090	1.580236	0.000187
 166	1.6418e+01	6.5693	15.413784	0.000355	3.548764	1.202354	0.000142
 167	1.6517e+01	6.6191	15.490490	0.000193	1.926472	0.652706	0.000077
 168	1.6616e+01	6.6479	15.643901	0.000385	3.852944	1.305413	0.000154
 169	1.6716e+01	6.6832	15.756941	0.000284	2.839011	0.961883	0.000114
 170	1.6816e+01	6.7298	15.882092	0.000314	3.143191	1.064942	0.000126
 171	1.6915e+01	6.7683	15.970909	0.000223	2.230652	0.755765	0.000089
 172	1.7015e+01	6.8100	16.100097	0.000324	3.244584	1.099295	0.000130
 173	1.7114e+01	6.8469	16.217174	0.000294	2.940404	0.996236	0.000118
 174	1.7213e+01	6.8902	16.350400	0.000335	3.345977	1.133648	0.000134
 175	1.7313e+01	6.9271	16.431142	0.000203	2.027865	0.687059	0.000081
 176	1.7413e+01	6.9624	16.528034	0.000243	2.433438	0.824471	0.000097
 177	1.7512e+01	7.0057	16.608776	0.000203	2.027865	0.687059	0.000081
 178	1.7611e+01	7.0442	16.685482	0.000193	1.926472	0.652706	0.000077
 179	1.7711e+01	7.0955	16.846967	0.000406	4.055730	1.374119	0.000162
 180	1.7811e+01	7.1260	16.939822	0.000233	2.332045	0.790118	0.000093
 181	1.7910e+01	7.1629	17.085158	0.000365	3.650157	1.236707	0.000146
 182	1.8009e+01	7.2062	17.165901	0.000203	2.027865	0.687059	0.000081
 183	1.8109e+01	7.2479	17.335461	0.000426	4.258517	1.442825	0.000170
 184	1.8209e+01	7.2752	17.452538	0.000294	2.940404	0.996236	0.000118
 185	1.8308e+01	7.3265	17.573652	0.000304	3.041798	1.030589	0.000122
 186	1.8407e+01	7.3602	17.686692	0.000284	2.839011	0.961883	0.000114
 187	1.8507e+01	7.3971	17.823954	0.000345	3.447371	1.168001	0.000138
 188	1.8607e+01	7.4452	17.932957	0.000274	2.737618	0.927530	0.000110
 189	1.8706e+01	7.4886	18.074257	0.000355	3.548764	1.202354	0.000142
 190	1.8805e+01	7.5303	18.150962	0.000193	1.926472	0.652706	0.000077
 191	1.8905e+01	7.5624	18.292262	0.000355	3.548764	1.202354	0.000142
 192	1.9005e+01	7.6041	18.405302	0.000284	2.839011	0.961883	0.000114
 193	1.9104e+01	7.6474	18.506230	0.000253	2.534831	0.858824	0.000101
 194	1.9203e+01	7.6923	18.595047	0.000223	2.230652	0.755765	0.000089
 195	1.9303e+01	7.7340	18.700013	0.000264	2.636225	0.893177	0.000105
 196	1.9402e+01	7.7661	18.780755	0.000203	2.027865	0.687059	0.000081
 197	1.9502e+01	7.8094	18.881684	0.000253	2.534831	0.858824	0.000101
 198	1.9602e+01	7.8367	18.998761	0.000294	2.940404	0.996236	0.000118
 199	1.9701e+01	7.8928	19.107763	0.000274	2.737618	0.927530	0.000110
 200	1.9800e+01	7.9265	19.188506	0.000203	2.027865	0.687059	0.000081
 201	1.9900e+01	7.9650	19.337880	0.000375	3.751550	1.271060	0.000150
 202	2.0000e+01	8.0083	19.458994	0.000304	3.041798	1.030589	0.000122
 203	2.0099e+01	8.0516	19.576071	0.000294	2.940404	0.996236	0.000118
 204	2.0198e+01	8.0821	19.705260	0.000324	3.244584	1.099295	0.000130
 205	2.0298e+01	8.1303	19.830411	0.000314	3.143191	1.064942	0.000126
 206	2.0398e+01	8.1591	19.951525	0.000304	3.041798	1.030589	0.000122
 207	2.0497e+01	8.2024	20.048416	0.000243	2.433438	0.824471	0.000097
 208	2.0596e+01	8.2442	20.165493	0.000294	2.940404	0.996236	0.000118
 209	2.0696e+01	8.2778	20.286607	0.000304	3.041798	1.030589	0.000122
 210	2.0796e+01	8.3308	20.363313	0.000193	1.926472	0.652706	0.000077
 211	2.0895e+01	8.3548	20.456167	0.000233	2.332045	0.790118	0.000093
 212	2.0994e+01	8.4078	20.609578	0.000385	3.852944	1.305413	0.000154
 213	2.1094e+01	8.4447	20.702432	0.000233	2.332045	0.790118	0.000093
 214	2.1194e+01	8.4832	20.771063	0.000172	1.723685	0.584000	0.000069
 215	2.1293e+01	8.5201	20.908326	0.000345	3.447371	1.168001	0.000138
 216	2.1392e+01	8.5634	21.021366	0.000284	2.839011	0.961883	0.000114
 217	2.1492e+01	8.5987	21.130368	0.000274	2.737618	0.927530	0.000110
 218	2.1591e+01	8.6452	21.170740	0.000101	1.013933	0.343530	0.000041
 219	2.1691e+01	8.6757	21.332225	0.000406	4.055730	1.374119	0.000162
 220	2.1791e+01	8.7254	21.453339	0.000304	3.041798	1.030589	0.000122
 221	2.1890e+01	8.7623	21.610788	0.000395	3.954337	1.339766	0.000158
 222	2.1989e+01	8.8008	21.711716	0.000253	2.534831	0.858824	0.000101
 223	2.2089e+01	8.8441	21.828793	0.000294	2.940404	0.996236	0.000118
 224	2.2189e+01	8.8874	21.970093	0.000355	3.548764	1.202354	0.000142
 225	2.2288e+01	8.9131	22.054873	0.000213	2.129258	0.721412	0.000085
 226	2.2387e+01	8.9645	22.163875	0.000274	2.737618	0.927530	0.000110
 227	2.2487e+01	8.9981	22.276915	0.000284	2.839011	0.961883	0.000114
 228	2.2587e+01	9.0511	22.398029	0.000304	3.041798	1.030589	0.000122
 229	2.2686e+01	9.0864	22.494920	0.000243	2.433438	0.824471	0.000097
 230	2.2785e+01	9.1217	22.599886	0.000264	2.636225	0.893177	0.000105
 231	2.2885e+01	9.1634	22.708889	0.000274	2.737618	0.927530	0.000110
 232	2.2985e+01	9.2067	22.785594	0.000193	1.926472	0.652706	0.000077
 233	2.3084e+01	9.2404	22.846151	0.000152	1.520899	0.515294	0.000061
 234	2.3183e+01	9.2821	22.983414	0.000345	3.447371	1.168001	0.000138
 235	2.3283e+01	9.3174	23.128751	0.000365	3.650157	1.236707	0.000146
 236	2.3383e+01	9.3559	23.193345	0.000162	1.622292	0.549647	0.000065
 237	2.3482e+01	9.3960	23.302347	0.000274	2.737618	0.927530	0.000110
 238	2.3581e+01	9.4361	23.411350	0.000274	2.737618	0.927530	0.000110
 239	2.3681e+01	9.4826	23.560724	0.000375	3.751550	1.271060	0.000150
 240	2.3780e+01	9.5227	23.669727	0.000274	2.737618	0.927530	0.000110
 241	2.3880e+01	9.5596	23.774692	0.000264	2.636225	0.893177	0.000105
 242	2.3980e+01	9.5965	23.924066	0.000375	3.751550	1.271060	0.000150
 243	2.4079e+01	9.6366	23.976549	0.000132	1.318112	0.446589	0.000053
 244	2.4178e+01	9.6783	24.133997	0.000395	3.954337	1.339766	0.000158
 245	2.4278e+01	9.7249	24.198592	0.000162	1.622292	0.549647	0.000065
 246	2.4378e+01	9.7650	24.339891	0.000355	3.548764	1.202354	0.000142
 247	2.4477e+01	9.7970	24.461005	0.000304	3.041798	1.030589	0.000122
 248	2.4576e+01	9.8323	24.553860	0.000233	2.332045	0.790118	0.000093
 249	2.4676e+01	9.8789	24.662862	0.000274	2.737618	0.927530	0.000110
 250	2.4776e+01	9.9158	24.759753	0.000243	2.433438	0.824471	0.000097
 251	2.4875e+01	9.9511	24.812236	0.000132	1.318112	0.446589	0.000053
 252	2.4974e+01	9.9960	24.949499	0.000345	3.447371	1.168001	0.000138
 253	2.5074e+01	10.0425	25.046390	0.000243	2.433438	0.824471	0.000097
 254	2.5174e+01	10.0874	25.167504	0.000304	3.041798	1.030589	0.000122
 255	2.5273e+01	10.1147	25.248247	0.000203	2.027865	0.687059	0.000081
 256	2.5372e+01	10.1612	25.385510	0.000345	3.447371	1.168001	0.000138
 257	2.5472e+01	10.1869	25.542958	0.000395	3.954337	1.339766	0.000158
 258	2.5572e+01	10.2366	25.660035	0.000294	2.940404	0.996236	0.000118
 259	2.5671e+01	10.2735	25.769037	0.000274	2.737618	0.927530	0.000110
 260	2.5770e+01	10.3152	25.890151	0.000304	3.041798	1.030589	0.000122
 261	2.5870e+01	10.3521	26.015303	0.000314	3.143191	1.064942	0.000126
 262	2.5970e+01	10.3938	26.112194	0.000243	2.433438	0.824471	0.000097
