»»»»»»»»»»»»»»»»»»»»»»»»»»»»»»»»»»»» Hysteresis ««««««««««««««««««««««««««««««««««««
»»»  Executed Version:	5.48.1
»»»  Vision Version:	5.48.4 (R)
»»»  Vision Compiled:	9/18/24
»»»  Driver Version:	5.47.0
»»»  Windows Version:	Windows 8 or 8.1
»»»  Processor Information:	x86 (AMD or Intel) - 32 Processors
»»»  Tester Name:	PMF21124-494 (100V)
»»»  Tester S/N:	PMF21124-494
»»»  Internal Amp Type:	100V RevK 270k
»»»  Internal Amp S/N:	iAB2-596/K     
»»»  Execution Count:	1
»»»»»»»»»»»»»»»»»»»»»»»»»»»»»»»»»»»»»»»»»»««««««««««««««««««««««««««««««««««««««««««

Stored:	6/19/2025 - 10:25:13
Configured:	06/19/25 10:04:32 AM
Executed:	06/19/25 10:24:46 AM

»»»»»»»»»»»»»»»»»»»»»»»»»»»»»»»»»»» Sample Info ««««««««««««««««««««««««««««««««««««
Sample Name:	
Lot Name:	
Wafer Name:	
Die Row/Column:	0/0
Capacitor Number:	0
Sample Area (cm2):	1.00e-04
Sample Thickness (microns):	3.00e-01

Amplifier:	Internal

»»»»»»»»»»»»»»»»»»»»»»»»»»»»»»»»»»» Tester Info «««««««««««««««««««««««««««««««««««
Tester Name:	PMF21124-494 (100V)
Tester Serial Number:	PMF21124-494
Return Signal Amp. Level:	0.19 [Index: 3]

»»»»»»»»»»»»»»»»»»»»»»»»»»»»»»»» Hysteresis Info ««««««««««««««««««««««««««««««««««
Task Name:	Hyst-1168
Volts:	20.00
Field:	666.67 (kV/cm)
DCBias:	0.00
DCField:	0.00 (kV/cm)
Hysteresis Period (ms):	2.00e+02
Preset:	Enabled
Preset Delay (ms):	1.00e+03
Profile:	Standard Bipolar

»»»»»»»»»»»»»»»»»»»»»»»»»»»»»»»»»»»»»» Data «««««««««««««««««««««««««««««««««««««««
Points:	2009

Valid Data

Point	Time (ms)	Drive Voltage	Measured Polarization (uC/cm2)	Capacitance (uF)	Normalized Capacitance (uF/cm2)	Dielectric Constant	Instantaneous Current (mA)
   1	0.0000e+00	-0.0064	-2.674602	0.000193	1.925545	0.652392	0.000077
   2	9.9500e-02	0.0337	-2.597897	0.000193	1.925545	0.652392	0.000077
   3	1.9900e-01	0.0626	-2.517154	0.000203	2.026889	0.686729	0.000081
   4	2.9850e-01	0.1075	-2.392003	0.000314	3.141678	1.064429	0.000126
   5	3.9800e-01	0.1428	-2.311260	0.000203	2.026889	0.686729	0.000081
   6	4.9750e-01	0.1893	-2.262815	0.000122	1.216133	0.412037	0.000049
   7	5.9700e-01	0.2262	-2.178035	0.000213	2.128233	0.721065	0.000085
   8	6.9650e-01	0.2631	-2.064995	0.000284	2.837645	0.961420	0.000114
   9	7.9600e-01	0.3064	-1.972141	0.000233	2.330922	0.789738	0.000093
  10	8.9550e-01	0.3433	-1.863138	0.000274	2.736300	0.927084	0.000110
  11	9.9500e-01	0.3802	-1.802581	0.000152	1.520167	0.515046	0.000061
  12	1.0945e+00	0.4299	-1.681467	0.000304	3.040334	1.030093	0.000122
  13	1.1940e+00	0.4620	-1.580539	0.000253	2.533611	0.858411	0.000101
  14	1.2935e+00	0.5134	-1.439239	0.000355	3.547056	1.201775	0.000142
  15	1.3930e+00	0.5486	-1.386756	0.000132	1.317478	0.446374	0.000053
  16	1.4925e+00	0.5904	-1.297939	0.000223	2.229578	0.755401	0.000089
  17	1.5920e+00	0.6208	-1.152602	0.000365	3.648400	1.236111	0.000146
  18	1.6915e+00	0.6674	-1.092045	0.000152	1.520167	0.515046	0.000061
  19	1.7910e+00	0.6978	-0.987080	0.000263	2.634956	0.892747	0.000105
  20	1.8905e+00	0.7476	-0.926523	0.000152	1.520167	0.515046	0.000061
  21	1.9900e+00	0.7893	-0.801371	0.000314	3.141678	1.064429	0.000126
  22	2.0895e+00	0.8358	-0.724666	0.000193	1.925545	0.652392	0.000077
  23	2.1890e+00	0.8583	-0.591440	0.000334	3.344367	1.133102	0.000134
  24	2.2885e+00	0.9032	-0.510698	0.000203	2.026889	0.686729	0.000081
  25	2.3880e+00	0.9401	-0.385546	0.000314	3.141678	1.064429	0.000126
  26	2.4875e+00	0.9898	-0.292692	0.000233	2.330922	0.789738	0.000093
  27	2.5870e+00	1.0251	-0.220024	0.000182	1.824200	0.618056	0.000073
  28	2.6865e+00	1.0604	-0.070650	0.000375	3.749745	1.270448	0.000150
  29	2.7860e+00	1.1037	0.006056	0.000193	1.925545	0.652392	0.000077
  30	2.8855e+00	1.1406	0.062576	0.000142	1.418822	0.480710	0.000057
  31	2.9850e+00	1.1871	0.232135	0.000426	4.256467	1.442130	0.000170
  32	3.0845e+00	1.2080	0.292692	0.000152	1.520167	0.515046	0.000061
  33	3.1840e+00	1.2625	0.429955	0.000345	3.445711	1.167439	0.000138
  34	3.2835e+00	1.3091	0.518772	0.000223	2.229578	0.755401	0.000089
  35	3.3830e+00	1.3508	0.591440	0.000182	1.824200	0.618056	0.000073
  36	3.4825e+00	1.3812	0.692369	0.000253	2.533611	0.858411	0.000101
  37	3.5820e+00	1.4197	0.813483	0.000304	3.040334	1.030093	0.000122
  38	3.6815e+00	1.4679	0.878077	0.000162	1.621511	0.549383	0.000065
  39	3.7810e+00	1.5016	1.003228	0.000314	3.141678	1.064429	0.000126
  40	3.8805e+00	1.5513	1.096082	0.000233	2.330922	0.789738	0.000093
  41	3.9800e+00	1.5770	1.188936	0.000233	2.330922	0.789738	0.000093
  42	4.0795e+00	1.6235	1.257568	0.000172	1.722856	0.583719	0.000069
  43	4.1790e+00	1.6588	1.346385	0.000223	2.229578	0.755401	0.000089
  44	4.2785e+00	1.7005	1.487685	0.000355	3.547056	1.201775	0.000142
  45	4.3780e+00	1.7422	1.584576	0.000243	2.432267	0.824074	0.000097
  46	4.4775e+00	1.7791	1.681467	0.000243	2.432267	0.824074	0.000097
  47	4.5770e+00	1.8208	1.778358	0.000243	2.432267	0.824074	0.000097
  48	4.6765e+00	1.8705	1.887361	0.000274	2.736300	0.927084	0.000110
  49	4.7760e+00	1.8978	1.972141	0.000213	2.128233	0.721065	0.000085
  50	4.8755e+00	1.9411	2.105366	0.000334	3.344367	1.133102	0.000134
  51	4.9750e+00	1.9860	2.169960	0.000162	1.621511	0.549383	0.000065
  52	5.0745e+00	2.0197	2.278963	0.000274	2.736300	0.927084	0.000110
  53	5.1740e+00	2.0614	2.400077	0.000304	3.040334	1.030093	0.000122
  54	5.2735e+00	2.0967	2.484857	0.000213	2.128233	0.721065	0.000085
  55	5.3730e+00	2.1433	2.593860	0.000274	2.736300	0.927084	0.000110
  56	5.4725e+00	2.1785	2.702862	0.000274	2.736300	0.927084	0.000110
  57	5.5720e+00	2.2170	2.828014	0.000314	3.141678	1.064429	0.000126
  58	5.6715e+00	2.2556	2.876459	0.000122	1.216133	0.412037	0.000049
  59	5.7710e+00	2.3037	2.993536	0.000294	2.938989	0.995756	0.000118
  60	5.8705e+00	2.3374	3.130799	0.000345	3.445711	1.167439	0.000138
  61	5.9700e+00	2.3727	3.138873	0.000020	0.202689	0.068673	0.000008
  62	6.0695e+00	2.4192	3.312470	0.000436	4.357811	1.476466	0.000174
  63	6.1690e+00	2.4529	3.421473	0.000274	2.736300	0.927084	0.000110
  64	6.2685e+00	2.4994	3.477992	0.000142	1.418822	0.480710	0.000057
  65	6.3680e+00	2.5411	3.635441	0.000395	3.952434	1.339121	0.000158
  66	6.4675e+00	2.5796	3.712146	0.000193	1.925545	0.652392	0.000077
  67	6.5670e+00	2.6229	3.817112	0.000263	2.634956	0.892747	0.000105
  68	6.6665e+00	2.6678	3.889780	0.000182	1.824200	0.618056	0.000073
  69	6.7660e+00	2.7031	4.023006	0.000334	3.344367	1.133102	0.000134
  70	6.8655e+00	2.7368	4.111823	0.000223	2.229578	0.755401	0.000089
  71	6.9650e+00	2.7785	4.180454	0.000172	1.722856	0.583719	0.000069
  72	7.0645e+00	2.8202	4.281382	0.000253	2.533611	0.858411	0.000101
  73	7.1640e+00	2.8620	4.390385	0.000274	2.736300	0.927084	0.000110
  74	7.2635e+00	2.9021	4.499388	0.000274	2.736300	0.927084	0.000110
  75	7.3630e+00	2.9309	4.572056	0.000182	1.824200	0.618056	0.000073
  76	7.4625e+00	2.9775	4.677022	0.000263	2.634956	0.892747	0.000105
  77	7.5620e+00	3.0079	4.806210	0.000324	3.243022	1.098766	0.000130
  78	7.6615e+00	3.0593	4.903101	0.000243	2.432267	0.824074	0.000097
  79	7.7610e+00	3.0994	4.971733	0.000172	1.722856	0.583719	0.000069
  80	7.8605e+00	3.1283	5.125144	0.000385	3.851089	1.304784	0.000154
  81	7.9600e+00	3.1892	5.189738	0.000162	1.621511	0.549383	0.000065
  82	8.0595e+00	3.2229	5.258369	0.000172	1.722856	0.583719	0.000069
  83	8.1590e+00	3.2598	5.403706	0.000365	3.648400	1.236111	0.000146
  84	8.2585e+00	3.3063	5.480412	0.000193	1.925545	0.652392	0.000077
  85	8.3580e+00	3.3336	5.589414	0.000274	2.736300	0.927084	0.000110
  86	8.4575e+00	3.3657	5.698417	0.000274	2.736300	0.927084	0.000110
  87	8.5570e+00	3.4138	5.783197	0.000213	2.128233	0.721065	0.000085
  88	8.6565e+00	3.4475	5.888162	0.000263	2.634956	0.892747	0.000105
  89	8.7560e+00	3.4876	5.972942	0.000213	2.128233	0.721065	0.000085
  90	8.8555e+00	3.5405	6.061759	0.000223	2.229578	0.755401	0.000089
  91	8.9550e+00	3.5774	6.199022	0.000345	3.445711	1.167439	0.000138
  92	9.0545e+00	3.6127	6.291876	0.000233	2.330922	0.789738	0.000093
  93	9.1540e+00	3.6448	6.433176	0.000355	3.547056	1.201775	0.000142
  94	9.2535e+00	3.7010	6.473547	0.000101	1.013445	0.343364	0.000041
  95	9.3530e+00	3.7330	6.606773	0.000334	3.344367	1.133102	0.000134
  96	9.4525e+00	3.7716	6.679441	0.000182	1.824200	0.618056	0.000073
  97	9.5520e+00	3.8149	6.792481	0.000284	2.837645	0.961420	0.000114
  98	9.6515e+00	3.8518	6.913595	0.000304	3.040334	1.030093	0.000122
  99	9.7510e+00	3.8951	6.958003	0.000111	1.114789	0.377701	0.000045
 100	9.8505e+00	3.9272	7.062969	0.000263	2.634956	0.892747	0.000105
 101	9.9500e+00	3.9769	7.188120	0.000314	3.141678	1.064429	0.000126
 102	1.0050e+01	4.0170	7.285011	0.000243	2.432267	0.824074	0.000097
 103	1.0149e+01	4.0507	7.365754	0.000203	2.026889	0.686729	0.000081
 104	1.0248e+01	4.0828	7.470720	0.000263	2.634956	0.892747	0.000105
 105	1.0348e+01	4.1277	7.515128	0.000111	1.114789	0.377701	0.000045
 106	1.0447e+01	4.1758	7.676614	0.000405	4.053778	1.373457	0.000162
 107	1.0547e+01	4.2191	7.749282	0.000182	1.824200	0.618056	0.000073
 108	1.0646e+01	4.2592	7.862322	0.000284	2.837645	0.961420	0.000114
 109	1.0746e+01	4.2929	7.918842	0.000142	1.418822	0.480710	0.000057
 110	1.0845e+01	4.3378	8.064179	0.000365	3.648400	1.236111	0.000146
 111	1.0945e+01	4.3715	8.161070	0.000243	2.432267	0.824074	0.000097
 112	1.1044e+01	4.4181	8.245850	0.000213	2.128233	0.721065	0.000085
 113	1.1144e+01	4.4485	8.330630	0.000213	2.128233	0.721065	0.000085
 114	1.1243e+01	4.4919	8.455781	0.000314	3.141678	1.064429	0.000126
 115	1.1343e+01	4.5304	8.564783	0.000274	2.736300	0.927084	0.000110
 116	1.1443e+01	4.5737	8.673786	0.000274	2.736300	0.927084	0.000110
 117	1.1542e+01	4.6090	8.758566	0.000213	2.128233	0.721065	0.000085
 118	1.1642e+01	4.6539	8.867569	0.000274	2.736300	0.927084	0.000110
 119	1.1741e+01	4.6940	8.944274	0.000193	1.925545	0.652392	0.000077
 120	1.1841e+01	4.7309	9.109797	0.000416	4.155123	1.407794	0.000166
 121	1.1940e+01	4.7678	9.162280	0.000132	1.317478	0.446374	0.000053
 122	1.2040e+01	4.8079	9.287431	0.000314	3.141678	1.064429	0.000126
 123	1.2139e+01	4.8448	9.360099	0.000182	1.824200	0.618056	0.000073
 124	1.2239e+01	4.8897	9.440842	0.000203	2.026889	0.686729	0.000081
 125	1.2338e+01	4.9282	9.545807	0.000263	2.634956	0.892747	0.000105
 126	1.2438e+01	4.9731	9.674996	0.000324	3.243022	1.098766	0.000130
 127	1.2537e+01	5.0020	9.812258	0.000345	3.445711	1.167439	0.000138
 128	1.2636e+01	5.0453	9.880890	0.000172	1.722856	0.583719	0.000069
 129	1.2736e+01	5.0950	9.969707	0.000223	2.229578	0.755401	0.000089
 130	1.2835e+01	5.1303	10.082747	0.000284	2.837645	0.961420	0.000114
 131	1.2935e+01	5.1656	10.163489	0.000203	2.026889	0.686729	0.000081
 132	1.3034e+01	5.2154	10.248269	0.000213	2.128233	0.721065	0.000085
 133	1.3134e+01	5.2442	10.389569	0.000355	3.547056	1.201775	0.000142
 134	1.3233e+01	5.2859	10.470312	0.000203	2.026889	0.686729	0.000081
 135	1.3333e+01	5.3261	10.587388	0.000294	2.938989	0.995756	0.000118
 136	1.3432e+01	5.3726	10.668131	0.000203	2.026889	0.686729	0.000081
 137	1.3532e+01	5.4111	10.777134	0.000274	2.736300	0.927084	0.000110
 138	1.3632e+01	5.4480	10.874025	0.000243	2.432267	0.824074	0.000097
 139	1.3731e+01	5.4785	11.011288	0.000345	3.445711	1.167439	0.000138
 140	1.3831e+01	5.5170	11.092030	0.000203	2.026889	0.686729	0.000081
 141	1.3930e+01	5.5619	11.188922	0.000243	2.432267	0.824074	0.000097
 142	1.4030e+01	5.6020	11.297924	0.000274	2.736300	0.927084	0.000110
 143	1.4129e+01	5.6581	11.398853	0.000253	2.533611	0.858411	0.000101
 144	1.4229e+01	5.6854	11.503818	0.000263	2.634956	0.892747	0.000105
 145	1.4328e+01	5.7351	11.592635	0.000223	2.229578	0.755401	0.000089
 146	1.4428e+01	5.7688	11.697601	0.000263	2.634956	0.892747	0.000105
 147	1.4527e+01	5.8153	11.802566	0.000263	2.634956	0.892747	0.000105
 148	1.4627e+01	5.8490	11.907532	0.000263	2.634956	0.892747	0.000105
 149	1.4726e+01	5.8843	11.996349	0.000223	2.229578	0.755401	0.000089
 150	1.4825e+01	5.9292	12.109389	0.000284	2.837645	0.961420	0.000114
 151	1.4925e+01	5.9645	12.198206	0.000223	2.229578	0.755401	0.000089
 152	1.5024e+01	5.9982	12.351617	0.000385	3.851089	1.304784	0.000154
 153	1.5124e+01	6.0528	12.420248	0.000172	1.722856	0.583719	0.000069
 154	1.5223e+01	6.0849	12.545399	0.000314	3.141678	1.064429	0.000126
 155	1.5323e+01	6.1201	12.630179	0.000213	2.128233	0.721065	0.000085
 156	1.5422e+01	6.1635	12.747256	0.000294	2.938989	0.995756	0.000118
 157	1.5522e+01	6.2052	12.868370	0.000304	3.040334	1.030093	0.000122
 158	1.5621e+01	6.2501	12.937001	0.000172	1.722856	0.583719	0.000069
 159	1.5721e+01	6.2790	13.054078	0.000294	2.938989	0.995756	0.000118
 160	1.5820e+01	6.3223	13.175192	0.000304	3.040334	1.030093	0.000122
 161	1.5920e+01	6.3672	13.243824	0.000172	1.722856	0.583719	0.000069
 162	1.6020e+01	6.4057	13.360901	0.000294	2.938989	0.995756	0.000118
 163	1.6119e+01	6.4458	13.477978	0.000294	2.938989	0.995756	0.000118
 164	1.6218e+01	6.4811	13.570832	0.000233	2.330922	0.789738	0.000093
 165	1.6318e+01	6.5212	13.683872	0.000284	2.837645	0.961420	0.000114
 166	1.6418e+01	6.5517	13.772689	0.000223	2.229578	0.755401	0.000089
 167	1.6517e+01	6.6014	13.881691	0.000274	2.736300	0.927084	0.000110
 168	1.6616e+01	6.6415	13.986657	0.000263	2.634956	0.892747	0.000105
 169	1.6716e+01	6.6720	14.119882	0.000334	3.344367	1.133102	0.000134
 170	1.6816e+01	6.7153	14.208699	0.000223	2.229578	0.755401	0.000089
 171	1.6915e+01	6.7667	14.301553	0.000233	2.330922	0.789738	0.000093
 172	1.7015e+01	6.8036	14.430742	0.000324	3.243022	1.098766	0.000130
 173	1.7114e+01	6.8421	14.543781	0.000284	2.837645	0.961420	0.000114
 174	1.7213e+01	6.8790	14.616450	0.000182	1.824200	0.618056	0.000073
 175	1.7313e+01	6.9239	14.725453	0.000274	2.736300	0.927084	0.000110
 176	1.7413e+01	6.9624	14.834455	0.000274	2.736300	0.927084	0.000110
 177	1.7512e+01	6.9993	14.951532	0.000294	2.938989	0.995756	0.000118
 178	1.7611e+01	7.0394	15.060535	0.000274	2.736300	0.927084	0.000110
 179	1.7711e+01	7.0763	15.185686	0.000314	3.141678	1.064429	0.000126
 180	1.7811e+01	7.1260	15.262392	0.000193	1.925545	0.652392	0.000077
 181	1.7910e+01	7.1613	15.387543	0.000314	3.141678	1.064429	0.000126
 182	1.8009e+01	7.1886	15.492508	0.000263	2.634956	0.892747	0.000105
 183	1.8109e+01	7.2447	15.577288	0.000213	2.128233	0.721065	0.000085
 184	1.8209e+01	7.2800	15.710514	0.000334	3.344367	1.133102	0.000134
 185	1.8308e+01	7.3233	15.819516	0.000274	2.736300	0.927084	0.000110
 186	1.8407e+01	7.3666	15.920445	0.000253	2.533611	0.858411	0.000101
 187	1.8507e+01	7.4051	16.017336	0.000243	2.432267	0.824074	0.000097
 188	1.8607e+01	7.4324	16.166710	0.000375	3.749745	1.270448	0.000150
 189	1.8706e+01	7.4805	16.259564	0.000233	2.330922	0.789738	0.000093
 190	1.8805e+01	7.5174	16.356455	0.000243	2.432267	0.824074	0.000097
 191	1.8905e+01	7.5591	16.461421	0.000263	2.634956	0.892747	0.000105
 192	1.9005e+01	7.5928	16.570424	0.000274	2.736300	0.927084	0.000110
 193	1.9104e+01	7.6361	16.699612	0.000324	3.243022	1.098766	0.000130
 194	1.9203e+01	7.6746	16.804578	0.000263	2.634956	0.892747	0.000105
 195	1.9303e+01	7.7148	16.901469	0.000243	2.432267	0.824074	0.000097
 196	1.9402e+01	7.7581	17.030657	0.000324	3.243022	1.098766	0.000130
 197	1.9502e+01	7.8030	17.180031	0.000375	3.749745	1.270448	0.000150
 198	1.9602e+01	7.8367	17.240588	0.000152	1.520167	0.515046	0.000061
 199	1.9701e+01	7.8800	17.333442	0.000233	2.330922	0.789738	0.000093
 200	1.9800e+01	7.9089	17.430334	0.000243	2.432267	0.824074	0.000097
 201	1.9900e+01	7.9570	17.583745	0.000385	3.851089	1.304784	0.000154
 202	2.0000e+01	7.9891	17.656413	0.000182	1.824200	0.618056	0.000073
 203	2.0099e+01	8.0436	17.757342	0.000253	2.533611	0.858411	0.000101
 204	2.0198e+01	8.0741	17.890567	0.000334	3.344367	1.133102	0.000134
 205	2.0298e+01	8.1174	17.983421	0.000233	2.330922	0.789738	0.000093
 206	2.0398e+01	8.1495	18.084350	0.000253	2.533611	0.858411	0.000101
 207	2.0497e+01	8.1944	18.161055	0.000193	1.925545	0.652392	0.000077
 208	2.0596e+01	8.2281	18.302355	0.000355	3.547056	1.201775	0.000142
 209	2.0696e+01	8.2682	18.423469	0.000304	3.040334	1.030093	0.000122
 210	2.0796e+01	8.3276	18.536509	0.000284	2.837645	0.961420	0.000114
 211	2.0895e+01	8.3532	18.617251	0.000203	2.026889	0.686729	0.000081
 212	2.0994e+01	8.4046	18.746440	0.000324	3.243022	1.098766	0.000130
 213	2.1094e+01	8.4351	18.851405	0.000263	2.634956	0.892747	0.000105
 214	2.1194e+01	8.4768	18.964445	0.000284	2.837645	0.961420	0.000114
 215	2.1293e+01	8.5105	19.069411	0.000263	2.634956	0.892747	0.000105
 216	2.1392e+01	8.5538	19.158228	0.000223	2.229578	0.755401	0.000089
 217	2.1492e+01	8.5891	19.267230	0.000274	2.736300	0.927084	0.000110
 218	2.1591e+01	8.6324	19.380270	0.000284	2.837645	0.961420	0.000114
 219	2.1691e+01	8.6789	19.489273	0.000274	2.736300	0.927084	0.000110
 220	2.1791e+01	8.7174	19.570015	0.000203	2.026889	0.686729	0.000081
 221	2.1890e+01	8.7463	19.723427	0.000385	3.851089	1.304784	0.000154
 222	2.1989e+01	8.7880	19.812244	0.000223	2.229578	0.755401	0.000089
 223	2.2089e+01	8.8265	19.949506	0.000345	3.445711	1.167439	0.000138
 224	2.2189e+01	8.8730	20.030249	0.000203	2.026889	0.686729	0.000081
 225	2.2288e+01	8.9067	20.123103	0.000233	2.330922	0.789738	0.000093
 226	2.2387e+01	8.9516	20.260366	0.000345	3.445711	1.167439	0.000138
 227	2.2487e+01	8.9965	20.365331	0.000263	2.634956	0.892747	0.000105
 228	2.2587e+01	9.0238	20.458185	0.000233	2.330922	0.789738	0.000093
 229	2.2686e+01	9.0703	20.551039	0.000233	2.330922	0.789738	0.000093
 230	2.2785e+01	9.1120	20.668116	0.000294	2.938989	0.995756	0.000118
 231	2.2885e+01	9.1489	20.785193	0.000294	2.938989	0.995756	0.000118
 232	2.2985e+01	9.1906	20.902270	0.000294	2.938989	0.995756	0.000118
 233	2.3084e+01	9.2259	21.003199	0.000253	2.533611	0.858411	0.000101
 234	2.3183e+01	9.2725	21.059719	0.000142	1.418822	0.480710	0.000057
 235	2.3283e+01	9.3174	21.209093	0.000375	3.749745	1.270448	0.000150
 236	2.3383e+01	9.3559	21.265613	0.000142	1.418822	0.480710	0.000057
 237	2.3482e+01	9.3944	21.398838	0.000334	3.344367	1.133102	0.000134
 238	2.3581e+01	9.4281	21.523989	0.000314	3.141678	1.064429	0.000126
 239	2.3681e+01	9.4714	21.592620	0.000172	1.722856	0.583719	0.000069
 240	2.3780e+01	9.5099	21.741995	0.000375	3.749745	1.270448	0.000150
 241	2.3880e+01	9.5436	21.810626	0.000172	1.722856	0.583719	0.000069
 242	2.3980e+01	9.5981	21.907517	0.000243	2.432267	0.824074	0.000097
 243	2.4079e+01	9.6350	22.024594	0.000294	2.938989	0.995756	0.000118
 244	2.4178e+01	9.6751	22.153782	0.000324	3.243022	1.098766	0.000130
 245	2.4278e+01	9.7104	22.246636	0.000233	2.330922	0.789738	0.000093
 246	2.4378e+01	9.7409	22.331416	0.000213	2.128233	0.721065	0.000085
 247	2.4477e+01	9.7970	22.436382	0.000263	2.634956	0.892747	0.000105
 248	2.4576e+01	9.8243	22.581719	0.000365	3.648400	1.236111	0.000146
 249	2.4676e+01	9.8708	22.662461	0.000203	2.026889	0.686729	0.000081
 250	2.4776e+01	9.9093	22.751278	0.000223	2.229578	0.755401	0.000089
 251	2.4875e+01	9.9511	22.860281	0.000274	2.736300	0.927084	0.000110
 252	2.4974e+01	9.9912	22.945061	0.000213	2.128233	0.721065	0.000085
 253	2.5074e+01	10.0393	23.066175	0.000304	3.040334	1.030093	0.000122
 254	2.5174e+01	10.0762	23.175178	0.000274	2.736300	0.927084	0.000110
 255	2.5273e+01	10.1147	23.268032	0.000233	2.330922	0.789738	0.000093
 256	2.5372e+01	10.1484	23.385109	0.000294	2.938989	0.995756	0.000118
 257	2.5472e+01	10.1837	23.482000	0.000243	2.432267	0.824074	0.000097
 258	2.5572e+01	10.2334	23.562743	0.000203	2.026889	0.686729	0.000081
 259	2.5671e+01	10.2719	23.667708	0.000263	2.634956	0.892747	0.000105
 260	2.5770e+01	10.3168	23.780748	0.000284	2.837645	0.961420	0.000114
 261	2.5870e+01	10.3473	23.893788	0.000284	2.837645	0.961420	0.000114
 262	2.5970e+01	10.3922	23.946271	0.000132	1.317478	0.446374	0.000053
