»»»»»»»»»»»»»»»»»»»»»»»»»»»»»»»»»»»» Hysteresis ««««««««««««««««««««««««««««««««««««
»»»  Executed Version:	5.48.1
»»»  Vision Version:	5.48.4 (R)
»»»  Vision Compiled:	9/18/24
»»»  Driver Version:	5.47.0
»»»  Windows Version:	Windows 8 or 8.1
»»»  Processor Information:	x86 (AMD or Intel) - 32 Processors
»»»  Tester Name:	PMF21124-494 (100V)
»»»  Tester S/N:	PMF21124-494
»»»  Internal Amp Type:	100V RevK 270k
»»»  Internal Amp S/N:	iAB2-596/K     
»»»  Execution Count:	1
»»»»»»»»»»»»»»»»»»»»»»»»»»»»»»»»»»»»»»»»»»««««««««««««««««««««««««««««««««««««««««««

Stored:	6/19/2025 - 11:37:54
Configured:	06/19/25 10:04:32 AM
Executed:	06/19/25 11:37:34 AM

»»»»»»»»»»»»»»»»»»»»»»»»»»»»»»»»»»» Sample Info ««««««««««««««««««««««««««««««««««««
Sample Name:	
Lot Name:	
Wafer Name:	
Die Row/Column:	0/0
Capacitor Number:	0
Sample Area (cm2):	1.00e-04
Sample Thickness (microns):	3.00e-01

Amplifier:	Internal

»»»»»»»»»»»»»»»»»»»»»»»»»»»»»»»»»»» Tester Info «««««««««««««««««««««««««««««««««««
Tester Name:	PMF21124-494 (100V)
Tester Serial Number:	PMF21124-494
Return Signal Amp. Level:	1.79 [Index: 2]

»»»»»»»»»»»»»»»»»»»»»»»»»»»»»»»» Hysteresis Info ««««««««««««««««««««««««««««««««««
Task Name:	Hyst-1168
Volts:	20.00
Field:	666.67 (kV/cm)
DCBias:	0.00
DCField:	0.00 (kV/cm)
Hysteresis Period (ms):	1.00e+00
Preset:	Enabled
Preset Delay (ms):	1.00e+03
Profile:	Standard Bipolar

»»»»»»»»»»»»»»»»»»»»»»»»»»»»»»»»»»»»»» Data «««««««««««««««««««««««««««««««««««««««
Points:	2001

Valid Data

Point	Time (ms)	Drive Voltage	Measured Polarization (uC/cm2)	Capacitance (uF)	Normalized Capacitance (uF/cm2)	Dielectric Constant	Instantaneous Current (mA)
   1	0.0000e+00	0.0417	-1.652985	0.000374	3.744362	1.268624	0.030190
   2	5.0000e-04	0.0561	-1.502034	0.000374	3.744362	1.268624	0.030190
   3	1.0000e-03	0.1380	-1.560618	-0.000145	-1.453194	-0.492356	-0.011717
   4	1.5000e-03	0.1700	-1.459271	0.000251	2.513920	0.851739	0.020269
   5	2.0000e-03	0.2005	-1.431476	0.000069	0.689472	0.233599	0.005559
   6	2.5000e-03	0.2422	-1.316017	0.000286	2.863960	0.970336	0.023092
   7	3.0000e-03	0.3064	-1.288221	0.000069	0.689472	0.233599	0.005559
   8	3.5000e-03	0.3385	-1.150098	0.000343	3.426144	1.160809	0.027625
   9	4.0000e-03	0.3674	-1.109901	0.000100	0.997082	0.337821	0.008039
  10	4.5000e-03	0.4187	-1.045330	0.000160	1.601696	0.542669	0.012914
  11	5.0000e-03	0.4444	-0.935430	0.000273	2.726065	0.923616	0.021980
  12	5.5000e-03	0.4845	-0.870004	0.000162	1.622911	0.549857	0.013085
  13	6.0000e-03	0.5214	-0.791321	0.000195	1.951736	0.661266	0.015737
  14	6.5000e-03	0.5535	-0.671158	0.000298	2.980640	1.009868	0.024033
  15	7.0000e-03	0.5823	-0.517640	0.000381	3.808006	1.290187	0.030703
  16	7.5000e-03	0.6481	-0.562113	-0.000110	-1.103155	-0.373759	-0.008895
  17	8.0000e-03	0.7091	-0.533463	0.000071	0.710686	0.240787	0.005730
  18	8.5000e-03	0.7139	-0.389780	0.000356	3.564039	1.207529	0.028736
  19	9.0000e-03	0.7556	-0.341459	0.000120	1.198620	0.406104	0.009664
  20	9.5000e-03	0.8037	-0.255078	0.000214	2.142666	0.725955	0.017276
  21	1.0000e-02	0.8278	-0.062647	0.000477	4.773266	1.617226	0.038486
  22	1.0500e-02	0.8791	0.033996	0.000240	2.397240	0.812207	0.019329
  23	1.1000e-02	0.9337	-0.015608	-0.000123	-1.230442	-0.416885	-0.009921
  24	1.1500e-02	0.9706	0.105410	0.000300	3.001854	1.017056	0.024204
  25	1.2000e-02	0.9946	0.132350	0.000067	0.668257	0.226412	0.005388
  26	1.2500e-02	1.0331	0.215737	0.000207	2.068415	0.700798	0.016677
  27	1.3000e-02	1.0764	0.310242	0.000234	2.344204	0.794238	0.018901
  28	1.3500e-02	1.0957	0.435536	0.000311	3.107927	1.052994	0.025059
  29	1.4000e-02	1.1791	0.368827	-0.000165	-1.654732	-0.560638	-0.013342
  30	1.4500e-02	1.1823	0.529614	0.000399	3.988329	1.351282	0.032157
  31	1.5000e-02	1.2417	0.613001	0.000207	2.068415	0.700798	0.016677
  32	1.5500e-02	1.2689	0.685697	0.000180	1.803234	0.610952	0.014539
  33	1.6000e-02	1.3042	0.772933	0.000216	2.163881	0.733143	0.017447
  34	1.6500e-02	1.3540	0.852043	0.000196	1.962343	0.664860	0.015822
  35	1.7000e-02	1.4214	0.822110	-0.000074	-0.742508	-0.251569	-0.005987
  36	1.7500e-02	1.4374	1.029080	0.000513	5.133913	1.739417	0.041394
  37	1.8000e-02	1.4727	1.049179	0.000050	0.498541	0.168910	0.004020
  38	1.8500e-02	1.5192	1.138980	0.000223	2.227524	0.754706	0.017960
  39	1.9000e-02	1.5818	1.205689	0.000165	1.654732	0.560638	0.013342
  40	1.9500e-02	1.6155	1.271544	0.000163	1.633518	0.553451	0.013171
  41	2.0000e-02	1.6443	1.403680	0.000328	3.277643	1.110495	0.026427
  42	2.0500e-02	1.6796	1.407956	0.000011	0.106073	0.035938	0.000855
  43	2.1000e-02	1.7197	1.544369	0.000338	3.383715	1.146434	0.027282
  44	2.1500e-02	1.7839	1.540948	-0.000008	-0.084858	-0.028751	-0.000684
  45	2.2000e-02	1.8064	1.730813	0.000471	4.709623	1.595663	0.037973
  46	2.2500e-02	1.8433	1.782984	0.000129	1.294086	0.438448	0.010434
  47	2.3000e-02	1.8850	1.802654	0.000049	0.487934	0.165316	0.003934
  48	2.3500e-02	1.9106	1.948902	0.000363	3.627682	1.229092	0.029250
  49	2.4000e-02	1.9780	1.995941	0.000117	1.166798	0.395322	0.009408
  50	2.4500e-02	2.0165	2.008770	0.000032	0.318218	0.107815	0.002566
  51	2.5000e-02	2.0454	2.070348	0.000153	1.527445	0.517512	0.012316
  52	2.5500e-02	2.0711	2.308963	0.000592	5.918850	2.005361	0.047723
  53	2.6000e-02	2.1080	2.303404	-0.000014	-0.137894	-0.046720	-0.001112
  54	2.6500e-02	2.1577	2.391922	0.000220	2.195702	0.743924	0.017704
  55	2.7000e-02	2.2122	2.438961	0.000117	1.166798	0.395322	0.009408
  56	2.7500e-02	2.2299	2.547150	0.000268	2.683636	0.909241	0.021638
  57	2.8000e-02	2.2764	2.649352	0.000254	2.535135	0.858927	0.020440
  58	2.8500e-02	2.3374	2.706654	0.000142	1.421373	0.481574	0.011460
  59	2.9000e-02	2.3775	2.770370	0.000158	1.580481	0.535482	0.012743
  60	2.9500e-02	2.3935	2.820830	0.000125	1.251656	0.424073	0.010092
  61	3.0000e-02	2.4432	2.917473	0.000240	2.397240	0.812207	0.019329
  62	3.0500e-02	2.4914	3.002998	0.000212	2.121452	0.718767	0.017105
  63	3.1000e-02	2.5235	3.064577	0.000153	1.527445	0.517512	0.012316
  64	3.1500e-02	2.5315	3.187305	0.000304	3.044283	1.031431	0.024546
  65	3.2000e-02	2.5844	3.320296	0.000330	3.298857	1.117683	0.026598
  66	3.2500e-02	2.6678	3.319014	-0.000003	-0.031822	-0.010782	-0.000257
  67	3.3000e-02	2.6759	3.408815	0.000223	2.227524	0.754706	0.017960
  68	3.3500e-02	2.7224	3.462268	0.000133	1.325907	0.449230	0.010691
  69	3.4000e-02	2.7801	3.557201	0.000235	2.354811	0.797832	0.018987
  70	3.4500e-02	2.8042	3.620489	0.000157	1.569874	0.531888	0.012658
  71	3.5000e-02	2.8379	3.772724	0.000378	3.776184	1.279406	0.030447
  72	3.5500e-02	2.8860	3.732527	-0.000100	-0.997082	-0.337821	-0.008039
  73	3.6000e-02	2.9165	3.909136	0.000438	4.380798	1.484254	0.035322
  74	3.6500e-02	2.9534	3.960879	0.000128	1.283478	0.434854	0.010349
  75	3.7000e-02	3.0144	3.990385	0.000073	0.731901	0.247975	0.005901
  76	3.7500e-02	3.0320	4.110120	0.000297	2.970032	1.006274	0.023947
  77	3.8000e-02	3.0817	4.254658	0.000359	3.585253	1.214717	0.028907
  78	3.8500e-02	3.1475	4.184527	-0.000174	-1.739590	-0.589389	-0.014026
  79	3.9000e-02	3.1555	4.388077	0.000505	5.049055	1.710666	0.040710
  80	3.9500e-02	3.2277	4.380807	-0.000018	-0.180323	-0.061095	-0.001454
  81	4.0000e-02	3.2454	4.531759	0.000374	3.744362	1.268624	0.030190
  82	4.0500e-02	3.2807	4.645507	0.000282	2.821531	0.955960	0.022750
  83	4.1000e-02	3.3272	4.673730	0.000070	0.700079	0.237193	0.005645
  84	4.1500e-02	3.3673	4.745999	0.000179	1.792627	0.607358	0.014454
  85	4.2000e-02	3.3865	4.880273	0.000333	3.330679	1.128465	0.026855
  86	4.2500e-02	3.4298	4.920043	0.000099	0.986475	0.334227	0.007954
  87	4.3000e-02	3.4780	5.002574	0.000205	2.047201	0.693610	0.016506
  88	4.3500e-02	3.5261	5.072705	0.000174	1.739590	0.589389	0.014026
  89	4.4000e-02	3.5630	5.074415	0.000004	0.042429	0.014375	0.000342
  90	4.4500e-02	3.5855	5.247604	0.000430	4.295940	1.455504	0.034638
  91	4.5000e-02	3.6352	5.323721	0.000189	1.888092	0.639703	0.015223
  92	4.5500e-02	3.6817	5.344247	0.000051	0.509148	0.172504	0.004105
  93	4.6000e-02	3.7282	5.465265	0.000300	3.001854	1.017056	0.024204
  94	4.6500e-02	3.7635	5.500330	0.000087	0.869795	0.294695	0.007013
  95	4.7000e-02	3.7972	5.681216	0.000449	4.486870	1.520193	0.036177
  96	4.7500e-02	3.8486	5.707728	0.000066	0.657650	0.222818	0.005303
  97	4.8000e-02	3.8935	5.757333	0.000123	1.230442	0.416885	0.009921
  98	4.8500e-02	3.9256	5.854404	0.000241	2.407848	0.815801	0.019414
  99	4.9000e-02	3.9480	6.010059	0.000386	3.861042	1.308156	0.031131
 100	4.9500e-02	3.9977	5.996803	-0.000033	-0.328825	-0.111409	-0.002651
 101	5.0000e-02	4.0443	6.094302	0.000242	2.418455	0.819395	0.019500
 102	5.0500e-02	4.0892	6.095584	0.000003	0.031822	0.010782	0.000257
 103	5.1000e-02	4.1518	6.217458	0.000302	3.023069	1.024243	0.024375
 104	5.1500e-02	4.1758	6.343180	0.000312	3.118534	1.056588	0.025144
 105	5.2000e-02	4.2143	6.332917	-0.000025	-0.254574	-0.086252	-0.002053
 106	5.2500e-02	4.2560	6.486434	0.000381	3.808006	1.290187	0.030703
 107	5.3000e-02	4.2833	6.598472	0.000278	2.779102	0.941585	0.022408
 108	5.3500e-02	4.3314	6.651925	0.000133	1.325907	0.449230	0.010691
 109	5.4000e-02	4.3747	6.753272	0.000251	2.513920	0.851739	0.020269
 110	5.4500e-02	4.4100	6.849915	0.000240	2.397240	0.812207	0.019329
 111	5.5000e-02	4.4389	6.892250	0.000105	1.050119	0.355790	0.008467
 112	5.5500e-02	4.4886	6.995308	0.000256	2.556349	0.866115	0.020612
 113	5.6000e-02	4.5544	7.085965	0.000225	2.248739	0.761893	0.018131
 114	5.6500e-02	4.5544	7.097083	-0.000028	-0.275789	-0.093440	0.002224
 115	5.7000e-02	4.5929	7.251883	0.000384	3.839827	1.300969	0.030960
 116	5.7500e-02	4.6475	7.288659	0.000091	0.912224	0.309070	0.007355
 117	5.8000e-02	4.6876	7.383164	0.000234	2.344204	0.794238	0.018901
 118	5.8500e-02	4.7068	7.452867	0.000173	1.728983	0.585795	0.013941
 119	5.9000e-02	4.7549	7.526846	0.000184	1.835056	0.621734	0.014796
 120	5.9500e-02	4.7918	7.688489	0.000401	4.009544	1.358470	0.032328
 121	6.0000e-02	4.8592	7.733817	0.000112	1.124369	0.380947	0.009066
 122	6.0500e-02	4.8833	7.745790	0.000030	0.297003	0.100627	0.002395
 123	6.1000e-02	4.9090	7.898025	0.000378	3.776184	1.279406	0.030447
 124	6.1500e-02	4.9844	7.922827	0.000062	0.615221	0.208443	0.004960
 125	6.2000e-02	4.9860	8.037858	0.000285	2.853352	0.966742	0.023006
 126	6.2500e-02	5.0565	8.159732	0.000302	3.023069	1.024243	0.024375
 127	6.3000e-02	5.0886	8.141771	-0.000045	-0.445505	-0.150941	-0.003592
 128	6.3500e-02	5.1303	8.275191	0.000331	3.309465	1.121277	0.026684
 129	6.4000e-02	5.1720	8.359433	0.000209	2.089630	0.707986	0.016848
 130	6.4500e-02	5.2105	8.407754	0.000120	1.198620	0.406104	0.009664
 131	6.5000e-02	5.2571	8.508246	0.000249	2.492706	0.844552	0.020098
 132	6.5500e-02	5.2940	8.554430	0.000115	1.145584	0.388134	0.009237
 133	6.6000e-02	5.2972	8.715645	0.000400	3.998936	1.354876	0.032243
 134	6.6500e-02	5.3565	8.778078	0.000155	1.548660	0.524700	0.012487
 135	6.7000e-02	5.4127	8.893109	0.000285	2.853352	0.966742	0.023006
 136	6.7500e-02	5.4656	8.865313	-0.000069	-0.689472	-0.233599	-0.005559
 137	6.8000e-02	5.4720	8.966661	0.000251	2.513920	0.851739	0.020269
 138	6.8500e-02	5.5121	9.105639	0.000345	3.447359	1.167997	0.027796
 139	6.9000e-02	5.5779	9.180473	0.000186	1.856270	0.628921	0.014967
 140	6.9500e-02	5.5891	9.229222	0.000121	1.209227	0.409697	0.009750
 141	7.0000e-02	5.6485	9.305767	0.000190	1.898699	0.643297	0.015309
 142	7.0500e-02	5.6806	9.464844	0.000395	3.945900	1.336907	0.031815
 143	7.1000e-02	5.7127	9.482804	0.000045	0.445505	0.150941	0.003592
 144	7.1500e-02	5.7592	9.513593	0.000076	0.763723	0.258756	0.006158
 145	7.2000e-02	5.7977	9.682078	0.000418	4.179260	1.415972	0.033697
 146	7.2500e-02	5.8410	9.705169	0.000057	0.572792	0.194067	0.004618
 147	7.3000e-02	5.8715	9.846713	0.000351	3.511002	1.189560	0.028309
 148	7.3500e-02	5.9308	9.886910	0.000100	0.997082	0.337821	0.008039
 149	7.4000e-02	5.9870	9.933094	0.000115	1.145584	0.388134	0.009237
 150	7.4500e-02	6.0127	10.063947	0.000325	3.245821	1.099714	0.026171
 151	7.5000e-02	6.0431	10.146906	0.000206	2.057808	0.697204	0.016592
 152	7.5500e-02	6.0849	10.190952	0.000109	1.092548	0.370165	0.008809
 153	7.6000e-02	6.1378	10.295720	0.000260	2.598778	0.880490	0.020954
 154	7.6500e-02	6.1635	10.353449	0.000143	1.431980	0.485168	0.011546
 155	7.7000e-02	6.2052	10.482592	0.000320	3.203392	1.085339	0.025829
 156	7.7500e-02	6.2501	10.550585	0.000169	1.686554	0.571420	0.013598
 157	7.8000e-02	6.2806	10.616867	0.000164	1.644125	0.557045	0.013256
 158	7.8500e-02	6.3383	10.628412	0.000029	0.286396	0.097034	0.002309
 159	7.9000e-02	6.3512	10.746865	0.000294	2.938211	0.995493	0.023690
 160	7.9500e-02	6.4089	10.901237	0.000383	3.829220	1.297375	0.030875
 161	8.0000e-02	6.4474	10.973078	0.000178	1.782019	0.603765	0.014368
 162	8.0500e-02	6.4971	11.030808	0.000143	1.431980	0.485168	0.011546
 163	8.1000e-02	6.4811	11.180049	-0.000370	-3.701933	-1.254249	0.029848
 164	8.1500e-02	6.5533	11.226233	0.000115	1.145584	0.388134	0.009237
 165	8.2000e-02	6.5902	11.232647	0.000016	0.159109	0.053908	0.001283
 166	8.2500e-02	6.6367	11.359652	0.000315	3.150356	1.067369	0.025401
 167	8.3000e-02	6.6720	11.452874	0.000231	2.312382	0.783456	0.018644
 168	8.3500e-02	6.7458	11.537116	0.000209	2.089630	0.707986	0.016848
 169	8.4000e-02	6.7586	11.567477	0.000075	0.753115	0.255162	0.006072
 170	8.4500e-02	6.8180	11.678660	0.000276	2.757887	0.934397	0.022237
 171	8.5000e-02	6.8388	11.785566	0.000265	2.651815	0.898459	0.021381
 172	8.5500e-02	6.8902	11.783856	-0.000004	-0.042429	-0.014375	-0.000342
 173	8.6000e-02	6.9014	11.896749	0.000280	2.800316	0.948773	0.022579
 174	8.6500e-02	6.9704	11.997241	0.000249	2.492706	0.844552	0.020098
 175	8.7000e-02	6.9993	12.064378	0.000167	1.665340	0.564232	0.013427
 176	8.7500e-02	7.0362	12.158028	0.000232	2.322990	0.787050	0.018730
 177	8.8000e-02	7.0682	12.245264	0.000216	2.163881	0.733143	0.017447
 178	8.8500e-02	7.1420	12.289309	0.000109	1.092548	0.370165	0.008809
 179	8.9000e-02	7.1533	12.432991	0.000356	3.564039	1.207529	0.028736
 180	8.9500e-02	7.2110	12.469339	0.000090	0.901617	0.305476	0.007270
 181	9.0000e-02	7.2479	12.570686	0.000251	2.513920	0.851739	0.020269
 182	9.0500e-02	7.2961	12.627561	0.000141	1.410765	0.477980	0.011375
 183	9.1000e-02	7.2864	12.842228	-0.000532	-5.324844	-1.804106	0.042934
 184	9.1500e-02	7.3650	12.852064	0.000024	0.243967	0.082658	0.001967
 185	9.2000e-02	7.4051	12.920056	0.000169	1.686554	0.571420	0.013598
 186	9.2500e-02	7.4485	12.995318	0.000187	1.866877	0.632515	0.015052
 187	9.3000e-02	7.4998	13.031666	0.000090	0.901617	0.305476	0.007270
 188	9.3500e-02	7.4982	13.242913	-0.000524	-5.239986	-1.775355	0.042249
 189	9.4000e-02	7.5527	13.254459	0.000029	0.286396	0.097034	0.002309
 190	9.4500e-02	7.5993	13.380609	0.000313	3.129141	1.060182	0.025230
 191	9.5000e-02	7.6458	13.344688	-0.000089	-0.891010	-0.301882	-0.007184
 192	9.5500e-02	7.6730	13.558501	0.000530	5.303629	1.796918	0.042763
 193	9.6000e-02	7.7244	13.510179	-0.000120	-1.198620	-0.406104	-0.009664
 194	9.6500e-02	7.7597	13.665835	0.000386	3.861042	1.308156	0.031131
 195	9.7000e-02	7.7918	13.763761	0.000243	2.429062	0.822989	0.019585
 196	9.7500e-02	7.8431	13.823628	0.000149	1.485016	0.503137	0.011974
 197	9.8000e-02	7.8848	13.872378	0.000121	1.209227	0.409697	0.009750
 198	9.8500e-02	7.9185	13.990830	0.000294	2.938211	0.995493	0.023690
 199	9.9000e-02	7.9554	14.125104	0.000333	3.330679	1.128465	0.026855
 200	9.9500e-02	7.9923	14.142637	0.000043	0.434898	0.147347	0.003507
 201	1.0000e-01	8.0436	14.191386	0.000121	1.209227	0.409697	0.009750
 202	1.0050e-01	8.0773	14.338062	0.000364	3.638290	1.232686	0.029335
 203	1.0100e-01	8.1030	14.429146	0.000226	2.259346	0.765487	0.018217
 204	1.0150e-01	8.1479	14.488158	0.000146	1.463802	0.495949	0.011802
 205	1.0200e-01	8.1880	14.576249	0.000219	2.185095	0.740330	0.017618
 206	1.0250e-01	8.2442	14.651939	0.000188	1.877485	0.636109	0.015138
 207	1.0300e-01	8.2955	14.731477	0.000197	1.972950	0.668454	0.015908
 208	1.0350e-01	8.3228	14.765259	0.000084	0.837973	0.283913	0.006756
 209	1.0400e-01	8.3613	14.856343	0.000226	2.259346	0.765487	0.018217
 210	1.0450e-01	8.4142	14.943151	0.000215	2.153273	0.729549	0.017362
 211	1.0500e-01	8.4623	14.980782	0.000093	0.933439	0.316258	0.007526
 212	1.0550e-01	8.4912	15.124465	0.000356	3.564039	1.207529	0.028736
 213	1.0600e-01	8.5217	15.201437	0.000191	1.909306	0.646891	0.015395
 214	1.0650e-01	8.5762	15.252752	0.000127	1.272871	0.431260	0.010263
 215	1.0700e-01	8.6019	15.412256	0.000396	3.956507	1.340501	0.031901
 216	1.0750e-01	8.6099	15.500347	0.000219	2.185095	0.740330	0.017618
 217	1.0800e-01	8.6853	15.551662	0.000127	1.272871	0.431260	0.010263
 218	1.0850e-01	8.7367	15.659424	0.000267	2.673029	0.905647	0.021552
 219	1.0900e-01	8.7639	15.745376	0.000213	2.132059	0.722361	0.017191
 220	1.0950e-01	8.8137	15.725278	-0.000050	-0.498541	-0.168910	-0.004020
 221	1.1000e-01	8.8409	15.962610	0.000589	5.887028	1.994579	0.047466
 222	1.1050e-01	8.8794	15.962182	-0.000001	-0.010607	-0.003594	-0.000086
 223	1.1100e-01	8.9340	15.992116	0.000074	0.742508	0.251569	0.005987
 224	1.1150e-01	8.9596	16.124680	0.000329	3.288250	1.114089	0.026513
 225	1.1200e-01	8.9869	16.231159	0.000264	2.641207	0.894865	0.021296
 226	1.1250e-01	9.0543	16.214909	-0.000040	-0.403076	-0.136566	-0.003250
 227	1.1300e-01	9.1104	16.326947	0.000278	2.779102	0.941585	0.022408
 228	1.1350e-01	9.1281	16.486023	0.000395	3.945900	1.336907	0.031815
 229	1.1400e-01	9.1714	16.490300	0.000011	0.106073	0.035938	0.000855
 230	1.1450e-01	9.2243	16.611745	0.000301	3.012461	1.020650	0.024289
 231	1.1500e-01	9.2484	16.799473	0.000466	4.656586	1.577694	0.037545
 232	1.1550e-01	9.2901	16.794769	-0.000012	-0.116680	-0.039532	-0.000941
 233	1.1600e-01	9.3190	16.869603	0.000186	1.856270	0.628921	0.014967
 234	1.1650e-01	9.3591	16.902103	0.000081	0.806152	0.273132	0.006500
 235	1.1700e-01	9.4345	16.960260	0.000144	1.442587	0.488762	0.011631
 236	1.1750e-01	9.4377	17.110356	0.000372	3.723148	1.261437	0.030019
 237	1.1800e-01	9.5035	17.184763	0.000185	1.845663	0.625328	0.014881
 238	1.1850e-01	9.5131	17.307492	0.000304	3.044283	1.031431	0.024546
 239	1.1900e-01	9.5773	17.375056	0.000168	1.675947	0.567826	0.013513
 240	1.1950e-01	9.6238	17.460581	0.000212	2.121452	0.718767	0.017105
 241	1.2000e-01	9.6414	17.547389	0.000215	2.153273	0.729549	0.017362
 242	1.2050e-01	9.7008	17.552521	0.000013	0.127287	0.043126	0.001026
 243	1.2100e-01	9.7345	17.665414	0.000280	2.800316	0.948773	0.022579
 244	1.2150e-01	9.7521	17.808668	0.000355	3.553432	1.203935	0.028651
 245	1.2200e-01	9.8083	17.848438	0.000099	0.986475	0.334227	0.007954
 246	1.2250e-01	9.8179	18.035737	0.000465	4.645979	1.574100	0.037460
 247	1.2300e-01	9.8901	18.015639	-0.000050	-0.498541	-0.168910	-0.004020
 248	1.2350e-01	9.9382	18.097315	0.000203	2.025986	0.686423	0.016335
 249	1.2400e-01	9.9591	18.185406	0.000219	2.185095	0.740330	0.017618
 250	1.2450e-01	10.0040	18.314549	0.000320	3.203392	1.085339	0.025829
 251	1.2500e-01	10.0457	18.304286	-0.000025	-0.254574	-0.086252	-0.002053
 252	1.2550e-01	10.1035	18.445402	0.000350	3.500395	1.185966	0.028223
 253	1.2600e-01	10.1211	18.458231	0.000032	0.318218	0.107815	0.002566
 254	1.2650e-01	10.1548	18.604907	0.000364	3.638290	1.232686	0.029335
 255	1.2700e-01	10.1933	18.723786	0.000295	2.948818	0.999087	0.023776
 256	1.2750e-01	10.2398	18.791351	0.000168	1.675947	0.567826	0.013513
 257	1.2800e-01	10.2687	18.850791	0.000147	1.474409	0.499543	0.011888
 258	1.2850e-01	10.3297	18.961974	0.000276	2.757887	0.934397	0.022237
 259	1.2900e-01	10.3746	19.013716	0.000128	1.283478	0.434854	0.010349
 260	1.2950e-01	10.4307	19.061183	0.000118	1.177406	0.398916	0.009493
 261	1.3000e-01	10.4500	19.102662	0.000103	1.028904	0.348602	0.008296
