»»»»»»»»»»»»»»»»»»»»»»»»»»»»»»»»»»»» Hysteresis ««««««««««««««««««««««««««««««««««««
»»»  Executed Version:	5.48.1
»»»  Vision Version:	5.48.4 (R)
»»»  Vision Compiled:	9/18/24
»»»  Driver Version:	5.47.0
»»»  Windows Version:	Windows 8 or 8.1
»»»  Processor Information:	x86 (AMD or Intel) - 32 Processors
»»»  Tester Name:	PMF21124-494 (100V)
»»»  Tester S/N:	PMF21124-494
»»»  Internal Amp Type:	100V RevK 270k
»»»  Internal Amp S/N:	iAB2-596/K     
»»»  Execution Count:	1
»»»»»»»»»»»»»»»»»»»»»»»»»»»»»»»»»»»»»»»»»»««««««««««««««««««««««««««««««««««««««««««

Stored:	6/19/2025 - 11:48:26
Configured:	06/19/25 10:04:32 AM
Executed:	06/19/25 11:48:03 AM

»»»»»»»»»»»»»»»»»»»»»»»»»»»»»»»»»»» Sample Info ««««««««««««««««««««««««««««««««««««
Sample Name:	
Lot Name:	
Wafer Name:	
Die Row/Column:	0/0
Capacitor Number:	0
Sample Area (cm2):	1.00e-04
Sample Thickness (microns):	3.00e-01

Amplifier:	Internal

»»»»»»»»»»»»»»»»»»»»»»»»»»»»»»»»»»» Tester Info «««««««««««««««««««««««««««««««««««
Tester Name:	PMF21124-494 (100V)
Tester Serial Number:	PMF21124-494
Return Signal Amp. Level:	1.79 [Index: 2]

»»»»»»»»»»»»»»»»»»»»»»»»»»»»»»»» Hysteresis Info ««««««««««««««««««««««««««««««««««
Task Name:	Hyst-1168
Volts:	20.00
Field:	666.67 (kV/cm)
DCBias:	0.00
DCField:	0.00 (kV/cm)
Hysteresis Period (ms):	1.00e+00
Preset:	Enabled
Preset Delay (ms):	1.00e+03
Profile:	Standard Bipolar

»»»»»»»»»»»»»»»»»»»»»»»»»»»»»»»»»»»»»» Data «««««««««««««««««««««««««««««««««««««««
Points:	2001

Valid Data

Point	Time (ms)	Drive Voltage	Measured Polarization (uC/cm2)	Capacitance (uF)	Normalized Capacitance (uF/cm2)	Dielectric Constant	Instantaneous Current (mA)
   1	0.0000e+00	0.0497	-1.590338	0.000063	0.633855	0.214756	0.005132
   2	5.0000e-04	0.1075	-1.564681	0.000063	0.633855	0.214756	0.005132
   3	1.0000e-03	0.1428	-1.540306	0.000060	0.602163	0.204018	0.004875
   4	1.5000e-03	0.1684	-1.474024	0.000164	1.637460	0.554786	0.013256
   5	2.0000e-03	0.2262	-1.420144	0.000133	1.331096	0.450988	0.010776
   6	2.5000e-03	0.2503	-1.346164	0.000183	1.827616	0.619213	0.014796
   7	3.0000e-03	0.2823	-1.273468	0.000180	1.795924	0.608475	0.014539
   8	3.5000e-03	0.3337	-1.214028	0.000147	1.468432	0.497518	0.011888
   9	4.0000e-03	0.3786	-1.146891	0.000166	1.658588	0.561945	0.013427
  10	4.5000e-03	0.3962	-1.077188	0.000172	1.721974	0.583420	0.013941
  11	5.0000e-03	0.4652	-1.013472	0.000157	1.574074	0.533311	0.012743
  12	5.5000e-03	0.4636	-0.918539	-0.000235	-2.345265	-0.794597	0.018987
  13	6.0000e-03	0.5567	-0.867652	0.000126	1.257146	0.425933	0.010177
  14	6.5000e-03	0.5952	-0.800942	0.000165	1.648024	0.558366	0.013342
  15	7.0000e-03	0.6321	-0.732522	0.000169	1.690281	0.572683	0.013684
  16	7.5000e-03	0.6593	-0.658115	0.000184	1.838181	0.622792	0.014881
  17	8.0000e-03	0.6978	-0.587985	0.000173	1.732538	0.587000	0.014026
  18	8.5000e-03	0.7315	-0.523841	0.000158	1.584638	0.536890	0.012829
  19	9.0000e-03	0.7716	-0.460125	0.000157	1.574074	0.533311	0.012743
  20	9.5000e-03	0.8133	-0.382725	0.000191	1.912130	0.647847	0.015480
  21	1.0000e-02	0.8583	-0.314732	0.000168	1.679717	0.569103	0.013598
  22	1.0500e-02	0.8936	-0.234339	0.000199	1.986080	0.672902	0.016079
  23	1.1000e-02	0.9561	-0.177892	0.000139	1.394482	0.472463	0.011289
  24	1.1500e-02	0.9641	-0.098354	0.000196	1.964952	0.665744	0.015908
  25	1.2000e-02	1.0123	-0.028223	0.000173	1.732538	0.587000	0.014026
  26	1.2500e-02	1.0508	0.040197	0.000169	1.690281	0.572683	0.013684
  27	1.3000e-02	1.0957	0.113321	0.000181	1.806488	0.612055	0.014625
  28	1.3500e-02	1.1550	0.170195	0.000141	1.405046	0.476042	0.011375
  29	1.4000e-02	1.1743	0.251444	0.000201	2.007209	0.680061	0.016250
  30	1.4500e-02	1.2096	0.317726	0.000164	1.637460	0.554786	0.013256
  31	1.5000e-02	1.2593	0.395981	0.000193	1.933259	0.655006	0.015651
  32	1.5500e-02	1.2946	0.471243	0.000186	1.859309	0.629951	0.015052
  33	1.6000e-02	1.3492	0.525979	0.000135	1.352225	0.458146	0.010947
  34	1.6500e-02	1.3604	0.598675	0.000180	1.795924	0.608475	0.014539
  35	1.7000e-02	1.4246	0.677786	0.000195	1.954387	0.662164	0.015822
  36	1.7500e-02	1.4663	0.738936	0.000151	1.510689	0.511835	0.012230
  37	1.8000e-02	1.5353	0.806929	0.000168	1.679717	0.569103	0.013598
  38	1.8500e-02	1.5481	0.888605	0.000202	2.017773	0.683640	0.016335
  39	1.9000e-02	1.5641	0.960874	0.000179	1.785359	0.604896	0.014454
  40	1.9500e-02	1.6042	1.030149	0.000171	1.711409	0.579841	0.013855
  41	2.0000e-02	1.6828	1.090872	0.000150	1.500124	0.508256	0.012145
  42	2.0500e-02	1.6652	1.175970	-0.000210	-2.102287	-0.712274	0.017019
  43	2.1000e-02	1.7534	1.237975	0.000153	1.531817	0.518994	0.012401
  44	2.1500e-02	1.7743	1.320934	0.000205	2.049466	0.694378	0.016592
  45	2.2000e-02	1.8160	1.400473	0.000196	1.964952	0.665744	0.015908
  46	2.2500e-02	1.8561	1.448367	0.000118	1.183197	0.400878	0.009579
  47	2.3000e-02	1.9187	1.518925	0.000174	1.743102	0.590579	0.014112
  48	2.3500e-02	1.9187	1.603167	-0.000208	-2.081158	-0.705116	0.016848
  49	2.4000e-02	1.9604	1.668594	0.000162	1.616331	0.547628	0.013085
  50	2.4500e-02	2.0101	1.743001	0.000184	1.838181	0.622792	0.014881
  51	2.5000e-02	2.0438	1.813559	0.000174	1.743102	0.590579	0.014112
  52	2.5500e-02	2.0695	1.888393	0.000185	1.848745	0.626372	0.014967
  53	2.6000e-02	2.1561	1.955530	0.000166	1.658588	0.561945	0.013427
  54	2.6500e-02	2.1753	2.029937	0.000184	1.838181	0.622792	0.014881
  55	2.7000e-02	2.2154	2.097930	0.000168	1.679717	0.569103	0.013598
  56	2.7500e-02	2.2491	2.177468	0.000196	1.964952	0.665744	0.015908
  57	2.8000e-02	2.2989	2.246316	0.000170	1.700845	0.576262	0.013770
  58	2.8500e-02	2.3326	2.310887	0.000160	1.595203	0.540469	0.012914
  59	2.9000e-02	2.3823	2.390425	0.000196	1.964952	0.665744	0.015908
  60	2.9500e-02	2.4208	2.463977	0.000182	1.817052	0.615634	0.014710
  61	3.0000e-02	2.4834	2.525555	0.000152	1.521253	0.515414	0.012316
  62	3.0500e-02	2.4689	2.617067	-0.000226	-2.260751	-0.765963	0.018302
  63	3.1000e-02	2.5090	2.673086	0.000138	1.383918	0.468884	0.011204
  64	3.1500e-02	2.5796	2.744927	0.000177	1.774795	0.601317	0.014368
  65	3.2000e-02	2.5812	2.820616	0.000187	1.869873	0.633530	0.015138
  66	3.2500e-02	2.6646	2.882622	0.000153	1.531817	0.518994	0.012401
  67	3.3000e-02	2.6887	2.957029	0.000184	1.838181	0.622792	0.014881
  68	3.3500e-02	2.7464	3.024594	0.000167	1.669152	0.565524	0.013513
  69	3.4000e-02	2.7721	3.112684	0.000218	2.176237	0.737329	0.017618
  70	3.4500e-02	2.8090	3.190940	0.000193	1.933259	0.655006	0.015651
  71	3.5000e-02	2.8684	3.256366	0.000162	1.616331	0.547628	0.013085
  72	3.5500e-02	2.8764	3.305971	0.000123	1.225454	0.415195	0.009921
  73	3.6000e-02	2.9181	3.394489	0.000219	2.186801	0.740908	0.017704
  74	3.6500e-02	2.9839	3.466330	0.000177	1.774795	0.601317	0.014368
  75	3.7000e-02	3.0400	3.549290	0.000205	2.049466	0.694378	0.016592
  76	3.7500e-02	3.0577	3.627973	0.000194	1.943823	0.658585	0.015737
  77	3.8000e-02	3.0914	3.687413	0.000147	1.468432	0.497518	0.011888
  78	3.8500e-02	3.1202	3.759681	0.000179	1.785359	0.604896	0.014454
  79	3.9000e-02	3.1908	3.847772	0.000218	2.176237	0.737329	0.017618
  80	3.9500e-02	3.2149	3.917903	0.000173	1.732538	0.587000	0.014026
  81	4.0000e-02	3.2678	3.980764	0.000155	1.552946	0.526152	0.012572
  82	4.0500e-02	3.3095	4.062012	0.000201	2.007209	0.680061	0.016250
  83	4.1000e-02	3.3448	4.124873	0.000155	1.552946	0.526152	0.012572
  84	4.1500e-02	3.3833	4.201418	0.000189	1.891002	0.640689	0.015309
  85	4.2000e-02	3.4218	4.276253	0.000185	1.848745	0.626372	0.014967
  86	4.2500e-02	3.4603	4.355791	0.000196	1.964952	0.665744	0.015908
  87	4.3000e-02	3.5069	4.430198	0.000184	1.838181	0.622792	0.014881
  88	4.3500e-02	3.5389	4.503749	0.000182	1.817052	0.615634	0.014710
  89	4.4000e-02	3.5919	4.570887	0.000166	1.658588	0.561945	0.013427
  90	4.4500e-02	3.6063	4.643155	0.000179	1.785359	0.604896	0.014454
  91	4.5000e-02	3.6641	4.724404	0.000201	2.007209	0.680061	0.016250
  92	4.5500e-02	3.7122	4.798383	0.000183	1.827616	0.619213	0.014796
  93	4.6000e-02	3.7330	4.878777	0.000199	1.986080	0.672902	0.016079
  94	4.6500e-02	3.7603	4.942065	0.000156	1.563510	0.529731	0.012658
  95	4.7000e-02	3.8470	5.009202	0.000166	1.658588	0.561945	0.013427
  96	4.7500e-02	3.8614	5.082754	0.000182	1.817052	0.615634	0.014710
  97	4.8000e-02	3.8903	5.152457	0.000172	1.721974	0.583420	0.013941
  98	4.8500e-02	3.9496	5.243113	0.000224	2.239622	0.758805	0.018131
  99	4.9000e-02	3.9769	5.306830	0.000157	1.574074	0.533311	0.012743
 100	4.9500e-02	4.0314	5.370546	0.000157	1.574074	0.533311	0.012743
 101	5.0000e-02	4.0972	5.444097	0.000182	1.817052	0.615634	0.014710
 102	5.0500e-02	4.0876	5.531761	-0.000217	-2.165672	-0.733750	0.017533
 103	5.1000e-02	4.1534	5.607023	0.000186	1.859309	0.629951	0.015052
 104	5.1500e-02	4.1790	5.680147	0.000181	1.806488	0.612055	0.014625
 105	5.2000e-02	4.2031	5.746856	0.000165	1.648024	0.558366	0.013342
 106	5.2500e-02	4.2624	5.823829	0.000190	1.901566	0.644268	0.015395
 107	5.3000e-02	4.3186	5.893532	0.000172	1.721974	0.583420	0.013941
 108	5.3500e-02	4.3507	5.979057	0.000211	2.112851	0.715853	0.017105
 109	5.4000e-02	4.3876	6.048332	0.000171	1.711409	0.579841	0.013855
 110	5.4500e-02	4.4165	6.126587	0.000193	1.933259	0.655006	0.015651
 111	5.5000e-02	4.4598	6.198428	0.000177	1.774795	0.601317	0.014368
 112	5.5500e-02	4.5095	6.275401	0.000190	1.901566	0.644268	0.015395
 113	5.6000e-02	4.5239	6.338689	0.000156	1.563510	0.529731	0.012658
 114	5.6500e-02	4.5624	6.414379	0.000187	1.869873	0.633530	0.015138
 115	5.7000e-02	4.6138	6.501187	0.000214	2.144544	0.726591	0.017362
 116	5.7500e-02	4.6619	6.579442	0.000193	1.933259	0.655006	0.015651
 117	5.8000e-02	4.7036	6.652566	0.000181	1.806488	0.612055	0.014625
 118	5.8500e-02	4.7180	6.721414	0.000170	1.700845	0.576262	0.013770
 119	5.9000e-02	4.7678	6.803518	0.000203	2.028337	0.687219	0.016421
 120	5.9500e-02	4.8159	6.878780	0.000186	1.859309	0.629951	0.015052
 121	6.0000e-02	4.8785	6.938648	0.000148	1.478996	0.501097	0.011974
 122	6.0500e-02	4.9106	7.025883	0.000216	2.155108	0.730170	0.017447
 123	6.1000e-02	4.9138	7.109698	0.000207	2.070594	0.701536	0.016763
 124	6.1500e-02	4.9956	7.148184	0.000095	0.950783	0.322134	0.007697
 125	6.2000e-02	5.0212	7.233282	0.000210	2.102287	0.712274	0.017019
 126	6.2500e-02	5.0501	7.321800	0.000219	2.186801	0.740908	0.017704
 127	6.3000e-02	5.0870	7.385516	0.000157	1.574074	0.533311	0.012743
 128	6.3500e-02	5.1319	7.480449	0.000235	2.345265	0.794597	0.018987
 129	6.4000e-02	5.1737	7.554856	0.000184	1.838181	0.622792	0.014881
 130	6.4500e-02	5.2170	7.612158	0.000142	1.415610	0.479622	0.011460
 131	6.5000e-02	5.2667	7.678012	0.000163	1.626895	0.551207	0.013171
 132	6.5500e-02	5.2956	7.769096	0.000225	2.250187	0.762384	0.018217
 133	6.6000e-02	5.3437	7.838371	0.000171	1.711409	0.579841	0.013855
 134	6.6500e-02	5.3613	7.922613	0.000208	2.081158	0.705116	0.016848
 135	6.7000e-02	5.4031	8.011560	0.000220	2.197365	0.744487	0.017789
 136	6.7500e-02	5.4688	8.069717	0.000144	1.436739	0.486780	0.011631
 137	6.8000e-02	5.4801	8.149682	0.000198	1.975516	0.669323	0.015993
 138	6.8500e-02	5.5458	8.232214	0.000204	2.038901	0.690798	0.016506
 139	6.9000e-02	5.5843	8.287378	0.000136	1.362789	0.461725	0.011033
 140	6.9500e-02	5.6293	8.376324	0.000220	2.197365	0.744487	0.017789
 141	7.0000e-02	5.6469	8.455007	0.000194	1.943823	0.658585	0.015737
 142	7.0500e-02	5.7175	8.519578	0.000160	1.595203	0.540469	0.012914
 143	7.1000e-02	5.7319	8.603393	0.000207	2.070594	0.701536	0.016763
 144	7.1500e-02	5.7688	8.687207	0.000207	2.070594	0.701536	0.016763
 145	7.2000e-02	5.8137	8.755200	0.000168	1.679717	0.569103	0.013598
 146	7.2500e-02	5.8202	8.840297	0.000210	2.102287	0.712274	0.017019
 147	7.3000e-02	5.9068	8.898882	0.000145	1.447303	0.490360	0.011717
 148	7.3500e-02	5.9421	8.974572	0.000187	1.869873	0.633530	0.015138
 149	7.4000e-02	5.9549	9.072925	0.000243	2.429779	0.823231	0.019671
 150	7.4500e-02	6.0496	9.124240	0.000127	1.267711	0.429512	0.010263
 151	7.5000e-02	6.0367	9.218746	-0.000233	-2.334701	-0.791018	0.018901
 152	7.5500e-02	6.1025	9.286738	0.000168	1.679717	0.569103	0.013598
 153	7.6000e-02	6.1250	9.376539	0.000222	2.218494	0.751646	0.017960
 154	7.6500e-02	6.1554	9.437262	0.000150	1.500124	0.508256	0.012145
 155	7.7000e-02	6.2084	9.522787	0.000211	2.112851	0.715853	0.017105
 156	7.7500e-02	6.2677	9.590352	0.000167	1.669152	0.565524	0.013513
 157	7.8000e-02	6.3046	9.657489	0.000166	1.658588	0.561945	0.013427
 158	7.8500e-02	6.3255	9.744297	0.000214	2.144544	0.726591	0.017362
 159	7.9000e-02	6.3688	9.823835	0.000196	1.964952	0.665744	0.015908
 160	7.9500e-02	6.4121	9.896532	0.000180	1.795924	0.608475	0.014539
 161	8.0000e-02	6.4426	9.986761	0.000223	2.229058	0.755225	0.018046
 162	8.0500e-02	6.5212	10.055608	0.000170	1.700845	0.576262	0.013770
 163	8.1000e-02	6.5260	10.157811	0.000252	2.524857	0.855445	0.020440
 164	8.1500e-02	6.5790	10.211692	0.000133	1.331096	0.450988	0.010776
 165	8.2000e-02	6.6143	10.291657	0.000198	1.975516	0.669323	0.015993
 166	8.2500e-02	6.6415	10.350670	0.000146	1.457867	0.493939	0.011802
 167	8.3000e-02	6.6961	10.425504	0.000185	1.848745	0.626372	0.014967
 168	8.3500e-02	6.7201	10.501621	0.000188	1.880438	0.637109	0.015223
 169	8.4000e-02	6.7699	10.582870	0.000201	2.007209	0.680061	0.016250
 170	8.4500e-02	6.8276	10.645304	0.000154	1.542381	0.522573	0.012487
 171	8.5000e-02	6.8533	10.724414	0.000195	1.954387	0.662164	0.015822
 172	8.5500e-02	6.8934	10.807374	0.000205	2.049466	0.694378	0.016592
 173	8.6000e-02	6.9303	10.885201	0.000192	1.922695	0.651427	0.015566
 174	8.6500e-02	6.9704	10.963457	0.000193	1.933259	0.655006	0.015651
 175	8.7000e-02	7.0378	11.041712	0.000193	1.933259	0.655006	0.015651
 176	8.7500e-02	7.0650	11.113981	0.000179	1.785359	0.604896	0.014454
 177	8.8000e-02	7.0731	11.212762	0.000244	2.440343	0.826811	0.019756
 178	8.8500e-02	7.1404	11.277334	0.000160	1.595203	0.540469	0.012914
 179	8.9000e-02	7.1565	11.348747	0.000176	1.764231	0.597738	0.014283
 180	8.9500e-02	7.2223	11.421871	0.000181	1.806488	0.612055	0.014625
 181	9.0000e-02	7.2447	11.497988	0.000188	1.880438	0.637109	0.015223
 182	9.0500e-02	7.2768	11.591211	0.000230	2.303008	0.780280	0.018644
 183	9.1000e-02	7.3313	11.657493	0.000164	1.637460	0.554786	0.013256
 184	9.1500e-02	7.3650	11.731899	0.000184	1.838181	0.622792	0.014881
 185	9.2000e-02	7.4276	11.809300	0.000191	1.912130	0.647847	0.015480
 186	9.2500e-02	7.4212	11.896535	-0.000216	-2.155108	-0.730170	0.017447
 187	9.3000e-02	7.5014	11.970087	0.000182	1.817052	0.615634	0.014710
 188	9.3500e-02	7.5319	12.036796	0.000165	1.648024	0.558366	0.013342
 189	9.4000e-02	7.5688	12.124032	0.000216	2.155108	0.730170	0.017447
 190	9.4500e-02	7.6185	12.185182	0.000151	1.510689	0.511835	0.012230
 191	9.5000e-02	7.6329	12.274984	0.000222	2.218494	0.751646	0.017960
 192	9.5500e-02	7.6939	12.364785	0.000222	2.218494	0.751646	0.017960
 193	9.6000e-02	7.7292	12.426790	0.000153	1.531817	0.518994	0.012401
 194	9.6500e-02	7.7565	12.510605	0.000207	2.070594	0.701536	0.016763
 195	9.7000e-02	7.7853	12.588433	0.000192	1.922695	0.651427	0.015566
 196	9.7500e-02	7.8415	12.676524	0.000218	2.176237	0.737329	0.017618
 197	9.8000e-02	7.8960	12.743233	0.000165	1.648024	0.558366	0.013342
 198	9.8500e-02	7.9506	12.818923	0.000187	1.869873	0.633530	0.015138
 199	9.9000e-02	7.9586	12.903165	0.000208	2.081158	0.705116	0.016848
 200	9.9500e-02	8.0212	12.963460	0.000149	1.489560	0.504677	0.012059
 201	1.0000e-01	8.0516	13.055827	0.000228	2.281879	0.773122	0.018473
 202	1.0050e-01	8.1206	13.113129	0.000142	1.415610	0.479622	0.011460
 203	1.0100e-01	8.1206	13.215759	-0.000254	-2.535421	-0.859024	0.020526
 204	1.0150e-01	8.1720	13.283752	0.000168	1.679717	0.569103	0.013598
 205	1.0200e-01	8.1736	13.370132	0.000213	2.133980	0.723012	0.017276
 206	1.0250e-01	8.2602	13.438124	0.000168	1.679717	0.569103	0.013598
 207	1.0300e-01	8.3099	13.512103	0.000183	1.827616	0.619213	0.014796
 208	1.0350e-01	8.3661	13.585227	0.000181	1.806488	0.612055	0.014625
 209	1.0400e-01	8.3645	13.672035	-0.000214	-2.144544	-0.726591	0.017362
 210	1.0450e-01	8.3966	13.749008	0.000190	1.901566	0.644268	0.015395
 211	1.0500e-01	8.4367	13.824698	0.000187	1.869873	0.633530	0.015138
 212	1.0550e-01	8.4575	13.901242	0.000189	1.891002	0.640689	0.015309
 213	1.0600e-01	8.5249	13.993182	0.000227	2.271315	0.769542	0.018388
 214	1.0650e-01	8.5730	14.072720	0.000196	1.964952	0.665744	0.015908
 215	1.0700e-01	8.6532	14.127029	0.000134	1.341660	0.454567	0.010862
 216	1.0750e-01	8.6436	14.226238	-0.000245	-2.450907	-0.830390	0.019842
 217	1.0800e-01	8.6982	14.278836	0.000130	1.299403	0.440250	0.010520
 218	1.0850e-01	8.7495	14.362222	0.000206	2.060030	0.697957	0.016677
 219	1.0900e-01	8.7639	14.442188	0.000198	1.975516	0.669323	0.015993
 220	1.0950e-01	8.8153	14.514885	0.000180	1.795924	0.608475	0.014539
 221	1.1000e-01	8.8457	14.600410	0.000211	2.112851	0.715853	0.017105
 222	1.1050e-01	8.8858	14.683797	0.000206	2.060030	0.697957	0.016677
 223	1.1100e-01	8.9308	14.747940	0.000158	1.584638	0.536890	0.012829
 224	1.1150e-01	8.9773	14.832610	0.000209	2.091723	0.708695	0.016934
 225	1.1200e-01	9.0062	14.916425	0.000207	2.070594	0.701536	0.016763
 226	1.1250e-01	9.0639	14.977148	0.000150	1.500124	0.508256	0.012145
 227	1.1300e-01	9.1072	15.067804	0.000224	2.239622	0.758805	0.018131
 228	1.1350e-01	9.1473	15.136224	0.000169	1.690281	0.572683	0.013684
 229	1.1400e-01	9.1714	15.227308	0.000225	2.250187	0.762384	0.018217
 230	1.1450e-01	9.2195	15.295728	0.000169	1.690281	0.572683	0.013684
 231	1.1500e-01	9.2484	15.382964	0.000216	2.155108	0.730170	0.017447
 232	1.1550e-01	9.2821	15.466779	0.000207	2.070594	0.701536	0.016763
 233	1.1600e-01	9.3094	15.536481	0.000172	1.721974	0.583420	0.013941
 234	1.1650e-01	9.3655	15.621579	0.000210	2.102287	0.712274	0.017019
 235	1.1700e-01	9.4265	15.689999	0.000169	1.690281	0.572683	0.013684
 236	1.1750e-01	9.4570	15.767827	0.000192	1.922695	0.651427	0.015566
 237	1.1800e-01	9.4971	15.849503	0.000202	2.017773	0.683640	0.016335
 238	1.1850e-01	9.5275	15.925193	0.000187	1.869873	0.633530	0.015138
 239	1.1900e-01	9.5725	15.988054	0.000155	1.552946	0.526152	0.012572
 240	1.1950e-01	9.6061	16.080421	0.000228	2.281879	0.773122	0.018473
 241	1.2000e-01	9.6607	16.152689	0.000179	1.785359	0.604896	0.014454
 242	1.2050e-01	9.6944	16.230945	0.000193	1.933259	0.655006	0.015651
 243	1.2100e-01	9.7345	16.342983	0.000277	2.767835	0.937768	0.022408
 244	1.2150e-01	9.7521	16.393015	0.000124	1.236018	0.418774	0.010006
 245	1.2200e-01	9.8227	16.455448	0.000154	1.542381	0.522573	0.012487
 246	1.2250e-01	9.8628	16.548671	0.000230	2.303008	0.780280	0.018644
 247	1.2300e-01	9.8532	16.620512	-0.000177	-1.774795	-0.601317	0.014368
 248	1.2350e-01	9.9527	16.702188	0.000202	2.017773	0.683640	0.016335
 249	1.2400e-01	9.9783	16.784292	0.000203	2.028337	0.687219	0.016421
 250	1.2450e-01	10.0216	16.856988	0.000180	1.795924	0.608475	0.014539
 251	1.2500e-01	10.0537	16.933961	0.000190	1.901566	0.644268	0.015395
 252	1.2550e-01	10.0826	17.014354	0.000199	1.986080	0.672902	0.016079
 253	1.2600e-01	10.1339	17.084485	0.000173	1.732538	0.587000	0.014026
 254	1.2650e-01	10.1564	17.161885	0.000191	1.912130	0.647847	0.015480
 255	1.2700e-01	10.2093	17.230305	0.000169	1.690281	0.572683	0.013684
 256	1.2750e-01	10.2591	17.315830	0.000211	2.112851	0.715853	0.017105
 257	1.2800e-01	10.2912	17.409053	0.000230	2.303008	0.780280	0.018644
 258	1.2850e-01	10.3393	17.478328	0.000171	1.711409	0.579841	0.013855
 259	1.2900e-01	10.3874	17.545465	0.000166	1.658588	0.561945	0.013427
 260	1.2950e-01	10.4179	17.632701	0.000216	2.155108	0.730170	0.017447
 261	1.3000e-01	10.4853	17.701121	0.000169	1.690281	0.572683	0.013684
 262	1.3050e-01	10.4756	17.798192	-0.000240	-2.398086	-0.812494	0.019414
