»»»»»»»»»»»»»»»»»»»»»»»»»»»»»»»»»»»» Hysteresis ««««««««««««««««««««««««««««««««««««
»»»  Executed Version:	5.48.1
»»»  Vision Version:	5.48.4 (R)
»»»  Vision Compiled:	9/18/24
»»»  Driver Version:	5.47.0
»»»  Windows Version:	Windows 8 or 8.1
»»»  Processor Information:	x86 (AMD or Intel) - 32 Processors
»»»  Tester Name:	PMF21124-494 (100V)
»»»  Tester S/N:	PMF21124-494
»»»  Internal Amp Type:	100V RevK 270k
»»»  Internal Amp S/N:	iAB2-596/K     
»»»  Execution Count:	1
»»»»»»»»»»»»»»»»»»»»»»»»»»»»»»»»»»»»»»»»»»««««««««««««««««««««««««««««««««««««««««««

Stored:	6/19/2025 - 12:24:12
Configured:	06/19/25 10:04:32 AM
Executed:	06/19/25 12:23:52 PM

»»»»»»»»»»»»»»»»»»»»»»»»»»»»»»»»»»» Sample Info ««««««««««««««««««««««««««««««««««««
Sample Name:	
Lot Name:	
Wafer Name:	
Die Row/Column:	0/0
Capacitor Number:	0
Sample Area (cm2):	1.00e-04
Sample Thickness (microns):	3.00e-01

Amplifier:	Internal

»»»»»»»»»»»»»»»»»»»»»»»»»»»»»»»»»»» Tester Info «««««««««««««««««««««««««««««««««««
Tester Name:	PMF21124-494 (100V)
Tester Serial Number:	PMF21124-494
Return Signal Amp. Level:	1.79 [Index: 2]

»»»»»»»»»»»»»»»»»»»»»»»»»»»»»»»» Hysteresis Info ««««««««««««««««««««««««««««««««««
Task Name:	Hyst-1168
Volts:	20.00
Field:	666.67 (kV/cm)
DCBias:	0.00
DCField:	0.00 (kV/cm)
Hysteresis Period (ms):	1.00e+00
Preset:	Enabled
Preset Delay (ms):	1.00e+03
Profile:	Standard Bipolar

»»»»»»»»»»»»»»»»»»»»»»»»»»»»»»»»»»»»»» Data «««««««««««««««««««««««««««««««««««««««
Points:	2001

Valid Data

Point	Time (ms)	Drive Voltage	Measured Polarization (uC/cm2)	Capacitance (uF)	Normalized Capacitance (uF/cm2)	Dielectric Constant	Instantaneous Current (mA)
   1	0.0000e+00	0.0241	-1.821256	0.000169	1.693223	0.573679	0.013598
   2	5.0000e-04	0.0578	-1.753264	0.000169	1.693223	0.573679	0.013598
   3	1.0000e-03	0.1315	-1.723330	0.000075	0.745444	0.252563	0.005987
   4	1.5000e-03	0.1540	-1.508234	0.000536	5.356547	1.814847	0.043019
   5	2.0000e-03	0.1989	-1.568102	-0.000149	-1.490888	-0.505127	-0.011974
   6	2.5000e-03	0.2326	-1.435110	0.000331	3.311901	1.122102	0.026598
   7	3.0000e-03	0.2920	-1.388072	0.000117	1.171412	0.396885	0.009408
   8	3.5000e-03	0.3080	-1.295277	0.000231	2.310876	0.782946	0.018559
   9	4.0000e-03	0.3433	-1.202055	0.000232	2.321526	0.786554	0.018644
  10	4.5000e-03	0.3914	-1.039557	0.000405	4.046696	1.371058	0.032500
  11	5.0000e-03	0.4460	-1.037419	0.000005	0.053246	0.018040	0.000428
  12	5.5000e-03	0.4749	-0.898868	0.000345	3.450341	1.169007	0.027710
  13	6.0000e-03	0.5214	-0.930513	-0.000079	-0.788041	-0.266995	-0.006329
  14	6.5000e-03	0.5679	-0.945479	-0.000037	-0.372722	-0.126282	-0.002993
  15	7.0000e-03	0.5936	-0.716700	0.000570	5.697322	1.930305	0.045756
  16	7.5000e-03	0.6481	-0.656832	0.000149	1.490888	0.505127	0.011974
  17	8.0000e-03	0.6946	-0.620484	0.000091	0.905182	0.306684	0.007270
  18	8.5000e-03	0.7283	-0.507164	0.000282	2.822038	0.956132	0.022664
  19	9.0000e-03	0.7652	-0.584991	-0.000194	-1.938154	-0.656664	-0.015566
  20	9.5000e-03	0.8005	-0.337824	0.000616	6.155237	2.085451	0.049433
  21	1.0000e-02	0.8262	-0.157366	0.000449	4.493962	1.522596	0.036092
  22	1.0500e-02	0.9000	-0.175326	-0.000045	-0.447266	-0.151538	-0.003592
  23	1.1000e-02	0.9160	-0.100492	0.000186	1.863610	0.631408	0.014967
  24	1.1500e-02	0.9545	-0.044901	0.000138	1.384396	0.469046	0.011118
  25	1.2000e-02	0.9818	0.039342	0.000210	2.097892	0.710785	0.016848
  26	1.2500e-02	1.0363	0.186872	0.000367	3.673974	1.244776	0.029506
  27	1.3000e-02	1.0813	0.141972	-0.000112	-1.118166	-0.378845	-0.008980
  28	1.3500e-02	1.1165	0.364337	0.000554	5.537584	1.876184	0.044473
  29	1.4000e-02	1.1502	0.354929	-0.000023	-0.234282	-0.079377	-0.001882
  30	1.4500e-02	1.2000	0.457559	0.000256	2.555808	0.865931	0.020526
  31	1.5000e-02	1.2529	0.419928	-0.000094	-0.937130	-0.317508	-0.007526
  32	1.5500e-02	1.2834	0.632885	0.000530	5.303301	1.796807	0.042591
  33	1.6000e-02	1.3283	0.592689	-0.000100	-1.001025	-0.339156	-0.008039
  34	1.6500e-02	1.3620	0.664102	0.000178	1.778416	0.602544	0.014283
  35	1.7000e-02	1.3845	0.986104	0.000802	8.018847	2.716859	0.064400
  36	1.7500e-02	1.4326	0.975413	-0.000027	-0.266230	-0.090201	-0.002138
  37	1.8000e-02	1.4663	0.922388	-0.000132	-1.320501	-0.447398	-0.010605
  38	1.8500e-02	1.5320	1.254225	0.000826	8.263779	2.799844	0.066367
  39	1.9000e-02	1.5577	1.020742	-0.000581	-5.814463	-1.969993	-0.046697
  40	1.9500e-02	1.6106	1.220870	0.000498	4.983825	1.688566	0.040026
  41	2.0000e-02	1.6443	1.326921	0.000264	2.641002	0.894796	0.021210
  42	2.0500e-02	1.6780	1.349158	0.000055	0.553758	0.187618	0.004447
  43	2.1000e-02	1.7133	1.466327	0.000292	2.917881	0.988605	0.023434
  44	2.1500e-02	1.7647	1.557411	0.000227	2.268280	0.768514	0.018217
  45	2.2000e-02	1.8048	1.670732	0.000282	2.822038	0.956132	0.022664
  46	2.2500e-02	1.8417	1.918755	0.000618	6.176536	2.092667	0.049605
  47	2.3000e-02	1.8737	1.855894	-0.000157	-1.565432	-0.530383	-0.012572
  48	2.3500e-02	1.9203	1.878985	0.000058	0.575057	0.194835	0.004618
  49	2.4000e-02	1.9524	2.089377	0.000524	5.239406	1.775159	0.042078
  50	2.4500e-02	1.9941	2.061154	-0.000070	-0.702847	-0.238131	-0.005645
  51	2.5000e-02	2.0197	2.138982	0.000194	1.938154	0.656664	0.015566
  52	2.5500e-02	2.0855	2.168915	0.000075	0.745444	0.252563	0.005987
  53	2.6000e-02	2.1304	2.316018	0.000366	3.663325	1.241168	0.029421
  54	2.6500e-02	2.1625	2.331841	0.000039	0.394020	0.133498	0.003164
  55	2.7000e-02	2.1930	2.562331	0.000574	5.739919	1.944737	0.046098
  56	2.7500e-02	2.2427	2.563186	0.000002	0.021298	0.007216	0.000171
  57	2.8000e-02	2.2844	2.586705	0.000059	0.585706	0.198443	0.004704
  58	2.8500e-02	2.3213	2.827458	0.000600	5.995499	2.031330	0.048151
  59	2.9000e-02	2.3743	2.692329	-0.000337	-3.365147	-1.140143	-0.027026
  60	2.9500e-02	2.4224	2.733381	0.000102	1.022323	0.346372	0.008210
  61	3.0000e-02	2.4497	2.827458	0.000234	2.342824	0.793770	0.018816
  62	3.0500e-02	2.4946	2.953608	0.000314	3.141514	1.064374	0.025230
  63	3.1000e-02	2.5122	3.027587	0.000184	1.842312	0.624192	0.014796
  64	3.1500e-02	2.5764	3.241400	0.000532	5.324600	1.804023	0.042763
  65	3.2000e-02	2.5780	3.212749	-0.000071	-0.713496	-0.241739	-0.005730
  66	3.2500e-02	2.6165	3.418436	0.000512	5.122265	1.735470	0.041138
  67	3.3000e-02	2.6759	3.405608	-0.000032	-0.319476	-0.108241	-0.002566
  68	3.3500e-02	2.7176	3.358569	-0.000117	-1.171412	-0.396885	-0.009408
  69	3.4000e-02	2.7497	3.633104	0.000684	6.836786	2.316366	0.054907
  70	3.4500e-02	2.8090	3.829812	0.000490	4.898632	1.659701	0.039342
  71	3.5000e-02	2.8251	3.669880	-0.000398	-3.982801	-1.349409	-0.031986
  72	3.5500e-02	2.8876	3.825536	0.000388	3.876309	1.313329	0.031131
  73	3.6000e-02	2.9181	3.695110	-0.000325	-3.248006	-1.100454	-0.026085
  74	3.6500e-02	2.9726	4.042342	0.000865	8.647150	2.929734	0.069446
  75	3.7000e-02	2.9823	3.990171	-0.000130	-1.299202	-0.440182	-0.010434
  76	3.7500e-02	3.0464	4.292930	0.000754	7.539633	2.554497	0.060552
  77	3.8000e-02	3.0641	4.420790	0.000318	3.184111	1.078806	0.025572
  78	3.8500e-02	3.1363	4.316022	-0.000261	-2.609054	-0.883971	-0.020954
  79	3.9000e-02	3.1635	4.325857	0.000024	0.244932	0.082985	0.001967
  80	3.9500e-02	3.2085	4.509309	0.000457	4.568507	1.547852	0.036690
  81	4.0000e-02	3.2550	4.655556	0.000364	3.642026	1.233952	0.029250
  82	4.0500e-02	3.2662	4.656412	0.000002	0.021298	0.007216	0.000171
  83	4.1000e-02	3.3079	4.931375	0.000685	6.847435	2.319974	0.054993
  84	4.1500e-02	3.3496	4.864665	-0.000166	-1.661275	-0.562855	-0.013342
  85	4.2000e-02	3.3978	5.012623	0.000368	3.684623	1.248384	0.029592
  86	4.2500e-02	3.4347	4.991242	-0.000053	-0.532460	-0.180402	-0.004276
  87	4.3000e-02	3.4844	5.037426	0.000115	1.150114	0.389669	0.009237
  88	4.3500e-02	3.5197	5.222587	0.000461	4.611103	1.562284	0.037032
  89	4.4000e-02	3.5486	5.198640	-0.000060	-0.596355	-0.202051	-0.004789
  90	4.4500e-02	3.6127	5.168707	-0.000075	-0.745444	-0.252563	-0.005987
  91	4.5000e-02	3.6320	5.387223	0.000544	5.441741	1.843712	0.043703
  92	4.5500e-02	3.6913	5.537320	0.000374	3.737869	1.266424	0.030019
  93	4.6000e-02	3.7218	5.519787	-0.000044	-0.436617	-0.147930	-0.003507
  94	4.6500e-02	3.7667	5.620707	0.000251	2.513211	0.851499	0.020184
  95	4.7000e-02	3.7988	5.567253	-0.000133	-1.331150	-0.451006	-0.010691
  96	4.7500e-02	3.8437	5.792184	0.000560	5.601479	1.897832	0.044986
  97	4.8000e-02	3.8742	6.036358	0.000608	6.080693	2.060195	0.048835
  98	4.8500e-02	3.9175	5.911919	-0.000310	-3.098917	-1.049942	-0.024888
  99	4.9000e-02	3.9609	6.029089	0.000292	2.917881	0.988605	0.023434
 100	4.9500e-02	3.9961	6.088956	0.000149	1.490888	0.505127	0.011974
 101	5.0000e-02	4.0395	6.092805	0.000010	0.095843	0.032472	0.000770
 102	5.0500e-02	4.0828	6.263427	0.000425	4.249031	1.439611	0.034124
 103	5.1000e-02	4.1149	6.370334	0.000266	2.662300	0.902012	0.021381
 104	5.1500e-02	4.1582	6.444313	0.000184	1.842312	0.624192	0.014796
 105	5.2000e-02	4.2063	6.492635	0.000120	1.203360	0.407709	0.009664
 106	5.2500e-02	4.2368	6.717138	0.000559	5.590830	1.894224	0.044901
 107	5.3000e-02	4.2801	6.626909	-0.000225	-2.246981	-0.761298	-0.018046
 108	5.3500e-02	4.3106	6.813354	0.000464	4.643051	1.573108	0.037289
 109	5.4000e-02	4.3539	6.925391	0.000279	2.790090	0.945308	0.022408
 110	5.4500e-02	4.4068	6.963022	0.000094	0.937130	0.317508	0.007526
 111	5.5000e-02	4.4341	6.894602	-0.000170	-1.703872	-0.577287	-0.013684
 112	5.5500e-02	4.4517	7.272195	0.000940	9.403243	3.185905	0.075519
 113	5.6000e-02	4.4758	7.219170	-0.000132	-1.320501	-0.447398	-0.010605
 114	5.6500e-02	4.5721	7.410318	0.000476	4.760192	1.612797	0.038230
 115	5.7000e-02	4.5849	7.324366	-0.000214	-2.140489	-0.725217	-0.017191
 116	5.7500e-02	4.6459	7.467193	0.000356	3.556833	1.205088	0.028565
 117	5.8000e-02	4.6747	7.584789	0.000293	2.928530	0.992213	0.023519
 118	5.8500e-02	4.7229	7.683571	0.000246	2.459965	0.833459	0.019756
 119	5.9000e-02	4.7389	7.776793	0.000232	2.321526	0.786554	0.018644
 120	5.9500e-02	4.7854	8.021395	0.000609	6.091342	2.063803	0.048920
 121	6.0000e-02	4.8352	7.860608	-0.000400	-4.004099	-1.356625	-0.032157
 122	6.0500e-02	4.8640	7.903798	0.000108	1.075569	0.364413	0.008638
 123	6.1000e-02	4.9170	8.110769	0.000515	5.154213	1.746295	0.041394
 124	6.1500e-02	4.9635	8.200998	0.000225	2.246981	0.761298	0.018046
 125	6.2000e-02	4.9924	8.327147	0.000314	3.141514	1.064374	0.025230
 126	6.2500e-02	5.0405	8.298924	-0.000070	-0.702847	-0.238131	-0.005645
 127	6.3000e-02	5.0806	8.429349	0.000325	3.248006	1.100454	0.026085
 128	6.3500e-02	5.1175	8.347673	-0.000203	-2.033997	-0.689137	-0.016335
 129	6.4000e-02	5.1672	8.569183	0.000552	5.516285	1.868968	0.044302
 130	6.4500e-02	5.2025	8.443033	-0.000314	-3.141514	-1.064374	-0.025230
 131	6.5000e-02	5.2394	8.747075	0.000757	7.571581	2.565321	0.060808
 132	6.5500e-02	5.2811	8.777436	0.000076	0.756093	0.256171	0.006072
 133	6.6000e-02	5.3341	8.917270	0.000348	3.482288	1.179831	0.027967
 134	6.6500e-02	5.3613	9.009209	0.000229	2.289578	0.775730	0.018388
 135	6.7000e-02	5.3998	8.921974	-0.000217	-2.172437	-0.736041	-0.017447
 136	6.7500e-02	5.4480	9.106280	0.000459	4.589805	1.555068	0.036861
 137	6.8000e-02	5.4688	9.259798	0.000382	3.823063	1.295289	0.030703
 138	6.8500e-02	5.5298	9.393644	0.000333	3.333199	1.129319	0.026769
 139	6.9000e-02	5.5458	9.373546	-0.000050	-0.500512	-0.169578	-0.004020
 140	6.9500e-02	5.6068	9.520649	0.000366	3.663325	1.241168	0.029421
 141	7.0000e-02	5.6293	9.660055	0.000347	3.471639	1.176223	0.027881
 142	7.0500e-02	5.6758	9.730185	0.000175	1.746469	0.591720	0.014026
 143	7.1000e-02	5.7239	9.727192	-0.000007	-0.074544	-0.025256	-0.000599
 144	7.1500e-02	5.7688	9.758836	0.000079	0.788041	0.266995	0.006329
 145	7.2000e-02	5.8025	9.797750	0.000097	0.969077	0.328332	0.007783
 146	7.2500e-02	5.8362	10.007714	0.000523	5.228757	1.771551	0.041993
 147	7.3000e-02	5.8891	10.097943	0.000225	2.246981	0.761298	0.018046
 148	7.3500e-02	5.9116	10.152252	0.000135	1.352448	0.458222	0.010862
 149	7.4000e-02	5.9565	10.247184	0.000236	2.364122	0.800986	0.018987
 150	7.4500e-02	5.9902	10.212547	-0.000086	-0.862585	-0.292252	-0.006928
 151	7.5000e-02	6.0335	10.477247	0.000659	6.591855	2.233381	0.052940
 152	7.5500e-02	6.0865	10.420800	-0.000141	-1.405694	-0.476262	-0.011289
 153	7.6000e-02	6.1153	10.624778	0.000508	5.079668	1.721038	0.040795
 154	7.6500e-02	6.1667	10.542674	-0.000204	-2.044646	-0.692745	-0.016421
 155	7.7000e-02	6.2004	10.640172	0.000243	2.428018	0.822635	0.019500
 156	7.7500e-02	6.2469	10.855695	0.000537	5.367197	1.818455	0.043105
 157	7.8000e-02	6.2726	10.767177	-0.000220	-2.204384	-0.746866	-0.017704
 158	7.8500e-02	6.3239	11.074212	0.000765	7.646125	2.590577	0.061407
 159	7.9000e-02	6.3592	11.081481	0.000018	0.181036	0.061337	0.001454
 160	7.9500e-02	6.3704	11.179835	0.000245	2.449316	0.829851	0.019671
 161	8.0000e-02	6.4458	11.306840	0.000316	3.162812	1.071590	0.025401
 162	8.0500e-02	6.4987	11.329504	0.000056	0.564408	0.191226	0.004533
 163	8.1000e-02	6.4923	11.403056	-0.000183	-1.831662	-0.620584	0.014710
 164	8.1500e-02	6.5453	11.587790	0.000460	4.600454	1.558676	0.036947
 165	8.2000e-02	6.6094	11.398352	-0.000472	-4.717595	-1.598365	-0.037888
 166	8.2500e-02	6.6175	11.726340	0.000817	8.167936	2.767372	0.065598
 167	8.3000e-02	6.6897	11.819990	0.000233	2.332175	0.790162	0.018730
 168	8.3500e-02	6.7330	11.820845	0.000002	0.021298	0.007216	0.000171
 169	8.4000e-02	6.7554	11.920482	0.000248	2.481264	0.840675	0.019927
 170	8.4500e-02	6.8052	12.037224	0.000291	2.907232	0.984997	0.023348
 171	8.5000e-02	6.8212	12.159525	0.000305	3.045671	1.031901	0.024460
 172	8.5500e-02	6.8854	12.069296	-0.000225	-2.246981	-0.761298	-0.018046
 173	8.6000e-02	6.9191	12.304917	0.000587	5.867709	1.988034	0.047124
 174	8.6500e-02	6.9351	12.370344	0.000163	1.629328	0.552031	0.013085
 175	8.7000e-02	7.0121	12.322878	-0.000118	-1.182061	-0.400493	-0.009493
 176	8.7500e-02	7.0297	12.537545	0.000535	5.345898	1.811239	0.042934
 177	8.8000e-02	7.0538	12.552085	0.000036	0.362073	0.122674	0.002908
 178	8.8500e-02	7.1003	12.698333	0.000364	3.642026	1.233952	0.029250
 179	8.9000e-02	7.1597	12.815929	0.000293	2.928530	0.992213	0.023519
 180	8.9500e-02	7.1950	12.667971	-0.000368	-3.684623	-1.248384	-0.029592
 181	9.0000e-02	7.2319	12.899744	0.000577	5.771866	1.955561	0.046355
 182	9.0500e-02	7.2752	13.091320	0.000477	4.770841	1.616405	0.038315
 183	9.1000e-02	7.3153	13.151188	0.000149	1.490888	0.505127	0.011974
 184	9.1500e-02	7.3586	13.088754	-0.000155	-1.554783	-0.526775	-0.012487
 185	9.2000e-02	7.3971	13.400921	0.000777	7.773916	2.633874	0.062433
 186	9.2500e-02	7.4420	13.254673	-0.000364	-3.642026	-1.233952	-0.029250
 187	9.3000e-02	7.4757	13.469341	0.000535	5.345898	1.811239	0.042934
 188	9.3500e-02	7.4950	13.517235	0.000119	1.192710	0.404101	0.009579
 189	9.4000e-02	7.5704	13.545458	0.000070	0.702847	0.238131	0.005645
 190	9.4500e-02	7.5960	13.687430	0.000354	3.535534	1.197871	0.028394
 191	9.5000e-02	7.6410	13.690423	0.000007	0.074544	0.025256	0.000599
 192	9.5500e-02	7.7051	13.797329	0.000266	2.662300	0.902012	0.021381
 193	9.6000e-02	7.7132	13.843941	0.000116	1.160763	0.393277	0.009322
 194	9.6500e-02	7.7629	13.971801	0.000318	3.184111	1.078806	0.025572
 195	9.7000e-02	7.8190	14.158245	0.000464	4.643051	1.573108	0.037289
 196	9.7500e-02	7.8431	14.125318	-0.000082	-0.819988	-0.277820	-0.006585
 197	9.8000e-02	7.8832	14.381466	0.000638	6.378871	2.161220	0.051230
 198	9.8500e-02	7.9169	14.386169	0.000012	0.117141	0.039689	0.000941
 199	9.9000e-02	7.9602	14.387025	0.000002	0.021298	0.007216	0.000171
 200	9.9500e-02	8.0003	14.519161	0.000329	3.290603	1.114886	0.026427
 201	1.0000e-01	8.0340	14.655146	0.000339	3.386445	1.147359	0.027197
 202	1.0050e-01	8.0934	14.722711	0.000168	1.682574	0.570071	0.013513
 203	1.0100e-01	8.0966	14.937806	0.000536	5.356547	1.814847	0.043019
 204	1.0150e-01	8.1575	14.895899	-0.000104	-1.043622	-0.353589	-0.008381
 205	1.0200e-01	8.2137	14.966029	0.000175	1.746469	0.591720	0.014026
 206	1.0250e-01	8.2570	14.921984	-0.000110	-1.096868	-0.371629	-0.008809
 207	1.0300e-01	8.2875	15.128099	0.000513	5.132914	1.739078	0.041223
 208	1.0350e-01	8.3276	15.143921	0.000039	0.394020	0.133498	0.003164
 209	1.0400e-01	8.3468	15.314972	0.000426	4.259680	1.443219	0.034210
 210	1.0450e-01	8.4030	15.480035	0.000411	4.110591	1.392706	0.033013
 211	1.0500e-01	8.4318	15.586086	0.000264	2.641002	0.894796	0.021210
 212	1.0550e-01	8.4800	15.616447	0.000076	0.756093	0.256171	0.006072
 213	1.0600e-01	8.5185	15.612171	-0.000011	-0.106492	-0.036080	-0.000855
 214	1.0650e-01	8.5634	15.720360	0.000269	2.694248	0.912836	0.021638
 215	1.0700e-01	8.5842	15.813583	0.000232	2.321526	0.786554	0.018644
 216	1.0750e-01	8.6420	15.851214	0.000094	0.937130	0.317508	0.007526
 217	1.0800e-01	8.6917	16.012856	0.000403	4.025397	1.363842	0.032328
 218	1.0850e-01	8.7062	16.023974	0.000028	0.276879	0.093809	0.002224
 219	1.0900e-01	8.7768	16.246339	0.000554	5.537584	1.876184	0.044473
 220	1.0950e-01	8.7768	16.166374	0.000199	1.991400	0.674705	-0.015993
 221	1.1000e-01	8.8489	16.389594	0.000556	5.558882	1.883400	0.044644
 222	1.1050e-01	8.8746	16.393870	0.000011	0.106492	0.036080	0.000855
 223	1.1100e-01	8.9260	16.454593	0.000151	1.512186	0.512343	0.012145
 224	1.1150e-01	8.9564	16.570052	0.000288	2.875284	0.974173	0.023092
 225	1.1200e-01	9.0014	16.635051	0.000162	1.618678	0.548423	0.013000
 226	1.1250e-01	9.0399	16.651728	0.000042	0.415319	0.140714	0.003335
 227	1.1300e-01	9.0623	16.773601	0.000304	3.035022	1.028293	0.024375
 228	1.1350e-01	9.1185	17.053268	0.000696	6.964577	2.359662	0.055933
 229	1.1400e-01	9.1538	16.978862	-0.000185	-1.852961	-0.627800	-0.014881
 230	1.1450e-01	9.2003	17.068235	0.000223	2.225683	0.754082	0.017875
 231	1.1500e-01	9.2372	17.090899	0.000056	0.564408	0.191226	0.004533
 232	1.1550e-01	9.2757	17.321817	0.000575	5.750568	1.948345	0.046184
 233	1.1600e-01	9.3158	17.364580	0.000106	1.064920	0.360805	0.008553
 234	1.1650e-01	9.3479	17.531781	0.000416	4.163837	1.410746	0.033440
 235	1.1700e-01	9.4088	17.554445	0.000056	0.564408	0.191226	0.004533
 236	1.1750e-01	9.4473	17.525367	-0.000072	-0.724146	-0.245347	-0.005816
 237	1.1800e-01	9.4618	17.707107	0.000453	4.525910	1.533420	0.036348
 238	1.1850e-01	9.5356	17.777238	0.000175	1.746469	0.591720	0.014026
 239	1.1900e-01	9.5452	17.789211	0.000030	0.298178	0.101025	0.002395
 240	1.1950e-01	9.6078	18.032958	0.000607	6.070044	2.056587	0.048749
 241	1.2000e-01	9.6270	17.972663	-0.000150	-1.501537	-0.508735	-0.012059
 242	1.2050e-01	9.6687	18.150555	0.000443	4.430067	1.500947	0.035578
 243	1.2100e-01	9.7345	18.105654	-0.000112	-1.118166	-0.378845	-0.008980
 244	1.2150e-01	9.7184	18.325881	-0.000548	-5.484338	-1.858144	0.044045
 245	1.2200e-01	9.8067	18.462294	0.000340	3.397095	1.150967	0.027282
 246	1.2250e-01	9.8500	18.384466	-0.000194	-1.938154	-0.656664	-0.015566
 247	1.2300e-01	9.8660	18.486241	0.000253	2.534510	0.858715	0.020355
 248	1.2350e-01	9.9045	18.685086	0.000495	4.951878	1.677742	0.039769
 249	1.2400e-01	9.9639	18.739822	0.000136	1.363098	0.461830	0.010947
 250	1.2450e-01	10.0200	18.603410	-0.000340	-3.397095	-1.150967	-0.027282
 251	1.2500e-01	10.0553	18.703474	0.000249	2.491913	0.844283	0.020013
 252	1.2550e-01	10.0810	19.111856	0.001017	10.169986	3.445684	0.081676
 253	1.2600e-01	10.1243	19.035311	-0.000191	-1.906207	-0.645840	-0.015309
 254	1.2650e-01	10.1644	19.173862	0.000345	3.450341	1.169007	0.027710
 255	1.2700e-01	10.2093	19.117416	-0.000141	-1.405694	-0.476262	-0.011289
 256	1.2750e-01	10.2510	19.301294	0.000458	4.579156	1.551460	0.036776
 257	1.2800e-01	10.2671	19.267084	-0.000085	-0.851936	-0.288644	-0.006842
 258	1.2850e-01	10.3056	19.606191	0.000844	8.444815	2.861181	0.067821
 259	1.2900e-01	10.3521	19.684447	0.000195	1.948804	0.660273	0.015651
