»»»»»»»»»»»»»»»»»»»»»»»»»»»»»»»»»»»» Hysteresis ««««««««««««««««««««««««««««««««««««
»»»  Executed Version:	5.48.1
»»»  Vision Version:	5.48.4 (R)
»»»  Vision Compiled:	9/18/24
»»»  Driver Version:	5.47.0
»»»  Windows Version:	Windows 8 or 8.1
»»»  Processor Information:	x86 (AMD or Intel) - 32 Processors
»»»  Tester Name:	PMF21124-494 (100V)
»»»  Tester S/N:	PMF21124-494
»»»  Internal Amp Type:	100V RevK 270k
»»»  Internal Amp S/N:	iAB2-596/K     
»»»  Execution Count:	1
»»»»»»»»»»»»»»»»»»»»»»»»»»»»»»»»»»»»»»»»»»««««««««««««««««««««««««««««««««««««««««««

Stored:	6/19/2025 - 14:10:59
Configured:	06/19/25 10:04:32 AM
Executed:	06/19/25 02:10:17 PM

»»»»»»»»»»»»»»»»»»»»»»»»»»»»»»»»»»» Sample Info ««««««««««««««««««««««««««««««««««««
Sample Name:	
Lot Name:	
Wafer Name:	
Die Row/Column:	0/0
Capacitor Number:	0
Sample Area (cm2):	1.00e-04
Sample Thickness (microns):	3.00e-01

Amplifier:	Internal

»»»»»»»»»»»»»»»»»»»»»»»»»»»»»»»»»»» Tester Info «««««««««««««««««««««««««««««««««««
Tester Name:	PMF21124-494 (100V)
Tester Serial Number:	PMF21124-494
Return Signal Amp. Level:	1.9 [Index: 2]

»»»»»»»»»»»»»»»»»»»»»»»»»»»»»»»» Hysteresis Info ««««««««««««««««««««««««««««««««««
Task Name:	Hyst-1168
Volts:	20.00
Field:	666.67 (kV/cm)
DCBias:	0.00
DCField:	0.00 (kV/cm)
Hysteresis Period (ms):	2.00e+02
Preset:	Enabled
Preset Delay (ms):	1.00e+03
Profile:	Standard Bipolar

»»»»»»»»»»»»»»»»»»»»»»»»»»»»»»»»»»»»»» Data «««««««««««««««««««««««««««««««««««««««
Points:	2009

Valid Data

Point	Time (ms)	Drive Voltage	Measured Polarization (uC/cm2)	Capacitance (uF)	Normalized Capacitance (uF/cm2)	Dielectric Constant	Instantaneous Current (mA)
   1	0.0000e+00	0.0353	-3.811912	0.000164	1.642864	0.556618	0.000066
   2	9.9500e-02	0.0706	-3.746329	0.000164	1.642864	0.556618	0.000066
   3	1.9900e-01	0.1027	-3.649789	0.000242	2.418378	0.819369	0.000097
   4	2.9850e-01	0.1396	-3.564247	0.000214	2.142867	0.726023	0.000086
   5	3.9800e-01	0.1797	-3.468522	0.000240	2.397970	0.812454	0.000096
   6	4.9750e-01	0.2246	-3.379314	0.000223	2.234704	0.757138	0.000090
   7	5.9700e-01	0.2647	-3.281959	0.000244	2.438786	0.826283	0.000098
   8	6.9650e-01	0.3176	-3.185826	0.000241	2.408174	0.815911	0.000097
   9	7.9600e-01	0.3321	-3.092545	0.000234	2.336745	0.791711	0.000094
  10	8.9550e-01	0.3930	-2.996004	0.000242	2.418378	0.819369	0.000097
  11	9.9500e-01	0.4187	-2.902316	0.000235	2.346949	0.795168	0.000094
  12	1.0945e+00	0.4476	-2.803331	0.000248	2.479603	0.840112	0.000099
  13	1.1940e+00	0.4813	-2.711679	0.000230	2.295929	0.777882	0.000092
  14	1.2935e+00	0.5486	-2.615139	0.000242	2.418378	0.819369	0.000097
  15	1.3930e+00	0.5968	-2.519821	0.000239	2.387766	0.808997	0.000096
  16	1.4925e+00	0.6128	-2.420429	0.000249	2.489807	0.843569	0.000100
  17	1.5920e+00	0.6497	-2.323482	0.000243	2.428582	0.822826	0.000097
  18	1.6915e+00	0.6850	-2.223276	0.000251	2.510215	0.850484	0.000101
  19	1.7910e+00	0.7379	-2.135697	0.000219	2.193887	0.743309	0.000088
  20	1.8905e+00	0.7845	-2.040786	0.000238	2.377562	0.805540	0.000095
  21	1.9900e+00	0.8021	-1.943024	0.000245	2.448990	0.829740	0.000098
  22	2.0895e+00	0.8727	-1.848928	0.000236	2.357153	0.798625	0.000095
  23	2.1890e+00	0.8968	-1.754424	0.000237	2.367357	0.802082	0.000095
  24	2.2885e+00	0.9385	-1.653403	0.000253	2.530623	0.857398	0.000102
  25	2.3880e+00	0.9850	-1.560122	0.000234	2.336745	0.791711	0.000094
  26	2.4875e+00	1.0267	-1.465211	0.000238	2.377562	0.805540	0.000095
  27	2.5870e+00	1.0556	-1.365005	0.000251	2.510215	0.850484	0.000101
  28	2.6865e+00	1.0957	-1.274168	0.000228	2.275520	0.770967	0.000091
  29	2.7860e+00	1.1486	-1.173961	0.000251	2.510215	0.850484	0.000101
  30	2.8855e+00	1.1807	-1.080680	0.000234	2.336745	0.791711	0.000094
  31	2.9850e+00	1.2144	-0.982103	0.000247	2.469399	0.836655	0.000099
  32	3.0845e+00	1.2353	-0.888821	0.000234	2.336745	0.791711	0.000094
  33	3.1840e+00	1.2946	-0.788615	0.000251	2.510215	0.850484	0.000101
  34	3.2835e+00	1.3219	-0.696556	0.000231	2.306133	0.781339	0.000093
  35	3.3830e+00	1.3764	-0.602460	0.000236	2.357153	0.798625	0.000095
  36	3.4825e+00	1.4246	-0.507549	0.000238	2.377562	0.805540	0.000095
  37	3.5820e+00	1.4663	-0.415489	0.000231	2.306133	0.781339	0.000093
  38	3.6815e+00	1.5128	-0.321801	0.000235	2.346949	0.795168	0.000094
  39	3.7810e+00	1.5256	-0.224853	0.000243	2.428582	0.822826	0.000097
  40	3.8805e+00	1.5930	-0.131164	0.000235	2.346949	0.795168	0.000094
  41	3.9800e+00	1.6171	-0.035846	0.000239	2.387766	0.808997	0.000096
  42	4.0795e+00	1.6620	0.051325	0.000218	2.183683	0.739852	0.000088
  43	4.1790e+00	1.7005	0.153975	0.000257	2.571440	0.871227	0.000103
  44	4.2785e+00	1.7438	0.242776	0.000222	2.224500	0.753681	0.000089
  45	4.3780e+00	1.7791	0.336058	0.000234	2.336745	0.791711	0.000094
  46	4.4775e+00	1.7887	0.431376	0.000239	2.387766	0.808997	0.000096
  47	4.5770e+00	1.8433	0.525065	0.000235	2.346949	0.795168	0.000094
  48	4.6765e+00	1.9026	0.620383	0.000239	2.387766	0.808997	0.000096
  49	4.7760e+00	1.9331	0.714071	0.000235	2.346949	0.795168	0.000094
  50	4.8755e+00	1.9764	0.807353	0.000234	2.336745	0.791711	0.000094
  51	4.9750e+00	2.0197	0.898190	0.000228	2.275520	0.770967	0.000091
  52	5.0745e+00	2.0598	0.990657	0.000232	2.316337	0.784796	0.000093
  53	5.1740e+00	2.1031	1.092085	0.000254	2.540828	0.860856	0.000102
  54	5.2735e+00	2.1368	1.176405	0.000211	2.112254	0.715651	0.000085
  55	5.3730e+00	2.1561	1.273353	0.000243	2.428582	0.822826	0.000097
  56	5.4725e+00	2.2315	1.372744	0.000249	2.489807	0.843569	0.000100
  57	5.5720e+00	2.2572	1.468063	0.000239	2.387766	0.808997	0.000096
  58	5.6715e+00	2.2973	1.565417	0.000244	2.438786	0.826283	0.000098
  59	5.7710e+00	2.3197	1.655847	0.000227	2.265316	0.767510	0.000091
  60	5.8705e+00	2.3662	1.754017	0.000246	2.459195	0.833198	0.000099
  61	5.9700e+00	2.4176	1.841188	0.000218	2.183683	0.739852	0.000088
  62	6.0695e+00	2.4561	1.946283	0.000263	2.632665	0.891971	0.000106
  63	6.1690e+00	2.5010	2.030603	0.000211	2.112254	0.715651	0.000085
  64	6.2685e+00	2.5283	2.128772	0.000246	2.459195	0.833198	0.000099
  65	6.3680e+00	2.5780	2.222868	0.000236	2.357153	0.798625	0.000095
  66	6.4675e+00	2.6165	2.319001	0.000241	2.408174	0.815911	0.000097
  67	6.5670e+00	2.6662	2.409431	0.000227	2.265316	0.767510	0.000091
  68	6.6665e+00	2.7031	2.502713	0.000234	2.336745	0.791711	0.000094
  69	6.7660e+00	2.7352	2.597623	0.000238	2.377562	0.805540	0.000095
  70	6.8655e+00	2.7577	2.690498	0.000233	2.326541	0.788253	0.000093
  71	6.9650e+00	2.8122	2.788260	0.000245	2.448990	0.829740	0.000098
  72	7.0645e+00	2.8571	2.877060	0.000222	2.224500	0.753681	0.000089
  73	7.1640e+00	2.8988	2.974008	0.000243	2.428582	0.822826	0.000097
  74	7.2635e+00	2.9277	3.070141	0.000241	2.408174	0.815911	0.000097
  75	7.3630e+00	2.9775	3.164644	0.000237	2.367357	0.802082	0.000095
  76	7.4625e+00	3.0047	3.261592	0.000243	2.428582	0.822826	0.000097
  77	7.5620e+00	3.0529	3.353651	0.000231	2.306133	0.781339	0.000093
  78	7.6615e+00	3.0914	3.453043	0.000249	2.489807	0.843569	0.000100
  79	7.7610e+00	3.1315	3.545510	0.000232	2.316337	0.784796	0.000093
  80	7.8605e+00	3.1828	3.637162	0.000230	2.295929	0.777882	0.000092
  81	7.9600e+00	3.2020	3.726777	0.000224	2.244908	0.760595	0.000090
  82	8.0595e+00	3.2598	3.819244	0.000232	2.316337	0.784796	0.000093
  83	8.1590e+00	3.2855	3.914155	0.000238	2.377562	0.805540	0.000095
  84	8.2585e+00	3.3208	4.005807	0.000230	2.295929	0.777882	0.000092
  85	8.3580e+00	3.3689	4.099495	0.000235	2.346949	0.795168	0.000094
  86	8.4575e+00	3.4090	4.187889	0.000221	2.214296	0.750224	0.000089
  87	8.5570e+00	3.4539	4.285244	0.000244	2.438786	0.826283	0.000098
  88	8.6565e+00	3.4876	4.381376	0.000241	2.408174	0.815911	0.000097
  89	8.7560e+00	3.5325	4.477917	0.000242	2.418378	0.819369	0.000097
  90	8.8555e+00	3.5823	4.566717	0.000222	2.224500	0.753681	0.000089
  91	8.9550e+00	3.6191	4.665702	0.000248	2.479603	0.840112	0.000099
  92	9.0545e+00	3.6528	4.751651	0.000215	2.153071	0.729480	0.000086
  93	9.1540e+00	3.6721	4.844932	0.000234	2.336745	0.791711	0.000094
  94	9.2535e+00	3.7250	4.936992	0.000231	2.306133	0.781339	0.000093
  95	9.3530e+00	3.7603	5.030273	0.000234	2.336745	0.791711	0.000094
  96	9.4525e+00	3.8052	5.120296	0.000226	2.255112	0.764053	0.000090
  97	9.5520e+00	3.8453	5.219687	0.000249	2.489807	0.843569	0.000100
  98	9.6515e+00	3.8935	5.308081	0.000221	2.214296	0.750224	0.000089
  99	9.7510e+00	3.9400	5.404621	0.000242	2.418378	0.819369	0.000097
 100	9.8505e+00	3.9833	5.498310	0.000235	2.346949	0.795168	0.000094
 101	9.9500e+00	4.0218	5.591184	0.000233	2.326541	0.788253	0.000093
 102	1.0050e+01	4.0362	5.682021	0.000228	2.275520	0.770967	0.000091
 103	1.0149e+01	4.0908	5.778561	0.000242	2.418378	0.819369	0.000097
 104	1.0248e+01	4.1357	5.870621	0.000231	2.306133	0.781339	0.000093
 105	1.0348e+01	4.1502	5.969605	0.000248	2.479603	0.840112	0.000099
 106	1.0447e+01	4.1919	6.061665	0.000231	2.306133	0.781339	0.000093
 107	1.0547e+01	4.2464	6.158612	0.000243	2.428582	0.822826	0.000097
 108	1.0646e+01	4.2737	6.253930	0.000239	2.387766	0.808997	0.000096
 109	1.0746e+01	4.3138	6.350878	0.000243	2.428582	0.822826	0.000097
 110	1.0845e+01	4.3892	6.442937	0.000231	2.306133	0.781339	0.000093
 111	1.0945e+01	4.3972	6.536626	0.000235	2.346949	0.795168	0.000094
 112	1.1044e+01	4.4469	6.632759	0.000241	2.408174	0.815911	0.000097
 113	1.1144e+01	4.4951	6.728077	0.000239	2.387766	0.808997	0.000096
 114	1.1243e+01	4.5416	6.822173	0.000236	2.357153	0.798625	0.000095
 115	1.1343e+01	4.5656	6.920750	0.000247	2.469399	0.836655	0.000099
 116	1.1443e+01	4.6058	7.014846	0.000236	2.357153	0.798625	0.000095
 117	1.1542e+01	4.6603	7.110164	0.000239	2.387766	0.808997	0.000096
 118	1.1642e+01	4.6940	7.211593	0.000254	2.540828	0.860856	0.000102
 119	1.1741e+01	4.7245	7.307318	0.000240	2.397970	0.812454	0.000096
 120	1.1841e+01	4.7549	7.405080	0.000245	2.448990	0.829740	0.000098
 121	1.1940e+01	4.8191	7.506101	0.000253	2.530623	0.857398	0.000102
 122	1.2040e+01	4.8271	7.601827	0.000240	2.397970	0.812454	0.000096
 123	1.2139e+01	4.8881	7.701218	0.000249	2.489807	0.843569	0.000100
 124	1.2239e+01	4.9362	7.800610	0.000249	2.489807	0.843569	0.000100
 125	1.2338e+01	4.9699	7.895521	0.000238	2.377562	0.805540	0.000095
 126	1.2438e+01	4.9956	7.998171	0.000257	2.571440	0.871227	0.000103
 127	1.2537e+01	5.0357	8.093082	0.000238	2.377562	0.805540	0.000095
 128	1.2636e+01	5.1079	8.193695	0.000252	2.520419	0.853941	0.000101
 129	1.2736e+01	5.1255	8.290643	0.000243	2.428582	0.822826	0.000097
 130	1.2835e+01	5.1528	8.393701	0.000258	2.581644	0.874685	0.000104
 131	1.2935e+01	5.2202	8.490241	0.000242	2.418378	0.819369	0.000097
 132	1.3034e+01	5.2362	8.591262	0.000253	2.530623	0.857398	0.000102
 133	1.3134e+01	5.2747	8.692283	0.000253	2.530623	0.857398	0.000102
 134	1.3233e+01	5.3244	8.792896	0.000252	2.520419	0.853941	0.000101
 135	1.3333e+01	5.3710	8.887400	0.000237	2.367357	0.802082	0.000095
 136	1.3432e+01	5.3966	8.990865	0.000259	2.591848	0.878142	0.000104
 137	1.3532e+01	5.4592	9.094330	0.000259	2.591848	0.878142	0.000104
 138	1.3632e+01	5.4945	9.188019	0.000235	2.346949	0.795168	0.000094
 139	1.3731e+01	5.5073	9.289447	0.000254	2.540828	0.860856	0.000102
 140	1.3831e+01	5.5426	9.389246	0.000250	2.500011	0.847027	0.000100
 141	1.3930e+01	5.6052	9.492711	0.000259	2.591848	0.878142	0.000104
 142	1.4030e+01	5.6581	9.586807	0.000236	2.357153	0.798625	0.000095
 143	1.4129e+01	5.6790	9.689457	0.000257	2.571440	0.871227	0.000103
 144	1.4229e+01	5.7319	9.792922	0.000259	2.591848	0.878142	0.000104
 145	1.4328e+01	5.7929	9.895165	0.000256	2.561236	0.867770	0.000103
 146	1.4428e+01	5.8041	9.990483	0.000239	2.387766	0.808997	0.000096
 147	1.4527e+01	5.8330	10.091504	0.000253	2.530623	0.857398	0.000102
 148	1.4627e+01	5.8795	10.193747	0.000256	2.561236	0.867770	0.000103
 149	1.4726e+01	5.9196	10.298434	0.000262	2.622461	0.888514	0.000105
 150	1.4825e+01	5.9373	10.395789	0.000244	2.438786	0.826283	0.000098
 151	1.4925e+01	5.9966	10.493144	0.000244	2.438786	0.826283	0.000098
 152	1.5024e+01	6.0415	10.594165	0.000253	2.530623	0.857398	0.000102
 153	1.5124e+01	6.0752	10.698445	0.000261	2.612257	0.885056	0.000105
 154	1.5223e+01	6.1169	10.803539	0.000263	2.632665	0.891971	0.000106
 155	1.5323e+01	6.1458	10.904153	0.000252	2.520419	0.853941	0.000101
 156	1.5422e+01	6.2004	10.999064	0.000238	2.377562	0.805540	0.000095
 157	1.5522e+01	6.2613	11.104158	0.000263	2.632665	0.891971	0.000106
 158	1.5621e+01	6.2902	11.206401	0.000256	2.561236	0.867770	0.000103
 159	1.5721e+01	6.3207	11.308237	0.000255	2.551032	0.864313	0.000102
 160	1.5820e+01	6.3608	11.410887	0.000257	2.571440	0.871227	0.000103
 161	1.5920e+01	6.4089	11.506205	0.000239	2.387766	0.808997	0.000096
 162	1.6020e+01	6.4394	11.607633	0.000254	2.540828	0.860856	0.000102
 163	1.6119e+01	6.4747	11.711913	0.000261	2.612257	0.885056	0.000105
 164	1.6218e+01	6.5148	11.808861	0.000243	2.428582	0.822826	0.000097
 165	1.6318e+01	6.5581	11.911918	0.000258	2.581644	0.874685	0.000104
 166	1.6418e+01	6.5934	12.020271	0.000271	2.714298	0.919629	0.000109
 167	1.6517e+01	6.6287	12.117626	0.000244	2.438786	0.826283	0.000098
 168	1.6616e+01	6.6608	12.223943	0.000266	2.663277	0.902343	0.000107
 169	1.6716e+01	6.7169	12.325778	0.000255	2.551032	0.864313	0.000102
 170	1.6816e+01	6.7683	12.433724	0.000270	2.704094	0.916172	0.000108
 171	1.6915e+01	6.8036	12.531486	0.000245	2.448990	0.829740	0.000098
 172	1.7015e+01	6.8324	12.638210	0.000267	2.673481	0.905800	0.000107
 173	1.7114e+01	6.8677	12.732306	0.000236	2.357153	0.798625	0.000095
 174	1.7213e+01	6.9110	12.839845	0.000269	2.693890	0.912714	0.000108
 175	1.7313e+01	6.9592	12.940458	0.000252	2.520419	0.853941	0.000101
 176	1.7413e+01	6.9961	13.047589	0.000268	2.683685	0.909257	0.000108
 177	1.7512e+01	7.0297	13.151462	0.000260	2.602052	0.881599	0.000104
 178	1.7611e+01	7.0602	13.253297	0.000255	2.551032	0.864313	0.000102
 179	1.7711e+01	7.1469	13.359206	0.000265	2.653073	0.898885	0.000106
 180	1.7811e+01	7.1485	13.466337	0.000268	2.683685	0.909257	0.000108
 181	1.7910e+01	7.1982	13.564100	0.000245	2.448990	0.829740	0.000098
 182	1.8009e+01	7.2463	13.669601	0.000264	2.642869	0.895428	0.000106
 183	1.8109e+01	7.2864	13.778769	0.000273	2.734706	0.926543	0.000110
 184	1.8209e+01	7.3329	13.881012	0.000256	2.561236	0.867770	0.000103
 185	1.8308e+01	7.3426	13.986107	0.000263	2.632665	0.891971	0.000106
 186	1.8407e+01	7.3923	14.085498	0.000249	2.489807	0.843569	0.000100
 187	1.8507e+01	7.4260	14.187334	0.000255	2.551032	0.864313	0.000102
 188	1.8607e+01	7.4725	14.289577	0.000256	2.561236	0.867770	0.000103
 189	1.8706e+01	7.5174	14.395893	0.000266	2.663277	0.902343	0.000107
 190	1.8805e+01	7.5591	14.494470	0.000247	2.469399	0.836655	0.000099
 191	1.8905e+01	7.5976	14.595898	0.000254	2.540828	0.860856	0.000102
 192	1.9005e+01	7.6570	14.697734	0.000255	2.551032	0.864313	0.000102
 193	1.9104e+01	7.6730	14.810160	0.000282	2.816339	0.954201	0.000113
 194	1.9203e+01	7.7148	14.908330	0.000246	2.459195	0.833198	0.000099
 195	1.9303e+01	7.7709	15.013017	0.000262	2.622461	0.888514	0.000105
 196	1.9402e+01	7.8062	15.114853	0.000255	2.551032	0.864313	0.000102
 197	1.9502e+01	7.8351	15.218318	0.000259	2.591848	0.878142	0.000104
 198	1.9602e+01	7.8832	15.316080	0.000245	2.448990	0.829740	0.000098
 199	1.9701e+01	7.8992	15.418730	0.000257	2.571440	0.871227	0.000103
 200	1.9800e+01	7.9506	15.516492	0.000245	2.448990	0.829740	0.000098
 201	1.9900e+01	8.0003	15.620365	0.000260	2.602052	0.881599	0.000104
 202	2.0000e+01	8.0372	15.718534	0.000246	2.459195	0.833198	0.000099
 203	2.0099e+01	8.0597	15.822407	0.000260	2.602052	0.881599	0.000104
 204	2.0198e+01	8.0982	15.916910	0.000237	2.367357	0.802082	0.000095
 205	2.0298e+01	8.1415	16.022819	0.000265	2.653073	0.898885	0.000106
 206	2.0398e+01	8.1848	16.120581	0.000245	2.448990	0.829740	0.000098
 207	2.0497e+01	8.2329	16.220788	0.000251	2.510215	0.850484	0.000101
 208	2.0596e+01	8.2554	16.316106	0.000239	2.387766	0.808997	0.000096
 209	2.0696e+01	8.3051	16.421608	0.000264	2.642869	0.895428	0.000106
 210	2.0796e+01	8.3420	16.520999	0.000249	2.489807	0.843569	0.000100
 211	2.0895e+01	8.4094	16.615910	0.000238	2.377562	0.805540	0.000095
 212	2.0994e+01	8.4270	16.722226	0.000266	2.663277	0.902343	0.000107
 213	2.1094e+01	8.4671	16.814693	0.000232	2.316337	0.784796	0.000093
 214	2.1194e+01	8.5089	16.911641	0.000243	2.428582	0.822826	0.000097
 215	2.1293e+01	8.5538	17.015513	0.000260	2.602052	0.881599	0.000104
 216	2.1392e+01	8.5875	17.116534	0.000253	2.530623	0.857398	0.000102
 217	2.1492e+01	8.6228	17.209408	0.000233	2.326541	0.788253	0.000093
 218	2.1591e+01	8.6661	17.306356	0.000243	2.428582	0.822826	0.000097
 219	2.1691e+01	8.7014	17.406562	0.000251	2.510215	0.850484	0.000101
 220	2.1791e+01	8.7687	17.510027	0.000259	2.591848	0.878142	0.000104
 221	2.1890e+01	8.7928	17.604938	0.000238	2.377562	0.805540	0.000095
 222	2.1989e+01	8.8425	17.701478	0.000242	2.418378	0.819369	0.000097
 223	2.2089e+01	8.8554	17.800055	0.000247	2.469399	0.836655	0.000099
 224	2.2189e+01	8.9131	17.900668	0.000252	2.520419	0.853941	0.000101
 225	2.2288e+01	8.9500	17.997616	0.000243	2.428582	0.822826	0.000097
 226	2.2387e+01	8.9773	18.096600	0.000248	2.479603	0.840112	0.000099
 227	2.2487e+01	9.0270	18.193548	0.000243	2.428582	0.822826	0.000097
 228	2.2587e+01	9.0735	18.293754	0.000251	2.510215	0.850484	0.000101
 229	2.2686e+01	9.1104	18.391109	0.000244	2.438786	0.826283	0.000098
 230	2.2785e+01	9.1457	18.489686	0.000247	2.469399	0.836655	0.000099
 231	2.2885e+01	9.1794	18.587041	0.000244	2.438786	0.826283	0.000098
 232	2.2985e+01	9.2372	18.686840	0.000250	2.500011	0.847027	0.000100
 233	2.3084e+01	9.2644	18.778899	0.000231	2.306133	0.781339	0.000093
 234	2.3183e+01	9.2933	18.879920	0.000253	2.530623	0.857398	0.000102
 235	2.3283e+01	9.3527	18.977682	0.000245	2.448990	0.829740	0.000098
 236	2.3383e+01	9.3799	19.078296	0.000252	2.520419	0.853941	0.000101
 237	2.3482e+01	9.4457	19.175651	0.000244	2.438786	0.826283	0.000098
 238	2.3581e+01	9.4634	19.270154	0.000237	2.367357	0.802082	0.000095
 239	2.3681e+01	9.5147	19.363843	0.000235	2.346949	0.795168	0.000094
 240	2.3780e+01	9.5564	19.464049	0.000251	2.510215	0.850484	0.000101
 241	2.3880e+01	9.5933	19.567921	0.000260	2.602052	0.881599	0.000104
 242	2.3980e+01	9.6029	19.664054	0.000241	2.408174	0.815911	0.000097
 243	2.4079e+01	9.6799	19.758150	0.000236	2.357153	0.798625	0.000095
 244	2.4178e+01	9.6992	19.852654	0.000237	2.367357	0.802082	0.000095
 245	2.4278e+01	9.7505	19.952046	0.000249	2.489807	0.843569	0.000100
 246	2.4378e+01	9.7906	20.050215	0.000246	2.459195	0.833198	0.000099
 247	2.4477e+01	9.8436	20.147977	0.000245	2.448990	0.829740	0.000098
 248	2.4576e+01	9.8676	20.238407	0.000227	2.265316	0.767510	0.000091
 249	2.4676e+01	9.9029	20.341465	0.000258	2.581644	0.874685	0.000104
 250	2.4776e+01	9.9382	20.429451	0.000220	2.204091	0.746766	0.000088
 251	2.4875e+01	9.9992	20.528843	0.000249	2.489807	0.843569	0.000100
 252	2.4974e+01	10.0136	20.618458	0.000224	2.244908	0.760595	0.000090
 253	2.5074e+01	10.0585	20.717035	0.000247	2.469399	0.836655	0.000099
 254	2.5174e+01	10.1035	20.809909	0.000233	2.326541	0.788253	0.000093
 255	2.5273e+01	10.1452	20.913374	0.000259	2.591848	0.878142	0.000104
 256	2.5372e+01	10.1885	21.006248	0.000233	2.326541	0.788253	0.000093
 257	2.5472e+01	10.2190	21.102788	0.000242	2.418378	0.819369	0.000097
 258	2.5572e+01	10.2671	21.192404	0.000224	2.244908	0.760595	0.000090
 259	2.5671e+01	10.2847	21.290980	0.000247	2.469399	0.836655	0.000099
 260	2.5770e+01	10.3232	21.391594	0.000252	2.520419	0.853941	0.000101
 261	2.5870e+01	10.3938	21.482024	0.000227	2.265316	0.767510	0.000091
 262	2.5970e+01	10.4195	21.574898	0.000233	2.326541	0.788253	0.000093
