»»»»»»»»»»»»»»»»»»»»»»»»»»»»»»»»»»»» Hysteresis ««««««««««««««««««««««««««««««««««««
»»»  Executed Version:	5.48.1
»»»  Vision Version:	5.48.4 (R)
»»»  Vision Compiled:	9/18/24
»»»  Driver Version:	5.47.0
»»»  Windows Version:	Windows 8 or 8.1
»»»  Processor Information:	x86 (AMD or Intel) - 32 Processors
»»»  Tester Name:	PMF21124-494 (100V)
»»»  Tester S/N:	PMF21124-494
»»»  Internal Amp Type:	100V RevK 270k
»»»  Internal Amp S/N:	iAB2-596/K     
»»»  Execution Count:	1
»»»»»»»»»»»»»»»»»»»»»»»»»»»»»»»»»»»»»»»»»»««««««««««««««««««««««««««««««««««««««««««

Stored:	6/19/2025 - 14:53:24
Configured:	06/19/25 10:04:32 AM
Executed:	06/19/25 02:53:04 PM

»»»»»»»»»»»»»»»»»»»»»»»»»»»»»»»»»»» Sample Info ««««««««««««««««««««««««««««««««««««
Sample Name:	
Lot Name:	
Wafer Name:	
Die Row/Column:	0/0
Capacitor Number:	0
Sample Area (cm2):	1.00e-04
Sample Thickness (microns):	3.00e-01

Amplifier:	Internal

»»»»»»»»»»»»»»»»»»»»»»»»»»»»»»»»»»» Tester Info «««««««««««««««««««««««««««««««««««
Tester Name:	PMF21124-494 (100V)
Tester Serial Number:	PMF21124-494
Return Signal Amp. Level:	1.79 [Index: 2]

»»»»»»»»»»»»»»»»»»»»»»»»»»»»»»»» Hysteresis Info ««««««««««««««««««««««««««««««««««
Task Name:	Hyst-1168
Volts:	20.00
Field:	666.67 (kV/cm)
DCBias:	0.00
DCField:	0.00 (kV/cm)
Hysteresis Period (ms):	1.00e+00
Preset:	Enabled
Preset Delay (ms):	1.00e+03
Profile:	Standard Bipolar

»»»»»»»»»»»»»»»»»»»»»»»»»»»»»»»»»»»»»» Data «««««««««««««««««««««««««««««««««««««««
Points:	2001

Valid Data

Point	Time (ms)	Drive Voltage	Measured Polarization (uC/cm2)	Capacitance (uF)	Normalized Capacitance (uF/cm2)	Dielectric Constant	Instantaneous Current (mA)
   1	0.0000e+00	0.0529	-2.518927	0.000683	6.832017	2.314750	0.054736
   2	5.0000e-04	0.0578	-2.245247	0.000683	6.832017	2.314750	0.054736
   3	1.0000e-03	0.1187	-2.465901	-0.000551	-5.508314	-1.866267	-0.044131
   4	1.5000e-03	0.1652	-2.246957	0.000547	5.465614	1.851800	0.043789
   5	2.0000e-03	0.1845	-2.048539	0.000495	4.953213	1.678194	0.039684
   6	2.5000e-03	0.2551	-2.091729	-0.000108	-1.078178	-0.365297	-0.008638
   7	3.0000e-03	0.2920	-1.891173	0.000501	5.006588	1.696278	0.040111
   8	3.5000e-03	0.3064	-1.858246	0.000082	0.821977	0.278493	0.006585
   9	4.0000e-03	0.3706	-1.758609	0.000249	2.487281	0.842714	0.019927
  10	4.5000e-03	0.3946	-1.617920	0.000351	3.512084	1.189926	0.028138
  11	5.0000e-03	0.4283	-1.485784	0.000330	3.298583	1.117590	0.026427
  12	5.5000e-03	0.4716	-1.266412	0.000548	5.476289	1.855417	0.043874
  13	6.0000e-03	0.5342	-1.544796	-0.000695	-6.949443	-2.354535	-0.055677
  14	6.5000e-03	0.5615	-1.180460	0.000910	9.095123	3.081511	0.072867
  15	7.0000e-03	0.6048	-1.029080	0.000378	3.778960	1.280346	0.030276
  16	7.5000e-03	0.6369	-1.007699	0.000053	0.533751	0.180840	0.004276
  17	8.0000e-03	0.6786	-0.967930	0.000099	0.992778	0.336362	0.007954
  18	8.5000e-03	0.7155	-0.685270	0.000706	7.056193	2.390703	0.056532
  19	9.0000e-03	0.7524	-0.756255	-0.000177	-1.772055	-0.600388	-0.014197
  20	9.5000e-03	0.8182	-0.704085	0.000130	1.302353	0.441249	0.010434
  21	1.0000e-02	0.8326	-0.465898	0.000595	5.945990	2.014556	0.047637
  22	1.0500e-02	0.8743	-0.432543	0.000083	0.832652	0.282110	0.006671
  23	1.1000e-02	0.9208	-0.350011	0.000206	2.060280	0.698042	0.016506
  24	1.1500e-02	0.9738	-0.170409	0.000448	4.483511	1.519055	0.035921
  25	1.2000e-02	0.9962	-0.167843	0.000006	0.064050	0.021701	0.000513
  26	1.2500e-02	1.0251	-0.132350	0.000089	0.886027	0.300194	0.007099
  27	1.3000e-02	1.0877	0.076759	0.000522	5.220088	1.768614	0.041822
  28	1.3500e-02	1.1310	0.239256	0.000406	4.056510	1.374383	0.032500
  29	1.4000e-02	1.1599	0.261493	0.000056	0.555101	0.188073	0.004447
  30	1.4500e-02	1.2048	0.337610	0.000190	1.900155	0.643790	0.015223
  31	1.5000e-02	1.2208	0.660467	0.000806	8.059646	2.730682	0.064571
  32	1.5500e-02	1.2593	0.555271	-0.000263	-2.626057	-0.889732	-0.021039
  33	1.6000e-02	1.3283	0.617705	0.000156	1.558554	0.528052	0.012487
  34	1.6500e-02	1.3700	0.736157	0.000296	2.956983	1.001853	0.023690
  35	1.7000e-02	1.3861	0.933292	0.000492	4.921188	1.667343	0.039427
  36	1.7500e-02	1.4342	1.017107	0.000209	2.092305	0.708892	0.016763
  37	1.8000e-02	1.4839	1.063718	0.000116	1.163578	0.394231	0.009322
  38	1.8500e-02	1.5096	1.246314	0.000456	4.558237	1.544372	0.036519
  39	1.9000e-02	1.5641	1.286083	0.000099	0.992778	0.336362	0.007954
  40	1.9500e-02	1.6139	1.313451	0.000068	0.683202	0.231475	0.005474
  41	2.0000e-02	1.6347	1.447298	0.000334	3.341284	1.132058	0.026769
  42	2.0500e-02	1.6780	1.699169	0.000629	6.287591	2.130294	0.050374
  43	2.1000e-02	1.7229	1.719267	0.000050	0.501726	0.169989	0.004020
  44	2.1500e-02	1.7598	1.820187	0.000252	2.519306	0.853564	0.020184
  45	2.2000e-02	1.7967	1.895877	0.000189	1.889480	0.640173	0.015138
  46	2.2500e-02	1.8609	1.951040	0.000138	1.377079	0.466567	0.011033
  47	2.3000e-02	1.8834	2.137485	0.000465	4.654312	1.576924	0.037289
  48	2.3500e-02	1.9235	2.217451	0.000200	1.996230	0.676341	0.015993
  49	2.4000e-02	1.9892	2.310673	0.000233	2.327156	0.788462	0.018644
  50	2.4500e-02	1.9909	2.456493	0.000364	3.640184	1.233328	0.029164
  51	2.5000e-02	2.0358	2.531755	0.000188	1.878805	0.636556	0.015052
  52	2.5500e-02	2.0598	2.734877	0.000507	5.070638	1.717979	0.040624
  53	2.6000e-02	2.1336	2.797738	0.000157	1.569229	0.531669	0.012572
  54	2.6500e-02	2.1641	2.700667	-0.000242	-2.423231	-0.821013	-0.019414
  55	2.7000e-02	2.1882	2.961519	0.000651	6.511767	2.206246	0.052170
  56	2.7500e-02	2.2170	2.985466	0.000060	0.597802	0.202541	0.004789
  57	2.8000e-02	2.2764	3.205693	0.000550	5.497639	1.862651	0.044045
  58	2.8500e-02	2.3021	3.221943	0.000041	0.405651	0.137438	0.003250
  59	2.9000e-02	2.3775	3.376743	0.000386	3.864360	1.309281	0.030960
  60	2.9500e-02	2.4096	3.450295	0.000184	1.836105	0.622089	0.014710
  61	3.0000e-02	2.4416	3.520425	0.000175	1.750704	0.593155	0.014026
  62	3.0500e-02	2.4753	3.615786	0.000238	2.380531	0.806546	0.019072
  63	3.1000e-02	2.5074	3.733810	0.000295	2.946308	0.998236	0.023605
  64	3.1500e-02	2.5748	3.655982	-0.000194	-1.942855	-0.658257	-0.015566
  65	3.2000e-02	2.5956	3.948906	0.000731	7.312394	2.477506	0.058585
  66	3.2500e-02	2.6454	4.089594	0.000351	3.512084	1.189926	0.028138
  67	3.3000e-02	2.6775	4.066075	-0.000059	-0.587127	-0.198924	-0.004704
  68	3.3500e-02	2.7079	4.275184	0.000522	5.220088	1.768614	0.041822
  69	3.4000e-02	2.7625	4.229855	-0.000113	-1.131553	-0.383381	-0.009066
  70	3.4500e-02	2.7898	4.543732	0.000784	7.835470	2.654729	0.062775
  71	3.5000e-02	2.8283	4.600179	0.000141	1.409104	0.477417	0.011289
  72	3.5500e-02	2.8860	4.666461	0.000165	1.654629	0.560604	0.013256
  73	3.6000e-02	2.9293	4.574521	-0.000230	-2.295131	-0.777611	-0.018388
  74	3.6500e-02	2.9470	4.951259	0.000940	9.404699	3.186398	0.075348
  75	3.7000e-02	2.9919	5.072277	0.000302	3.021033	1.023554	0.024204
  76	3.7500e-02	3.0464	5.030798	-0.000104	-1.035478	-0.350829	-0.008296
  77	3.8000e-02	3.0881	5.105204	0.000186	1.857455	0.629323	0.014881
  78	3.8500e-02	3.1106	5.215532	0.000275	2.754157	0.933134	0.022065
  79	3.9000e-02	3.1684	5.368622	0.000382	3.821660	1.294813	0.030618
  80	3.9500e-02	3.2069	5.281386	-0.000218	-2.177706	-0.737827	-0.017447
  81	4.0000e-02	3.2406	5.674374	0.000981	9.810350	3.323837	0.078598
  82	4.0500e-02	3.2678	5.707728	0.000083	0.832652	0.282110	0.006671
  83	4.1000e-02	3.3352	5.876213	0.000421	4.205961	1.425018	0.033697
  84	4.1500e-02	3.3801	5.620065	-0.000639	-6.394341	-2.166462	-0.051230
  85	4.2000e-02	3.3930	6.073776	0.001133	11.326204	3.837422	0.090742
  86	4.2500e-02	3.4411	6.145189	0.000178	1.782730	0.604005	0.014283
  87	4.3000e-02	3.4812	6.169564	0.000061	0.608477	0.206157	0.004875
  88	4.3500e-02	3.5181	6.361567	0.000479	4.793087	1.623942	0.038401
  89	4.4000e-02	3.5646	6.502256	0.000351	3.512084	1.189926	0.028138
  90	4.4500e-02	3.5935	6.521927	0.000049	0.491051	0.166373	0.003934
  91	4.5000e-02	3.6336	6.620281	0.000246	2.455256	0.831863	0.019671
  92	4.5500e-02	3.6609	6.694260	0.000185	1.846780	0.625706	0.014796
  93	4.6000e-02	3.7218	7.058169	0.000908	9.084448	3.077894	0.072782
  94	4.6500e-02	3.7571	6.935868	-0.000305	-3.053058	-1.034404	-0.024460
  95	4.7000e-02	3.8149	7.043630	0.000269	2.690107	0.911433	0.021552
  96	4.7500e-02	3.8470	7.053465	0.000025	0.245526	0.083186	0.001967
  97	4.8000e-02	3.8806	7.212542	0.000397	3.971110	1.345449	0.031815
  98	4.8500e-02	3.9223	7.428492	0.000539	5.390889	1.826483	0.043190
  99	4.9000e-02	3.9480	7.508886	0.000201	2.006905	0.679958	0.016079
 100	4.9500e-02	4.0154	7.477242	-0.000079	-0.789952	-0.267643	-0.006329
 101	5.0000e-02	4.0443	7.598687	0.000303	3.031708	1.027170	0.024289
 102	5.0500e-02	4.0892	7.783849	0.000462	4.622287	1.566073	0.037032
 103	5.1000e-02	4.1181	7.804803	0.000052	0.523076	0.177223	0.004191
 104	5.1500e-02	4.1502	7.858683	0.000135	1.345053	0.455716	0.010776
 105	5.2000e-02	4.1903	7.972432	0.000284	2.839557	0.962068	0.022750
 106	5.2500e-02	4.2368	8.288875	0.000790	7.899520	2.676430	0.063289
 107	5.3000e-02	4.2833	8.366702	0.000194	1.942855	0.658257	0.015566
 108	5.3500e-02	4.3202	8.457786	0.000227	2.273781	0.770378	0.018217
 109	5.4000e-02	4.3555	8.462063	0.000011	0.106750	0.036168	0.000855
 110	5.4500e-02	4.4084	8.623277	0.000402	4.024485	1.363533	0.032243
 111	5.5000e-02	4.4517	8.651073	0.000069	0.693877	0.235092	0.005559
 112	5.5500e-02	4.4774	8.885412	0.000585	5.849915	1.982005	0.046868
 113	5.6000e-02	4.5352	8.947417	0.000155	1.547879	0.524436	0.012401
 114	5.6500e-02	4.5705	9.006430	0.000147	1.473154	0.499118	0.011802
 115	5.7000e-02	4.6138	9.217249	0.000526	5.262788	1.783081	0.042164
 116	5.7500e-02	4.6362	9.238203	0.000052	0.523076	0.177223	0.004191
 117	5.8000e-02	4.6972	9.210407	-0.000069	-0.693877	-0.235092	-0.005559
 118	5.8500e-02	4.7197	9.452015	0.000603	6.031390	2.043490	0.048322
 119	5.9000e-02	4.7598	9.517442	0.000163	1.633279	0.553370	0.013085
 120	5.9500e-02	4.8015	9.574316	0.000142	1.419779	0.481034	0.011375
 121	6.0000e-02	4.8336	9.708590	0.000335	3.351959	1.135674	0.026855
 122	6.0500e-02	4.8672	9.826615	0.000295	2.946308	0.998236	0.023605
 123	6.1000e-02	4.9234	9.953192	0.000316	3.159808	1.070572	0.025315
 124	6.1500e-02	4.9507	9.971580	0.000046	0.459026	0.155522	0.003678
 125	6.2000e-02	5.0277	10.090032	0.000296	2.956983	1.001853	0.023690
 126	6.2500e-02	5.0405	10.275194	0.000462	4.622287	1.566073	0.037032
 127	6.3000e-02	5.0870	10.301707	0.000066	0.661852	0.224241	0.005303
 128	6.3500e-02	5.1271	10.565551	0.000659	6.586492	2.231564	0.052769
 129	6.4000e-02	5.1608	10.386804	-0.000446	-4.462161	-1.511821	-0.035749
 130	6.4500e-02	5.1913	10.674168	0.000717	7.173618	2.430488	0.057473
 131	6.5000e-02	5.2426	10.781930	0.000269	2.690107	0.911433	0.021552
 132	6.5500e-02	5.2587	10.781502	-0.000001	-0.010675	-0.003617	-0.000086
 133	6.6000e-02	5.3148	11.009854	0.000570	5.700465	1.931370	0.045670
 134	6.6500e-02	5.3581	11.247614	0.000594	5.935315	2.010939	0.047552
 135	6.7000e-02	5.3918	11.240344	-0.000018	-0.181475	-0.061486	-0.001454
 136	6.7500e-02	5.4448	11.251890	0.000029	0.288226	0.097654	0.002309
 137	6.8000e-02	5.4913	11.476821	0.000562	5.615064	1.902435	0.044986
 138	6.8500e-02	5.5186	11.570898	0.000235	2.348506	0.795695	0.018816
 139	6.9000e-02	5.5667	11.619220	0.000121	1.206278	0.408698	0.009664
 140	6.9500e-02	5.5972	11.739383	0.000300	2.999683	1.016320	0.024033
 141	7.0000e-02	5.6293	11.849283	0.000274	2.743482	0.929517	0.021980
 142	7.0500e-02	5.6645	11.892045	0.000107	1.067503	0.361680	0.008553
 143	7.1000e-02	5.7255	12.119114	0.000567	5.668440	1.920519	0.045414
 144	7.1500e-02	5.7656	12.117404	-0.000004	-0.042700	-0.014467	-0.000342
 145	7.2000e-02	5.7961	12.286316	0.000422	4.216636	1.428635	0.033782
 146	7.2500e-02	5.8346	12.328223	0.000105	1.046153	0.354446	0.008381
 147	7.3000e-02	5.8827	12.484734	0.000391	3.907060	1.323748	0.031302
 148	7.3500e-02	5.9260	12.673744	0.000472	4.718362	1.598624	0.037802
 149	7.4000e-02	5.9597	12.617298	-0.000141	-1.409104	-0.477417	-0.011289
 150	7.4500e-02	5.9918	12.839235	0.000554	5.540339	1.877118	0.044388
 151	7.5000e-02	6.0351	12.969233	0.000325	3.245208	1.099506	0.026000
 152	7.5500e-02	6.0784	13.081271	0.000280	2.796857	0.947601	0.022408
 153	7.6000e-02	6.1218	13.169789	0.000221	2.209731	0.748677	0.017704
 154	7.6500e-02	6.1875	13.251466	0.000204	2.038930	0.690808	0.016335
 155	7.7000e-02	6.1972	13.387023	0.000338	3.383984	1.146525	0.027111
 156	7.7500e-02	6.2453	13.453733	0.000167	1.665304	0.564220	0.013342
 157	7.8000e-02	6.2966	13.386595	-0.000168	-1.675979	-0.567837	-0.013427
 158	7.8500e-02	6.3271	13.664124	0.000693	6.928093	2.347301	0.055506
 159	7.9000e-02	6.3528	13.779583	0.000288	2.882257	0.976535	0.023092
 160	7.9500e-02	6.4201	13.867246	0.000219	2.188381	0.741443	0.017533
 161	8.0000e-02	6.4250	14.033592	0.000415	4.152586	1.406934	0.033269
 162	8.0500e-02	6.4827	14.122111	0.000221	2.209731	0.748677	0.017704
 163	8.1000e-02	6.4891	14.318819	0.000491	4.910513	1.663727	0.039342
 164	8.1500e-02	6.5501	14.407337	0.000221	2.209731	0.748677	0.017704
 165	8.2000e-02	6.5693	14.382535	-0.000062	-0.619152	-0.209774	-0.004960
 166	8.2500e-02	6.6511	14.359015	-0.000059	-0.587127	-0.198924	-0.004704
 167	8.3000e-02	6.6688	14.535197	0.000440	4.398111	1.490120	0.035236
 168	8.3500e-02	6.7089	14.557433	0.000056	0.555101	0.188073	0.004447
 169	8.4000e-02	6.7667	14.893119	0.000838	8.379896	2.839186	0.067137
 170	8.4500e-02	6.7971	14.841804	-0.000128	-1.281003	-0.434016	-0.010263
 171	8.5000e-02	6.8437	14.950849	0.000272	2.722132	0.922283	0.021809
 172	8.5500e-02	6.9078	14.961967	0.000028	0.277551	0.094037	0.002224
 173	8.6000e-02	6.8998	15.178345	-0.000540	-5.401564	-1.830099	0.043276
 174	8.6500e-02	6.9640	15.296798	0.000296	2.956983	1.001853	0.023690
 175	8.7000e-02	6.9961	15.352816	0.000140	1.398429	0.473800	0.011204
 176	8.7500e-02	7.0362	15.571333	0.000545	5.454939	1.848183	0.043703
 177	8.8000e-02	7.0811	15.425513	-0.000364	-3.640184	-1.233328	-0.029164
 178	8.8500e-02	7.1051	15.797547	0.000929	9.287274	3.146614	0.074407
 179	8.9000e-02	7.1565	15.766758	-0.000077	-0.768602	-0.260409	-0.006158
 180	8.9500e-02	7.2030	15.897183	0.000326	3.255883	1.103123	0.026085
 181	9.0000e-02	7.2511	16.030175	0.000332	3.319934	1.124824	0.026598
 182	9.0500e-02	7.2704	16.168298	0.000345	3.448034	1.168225	0.027625
 183	9.1000e-02	7.3201	16.389380	0.000552	5.518989	1.869884	0.044216
 184	9.1500e-02	7.3875	16.366716	-0.000057	-0.565776	-0.191690	-0.004533
 185	9.2000e-02	7.3987	16.518523	0.000379	3.789635	1.283963	0.030361
 186	9.2500e-02	7.4436	16.411617	-0.000267	-2.668757	-0.904199	-0.021381
 187	9.3000e-02	7.4693	16.818288	0.001015	10.151951	3.439574	0.081334
 188	9.3500e-02	7.5046	16.919635	0.000253	2.529981	0.857181	0.020269
 189	9.4000e-02	7.5479	17.059469	0.000349	3.490734	1.182693	0.027967
 190	9.4500e-02	7.5912	17.106508	0.000117	1.174253	0.397848	0.009408
 191	9.5000e-02	7.6426	17.054337	-0.000130	-1.302353	-0.441249	-0.010434
 192	9.5500e-02	7.6875	17.256604	0.000505	5.049288	1.710745	0.040453
 193	9.6000e-02	7.7180	17.316472	0.000149	1.494504	0.506352	0.011974
 194	9.6500e-02	7.7388	17.406273	0.000224	2.241756	0.759527	0.017960
 195	9.7000e-02	7.8142	17.459726	0.000133	1.334378	0.452100	0.010691
 196	9.7500e-02	7.8335	17.523015	0.000158	1.579904	0.535286	0.012658
 197	9.8000e-02	7.8832	17.818504	0.000738	7.376444	2.499207	0.059098
 198	9.8500e-02	7.9233	17.920706	0.000255	2.551332	0.864415	0.020440
 199	9.9000e-02	7.9618	18.041724	0.000302	3.021033	1.023554	0.024204
 200	9.9500e-02	8.0131	18.106296	0.000161	1.611929	0.546136	0.012914
 201	1.0000e-01	8.0372	18.157611	0.000128	1.281003	0.434016	0.010263
 202	1.0050e-01	8.0677	18.416752	0.000647	6.469067	2.191779	0.051828
 203	1.0100e-01	8.1270	18.487737	0.000177	1.772055	0.600388	0.014197
 204	1.0150e-01	8.1720	18.496717	0.000022	0.224176	0.075953	0.001796
 205	1.0200e-01	8.1992	18.704971	0.000520	5.198738	1.761380	0.041651
 206	1.0250e-01	8.2201	18.733622	0.000072	0.715227	0.242325	0.005730
 207	1.0300e-01	8.2939	18.838390	0.000262	2.615382	0.886115	0.020954
 208	1.0350e-01	8.3212	18.981645	0.000358	3.576134	1.211627	0.028651
 209	1.0400e-01	8.3532	19.201872	0.000550	5.497639	1.862651	0.044045
 210	1.0450e-01	8.3998	19.215556	0.000034	0.341601	0.115738	0.002737
 211	1.0500e-01	8.4543	19.295521	0.000200	1.996230	0.676341	0.015993
 212	1.0550e-01	8.4687	19.427230	0.000329	3.287908	1.113974	0.026342
 213	1.0600e-01	8.5249	19.528577	0.000253	2.529981	0.857181	0.020269
 214	1.0650e-01	8.5714	19.560649	0.000080	0.800627	0.271260	0.006414
 215	1.0700e-01	8.5875	19.769330	0.000521	5.209413	1.764997	0.041736
 216	1.0750e-01	8.6292	19.833902	0.000161	1.611929	0.546136	0.012914
 217	1.0800e-01	8.6548	19.986992	0.000382	3.821660	1.294813	0.030618
 218	1.0850e-01	8.6965	20.225606	0.000596	5.956665	2.018173	0.047723
 219	1.0900e-01	8.7719	20.161463	-0.000160	-1.601254	-0.542520	-0.012829
 220	1.0950e-01	8.7928	20.120838	-0.000101	-1.014128	-0.343596	-0.008125
 221	1.1000e-01	8.8554	20.332085	0.000527	5.273464	1.786698	0.042249
 222	1.1050e-01	8.8794	20.532641	0.000501	5.006588	1.696278	0.040111
 223	1.1100e-01	8.9115	20.541622	0.000022	0.224176	0.075953	0.001796
 224	1.1150e-01	8.9628	20.682738	0.000352	3.522759	1.193543	0.028223
 225	1.1200e-01	8.9933	20.787078	0.000260	2.604707	0.882499	0.020868
 226	1.1250e-01	9.0479	20.902537	0.000288	2.882257	0.976535	0.023092
 227	1.1300e-01	9.0767	21.004740	0.000255	2.551332	0.864415	0.020440
 228	1.1350e-01	9.1393	21.139869	0.000337	3.373309	1.142908	0.027026
 229	1.1400e-01	9.1473	21.236940	0.000242	2.423231	0.821013	0.019414
 230	1.1450e-01	9.2099	21.407990	0.000427	4.270011	1.446719	0.034210
 231	1.1500e-01	9.2388	21.465292	0.000143	1.430454	0.484651	0.011460
 232	1.1550e-01	9.2949	21.508482	0.000108	1.078178	0.365297	0.008638
 233	1.1600e-01	9.3382	21.593580	0.000212	2.124330	0.719743	0.017019
 234	1.1650e-01	9.3719	21.798840	0.000512	5.124013	1.736063	0.041052
 235	1.1700e-01	9.3992	21.893773	0.000237	2.369856	0.802929	0.018987
 236	1.1750e-01	9.4313	22.040876	0.000367	3.672209	1.244178	0.029421
 237	1.1800e-01	9.4890	22.231597	0.000476	4.761062	1.613092	0.038144
 238	1.1850e-01	9.5227	22.304293	0.000181	1.814755	0.614856	0.014539
 239	1.1900e-01	9.5388	22.157617	-0.000366	-3.661534	-1.240561	-0.029335
 240	1.1950e-01	9.5949	22.509553	0.000879	8.785547	2.976624	0.070387
 241	1.2000e-01	9.6366	22.561296	0.000129	1.291678	0.437632	0.010349
 242	1.2050e-01	9.7008	22.630999	0.000174	1.740029	0.589538	0.013941
 243	1.2100e-01	9.7313	22.625012	-0.000015	-0.149450	-0.050635	-0.001197
 244	1.2150e-01	9.7457	22.975665	0.000875	8.753522	2.965774	0.070131
 245	1.2200e-01	9.8051	23.004743	0.000073	0.725902	0.245942	0.005816
 246	1.2250e-01	9.8372	22.974382	-0.000076	-0.757927	-0.256793	-0.006072
 247	1.2300e-01	9.8660	23.265595	0.000727	7.269694	2.463039	0.058243
 248	1.2350e-01	9.9077	23.280561	0.000037	0.373626	0.126588	0.002993
 249	1.2400e-01	9.9623	23.442631	0.000405	4.045835	1.370766	0.032414
 250	1.2450e-01	10.0072	23.464868	0.000056	0.555101	0.188073	0.004447
 251	1.2500e-01	10.0297	23.721443	0.000641	6.405016	2.170078	0.051315
 252	1.2550e-01	10.0730	23.631214	-0.000225	-2.252431	-0.763144	-0.018046
 253	1.2600e-01	10.1339	23.811244	0.000449	4.494187	1.522672	0.036006
 254	1.2650e-01	10.1708	23.934400	0.000307	3.074408	1.041638	0.024631
 255	1.2700e-01	10.2061	24.054563	0.000300	2.999683	1.016320	0.024033
 256	1.2750e-01	10.2270	24.209791	0.000388	3.875035	1.312897	0.031046
 257	1.2800e-01	10.2783	24.380414	0.000426	4.259336	1.443102	0.034124
 258	1.2850e-01	10.3152	24.207225	-0.000432	-4.323386	-1.464803	-0.034638
 259	1.2900e-01	10.3617	24.422321	0.000537	5.369539	1.819249	0.043019
 260	1.2950e-01	10.4147	24.569424	0.000367	3.672209	1.244178	0.029421
