»»»»»»»»»»»»»»»»»»»»»»»»»»»»»»»»»»»» Hysteresis ««««««««««««««««««««««««««««««««««««
»»»  Executed Version:	5.48.1
»»»  Vision Version:	5.48.4 (R)
»»»  Vision Compiled:	9/18/24
»»»  Driver Version:	5.47.0
»»»  Windows Version:	Windows 8 or 8.1
»»»  Processor Information:	x86 (AMD or Intel) - 32 Processors
»»»  Tester Name:	PMF21124-494 (100V)
»»»  Tester S/N:	PMF21124-494
»»»  Internal Amp Type:	100V RevK 270k
»»»  Internal Amp S/N:	iAB2-596/K     
»»»  Execution Count:	1
»»»»»»»»»»»»»»»»»»»»»»»»»»»»»»»»»»»»»»»»»»««««««««««««««««««««««««««««««««««««««««««

Stored:	6/19/2025 - 15:20:38
Configured:	06/19/25 10:04:32 AM
Executed:	06/19/25 03:20:09 PM

»»»»»»»»»»»»»»»»»»»»»»»»»»»»»»»»»»» Sample Info ««««««««««««««««««««««««««««««««««««
Sample Name:	
Lot Name:	
Wafer Name:	
Die Row/Column:	0/0
Capacitor Number:	0
Sample Area (cm2):	1.00e-04
Sample Thickness (microns):	3.00e-01

Amplifier:	Internal

»»»»»»»»»»»»»»»»»»»»»»»»»»»»»»»»»»» Tester Info «««««««««««««««««««««««««««««««««««
Tester Name:	PMF21124-494 (100V)
Tester Serial Number:	PMF21124-494
Return Signal Amp. Level:	0.19 [Index: 3]

»»»»»»»»»»»»»»»»»»»»»»»»»»»»»»»» Hysteresis Info ««««««««««««««««««««««««««««««««««
Task Name:	Hyst-1168
Volts:	20.00
Field:	666.67 (kV/cm)
DCBias:	0.00
DCField:	0.00 (kV/cm)
Hysteresis Period (ms):	2.00e+02
Preset:	Enabled
Preset Delay (ms):	1.00e+03
Profile:	Standard Bipolar

»»»»»»»»»»»»»»»»»»»»»»»»»»»»»»»»»»»»»» Data «««««««««««««««««««««««««««««««««««««««
Points:	2009

Valid Data

Point	Time (ms)	Drive Voltage	Measured Polarization (uC/cm2)	Capacitance (uF)	Normalized Capacitance (uF/cm2)	Dielectric Constant	Instantaneous Current (mA)
   1	0.0000e+00	0.0096	-3.274117	0.000324	3.243803	1.099030	0.000130
   2	9.9500e-02	0.0321	-3.144929	0.000324	3.243803	1.099030	0.000130
   3	1.9900e-01	0.0690	-3.035926	0.000274	2.736959	0.927307	0.000110
   4	2.9850e-01	0.1059	-2.922886	0.000284	2.838328	0.961651	0.000114
   5	3.9800e-01	0.1524	-2.805809	0.000294	2.939697	0.995996	0.000118
   6	4.9750e-01	0.2021	-2.680658	0.000314	3.142434	1.064686	0.000126
   7	5.9700e-01	0.2374	-2.583767	0.000243	2.432852	0.824273	0.000097
   8	6.9650e-01	0.2791	-2.446504	0.000345	3.446541	1.167720	0.000138
   9	7.9600e-01	0.3144	-2.297130	0.000375	3.750647	1.270754	0.000150
  10	8.9550e-01	0.3577	-2.192165	0.000264	2.635590	0.892962	0.000105
  11	9.9500e-01	0.3898	-2.054902	0.000345	3.446541	1.167720	0.000138
  12	1.0945e+00	0.4315	-1.901491	0.000385	3.852016	1.305098	0.000154
  13	1.1940e+00	0.4732	-1.800563	0.000253	2.534221	0.858617	0.000101
  14	1.2935e+00	0.5101	-1.643114	0.000395	3.953385	1.339443	0.000158
  15	1.3930e+00	0.5438	-1.513926	0.000324	3.243803	1.099030	0.000130
  16	1.4925e+00	0.5952	-1.368589	0.000365	3.649279	1.236409	0.000146
  17	1.5920e+00	0.6321	-1.243438	0.000314	3.142434	1.064686	0.000126
  18	1.6915e+00	0.6738	-1.170769	0.000182	1.824639	0.618205	0.000073
  19	1.7910e+00	0.7139	-1.021395	0.000375	3.750647	1.270754	0.000150
  20	1.8905e+00	0.7556	-0.884133	0.000345	3.446541	1.167720	0.000138
  21	1.9900e+00	0.7845	-0.767056	0.000294	2.939697	0.995996	0.000118
  22	2.0895e+00	0.8374	-0.637867	0.000324	3.243803	1.099030	0.000130
  23	2.1890e+00	0.8727	-0.524828	0.000284	2.838328	0.961651	0.000114
  24	2.2885e+00	0.9160	-0.355268	0.000426	4.257492	1.442477	0.000170
  25	2.3880e+00	0.9561	-0.234154	0.000304	3.041065	1.030341	0.000122
  26	2.4875e+00	0.9914	-0.084780	0.000375	3.750647	1.270754	0.000150
  27	2.5870e+00	1.0395	0.024223	0.000274	2.736959	0.927307	0.000110
  28	2.6865e+00	1.0700	0.173597	0.000375	3.750647	1.270754	0.000150
  29	2.7860e+00	1.1165	0.274525	0.000253	2.534221	0.858617	0.000101
  30	2.8855e+00	1.1550	0.440048	0.000416	4.156123	1.408133	0.000166
  31	2.9850e+00	1.2016	0.605570	0.000416	4.156123	1.408133	0.000166
  32	3.0845e+00	1.2353	0.702462	0.000243	2.432852	0.824273	0.000097
  33	3.1840e+00	1.2689	0.867984	0.000416	4.156123	1.408133	0.000166
  34	3.2835e+00	1.3123	0.997173	0.000324	3.243803	1.099030	0.000130
  35	3.3830e+00	1.3540	1.174806	0.000446	4.460229	1.511167	0.000179
  36	3.4825e+00	1.3909	1.275735	0.000253	2.534221	0.858617	0.000101
  37	3.5820e+00	1.4358	1.404923	0.000324	3.243803	1.099030	0.000130
  38	3.6815e+00	1.4679	1.558334	0.000385	3.852016	1.305098	0.000154
  39	3.7810e+00	1.5144	1.691560	0.000335	3.345172	1.133375	0.000134
  40	3.8805e+00	1.5497	1.816711	0.000314	3.142434	1.064686	0.000126
  41	3.9800e+00	1.5994	1.937825	0.000304	3.041065	1.030341	0.000122
  42	4.0795e+00	1.6363	2.095273	0.000395	3.953385	1.339443	0.000158
  43	4.1790e+00	1.6764	2.228499	0.000335	3.345172	1.133375	0.000134
  44	4.2785e+00	1.7149	2.369799	0.000355	3.547910	1.202064	0.000142
  45	4.3780e+00	1.7566	2.511098	0.000355	3.547910	1.202064	0.000142
  46	4.4775e+00	1.7983	2.628175	0.000294	2.939697	0.995996	0.000118
  47	4.5770e+00	1.8272	2.757364	0.000324	3.243803	1.099030	0.000130
  48	4.6765e+00	1.8737	2.894626	0.000345	3.446541	1.167720	0.000138
  49	4.7760e+00	1.9106	3.023815	0.000324	3.243803	1.099030	0.000130
  50	4.8755e+00	1.9540	3.153003	0.000324	3.243803	1.099030	0.000130
  51	4.9750e+00	1.9876	3.346786	0.000487	4.865705	1.648545	0.000195
  52	5.0745e+00	2.0229	3.471937	0.000314	3.142434	1.064686	0.000126
  53	5.1740e+00	2.0743	3.637459	0.000416	4.156123	1.408133	0.000166
  54	5.2735e+00	2.1128	3.798945	0.000405	4.054754	1.373788	0.000162
  55	5.3730e+00	2.1481	3.928133	0.000324	3.243803	1.099030	0.000130
  56	5.4725e+00	2.1946	4.049247	0.000304	3.041065	1.030341	0.000122
  57	5.5720e+00	2.2331	4.162287	0.000284	2.838328	0.961651	0.000114
  58	5.6715e+00	2.2732	4.299550	0.000345	3.446541	1.167720	0.000138
  59	5.7710e+00	2.3133	4.424701	0.000314	3.142434	1.064686	0.000126
  60	5.8705e+00	2.3502	4.553889	0.000324	3.243803	1.099030	0.000130
  61	5.9700e+00	2.4015	4.703263	0.000375	3.750647	1.270754	0.000150
  62	6.0695e+00	2.4288	4.824377	0.000304	3.041065	1.030341	0.000122
  63	6.1690e+00	2.4689	4.977788	0.000385	3.852016	1.305098	0.000154
  64	6.2685e+00	2.5074	5.119088	0.000355	3.547910	1.202064	0.000142
  65	6.3680e+00	2.5571	5.236165	0.000294	2.939697	0.995996	0.000118
  66	6.4675e+00	2.5812	5.385539	0.000375	3.750647	1.270754	0.000150
  67	6.5670e+00	2.6293	5.542987	0.000395	3.953385	1.339443	0.000158
  68	6.6665e+00	2.6662	5.664101	0.000304	3.041065	1.030341	0.000122
  69	6.7660e+00	2.7079	5.853847	0.000476	4.764336	1.614201	0.000191
  70	6.8655e+00	2.7464	5.999184	0.000365	3.649279	1.236409	0.000146
  71	6.9650e+00	2.7833	6.124335	0.000314	3.142434	1.064686	0.000126
  72	7.0645e+00	2.8315	6.285820	0.000405	4.054754	1.373788	0.000162
  73	7.1640e+00	2.8571	6.443269	0.000395	3.953385	1.339443	0.000158
  74	7.2635e+00	2.9037	6.552271	0.000274	2.736959	0.927307	0.000110
  75	7.3630e+00	2.9502	6.669348	0.000294	2.939697	0.995996	0.000118
  76	7.4625e+00	2.9839	6.842945	0.000436	4.358860	1.476822	0.000174
  77	7.5620e+00	3.0240	6.939836	0.000243	2.432852	0.824273	0.000097
  78	7.6615e+00	3.0641	7.073062	0.000335	3.345172	1.133375	0.000134
  79	7.7610e+00	3.1042	7.222436	0.000375	3.750647	1.270754	0.000150
  80	7.8605e+00	3.1411	7.387958	0.000416	4.156123	1.408133	0.000166
  81	7.9600e+00	3.1860	7.505035	0.000294	2.939697	0.995996	0.000118
  82	8.0595e+00	3.2245	7.638261	0.000335	3.345172	1.133375	0.000134
  83	8.1590e+00	3.2582	7.815895	0.000446	4.460229	1.511167	0.000179
  84	8.2585e+00	3.3015	7.937009	0.000304	3.041065	1.030341	0.000122
  85	8.3580e+00	3.3416	8.054086	0.000294	2.939697	0.995996	0.000118
  86	8.4575e+00	3.3881	8.219608	0.000416	4.156123	1.408133	0.000166
  87	8.5570e+00	3.4202	8.368982	0.000375	3.750647	1.270754	0.000150
  88	8.6565e+00	3.4684	8.502208	0.000335	3.345172	1.133375	0.000134
  89	8.7560e+00	3.5052	8.716176	0.000537	5.372549	1.820269	0.000215
  90	8.8555e+00	3.5373	8.833253	0.000294	2.939697	0.995996	0.000118
  91	8.9550e+00	3.5855	9.010887	0.000446	4.460229	1.511167	0.000179
  92	9.0545e+00	3.6320	9.087593	0.000193	1.926008	0.652549	0.000077
  93	9.1540e+00	3.6673	9.200632	0.000284	2.838328	0.961651	0.000114
  94	9.2535e+00	3.7042	9.370192	0.000426	4.257492	1.442477	0.000170
  95	9.3530e+00	3.7395	9.483232	0.000284	2.838328	0.961651	0.000114
  96	9.4525e+00	3.7780	9.652792	0.000426	4.257492	1.442477	0.000170
  97	9.5520e+00	3.8213	9.798128	0.000365	3.649279	1.236409	0.000146
  98	9.6515e+00	3.8630	9.927317	0.000324	3.243803	1.099030	0.000130
  99	9.7510e+00	3.8983	10.060542	0.000335	3.345172	1.133375	0.000134
 100	9.8505e+00	3.9368	10.173582	0.000284	2.838328	0.961651	0.000114
 101	9.9500e+00	3.9849	10.343142	0.000426	4.257492	1.442477	0.000170
 102	1.0050e+01	4.0154	10.496553	0.000385	3.852016	1.305098	0.000154
 103	1.0149e+01	4.0651	10.649964	0.000385	3.852016	1.305098	0.000154
 104	1.0248e+01	4.1020	10.791264	0.000355	3.547910	1.202064	0.000142
 105	1.0348e+01	4.1421	10.944675	0.000385	3.852016	1.305098	0.000154
 106	1.0447e+01	4.1822	11.085975	0.000355	3.547910	1.202064	0.000142
 107	1.0547e+01	4.2223	11.291869	0.000517	5.169811	1.751579	0.000207
 108	1.0646e+01	4.2673	11.412983	0.000304	3.041065	1.030341	0.000122
 109	1.0746e+01	4.3058	11.578505	0.000416	4.156123	1.408133	0.000166
 110	1.0845e+01	4.3443	11.711731	0.000335	3.345172	1.133375	0.000134
 111	1.0945e+01	4.3892	11.764214	0.000132	1.317795	0.446481	0.000053
 112	1.1044e+01	4.4245	11.897439	0.000335	3.345172	1.133375	0.000134
 113	1.1144e+01	4.4630	12.083147	0.000466	4.662967	1.579856	0.000187
 114	1.1243e+01	4.5047	12.216373	0.000335	3.345172	1.133375	0.000134
 115	1.1343e+01	4.5400	12.381895	0.000416	4.156123	1.408133	0.000166
 116	1.1443e+01	4.5801	12.490898	0.000274	2.736959	0.927307	0.000110
 117	1.1542e+01	4.6282	12.624123	0.000335	3.345172	1.133375	0.000134
 118	1.1642e+01	4.6603	12.765423	0.000355	3.547910	1.202064	0.000142
 119	1.1741e+01	4.7036	12.930946	0.000416	4.156123	1.408133	0.000166
 120	1.1841e+01	4.7373	13.003614	0.000182	1.824639	0.618205	0.000073
 121	1.1940e+01	4.7662	13.173174	0.000426	4.257492	1.442477	0.000170
 122	1.2040e+01	4.8127	13.346771	0.000436	4.358860	1.476822	0.000174
 123	1.2139e+01	4.8560	13.496145	0.000375	3.750647	1.270754	0.000150
 124	1.2239e+01	4.9041	13.653593	0.000395	3.953385	1.339443	0.000158
 125	1.2338e+01	4.9426	13.802967	0.000375	3.750647	1.270754	0.000150
 126	1.2438e+01	4.9779	13.968490	0.000416	4.156123	1.408133	0.000166
 127	1.2537e+01	5.0212	14.093641	0.000314	3.142434	1.064686	0.000126
 128	1.2636e+01	5.0630	14.243015	0.000375	3.750647	1.270754	0.000150
 129	1.2736e+01	5.0950	14.388352	0.000365	3.649279	1.236409	0.000146
 130	1.2835e+01	5.1384	14.477169	0.000223	2.230115	0.755583	0.000089
 131	1.2935e+01	5.1785	14.598283	0.000304	3.041065	1.030341	0.000122
 132	1.3034e+01	5.2250	14.763805	0.000416	4.156123	1.408133	0.000166
 133	1.3134e+01	5.2603	14.905105	0.000355	3.547910	1.202064	0.000142
 134	1.3233e+01	5.2988	15.038331	0.000335	3.345172	1.133375	0.000134
 135	1.3333e+01	5.3389	15.207890	0.000426	4.257492	1.442477	0.000170
 136	1.3432e+01	5.3790	15.353227	0.000365	3.649279	1.236409	0.000146
 137	1.3532e+01	5.4095	15.478378	0.000314	3.142434	1.064686	0.000126
 138	1.3632e+01	5.4640	15.611604	0.000335	3.345172	1.133375	0.000134
 139	1.3731e+01	5.4849	15.752904	0.000355	3.547910	1.202064	0.000142
 140	1.3831e+01	5.5394	15.918426	0.000416	4.156123	1.408133	0.000166
 141	1.3930e+01	5.5795	16.124320	0.000517	5.169811	1.751579	0.000207
 142	1.4030e+01	5.6084	16.257546	0.000335	3.345172	1.133375	0.000134
 143	1.4129e+01	5.6533	16.374623	0.000294	2.939697	0.995996	0.000118
 144	1.4229e+01	5.6886	16.548219	0.000436	4.358860	1.476822	0.000174
 145	1.4328e+01	5.7239	16.709705	0.000405	4.054754	1.373788	0.000162
 146	1.4428e+01	5.7736	16.830819	0.000304	3.041065	1.030341	0.000122
 147	1.4527e+01	5.8202	16.988267	0.000395	3.953385	1.339443	0.000158
 148	1.4627e+01	5.8651	17.064973	0.000193	1.926008	0.652549	0.000077
 149	1.4726e+01	5.8891	17.218384	0.000385	3.852016	1.305098	0.000154
 150	1.4825e+01	5.9292	17.351609	0.000335	3.345172	1.133375	0.000134
 151	1.4925e+01	5.9838	17.472723	0.000304	3.041065	1.030341	0.000122
 152	1.5024e+01	6.0207	17.638246	0.000416	4.156123	1.408133	0.000166
 153	1.5124e+01	6.0576	17.783583	0.000365	3.649279	1.236409	0.000146
 154	1.5223e+01	6.0865	17.920846	0.000345	3.446541	1.167720	0.000138
 155	1.5323e+01	6.1282	18.074257	0.000385	3.852016	1.305098	0.000154
 156	1.5422e+01	6.1747	18.203445	0.000324	3.243803	1.099030	0.000130
 157	1.5522e+01	6.2132	18.385116	0.000456	4.561598	1.545511	0.000183
 158	1.5621e+01	6.2533	18.530453	0.000365	3.649279	1.236409	0.000146
 159	1.5721e+01	6.2950	18.675790	0.000365	3.649279	1.236409	0.000146
 160	1.5820e+01	6.3303	18.833238	0.000395	3.953385	1.339443	0.000158
 161	1.5920e+01	6.3784	19.006835	0.000436	4.358860	1.476822	0.000174
 162	1.6020e+01	6.4153	19.115838	0.000274	2.736959	0.927307	0.000110
 163	1.6119e+01	6.4618	19.309620	0.000487	4.865705	1.648545	0.000195
 164	1.6218e+01	6.4987	19.418623	0.000274	2.736959	0.927307	0.000110
 165	1.6318e+01	6.5324	19.543774	0.000314	3.142434	1.064686	0.000126
 166	1.6418e+01	6.5693	19.672962	0.000324	3.243803	1.099030	0.000130
 167	1.6517e+01	6.6078	19.842522	0.000426	4.257492	1.442477	0.000170
 168	1.6616e+01	6.6576	19.995933	0.000385	3.852016	1.305098	0.000154
 169	1.6716e+01	6.6929	20.080713	0.000213	2.128746	0.721239	0.000085
 170	1.6816e+01	6.7265	20.205864	0.000314	3.142434	1.064686	0.000126
 171	1.6915e+01	6.7715	20.375424	0.000426	4.257492	1.442477	0.000170
 172	1.7015e+01	6.8019	20.536909	0.000405	4.054754	1.373788	0.000162
 173	1.7114e+01	6.8485	20.653986	0.000294	2.939697	0.995996	0.000118
 174	1.7213e+01	6.8918	20.835658	0.000456	4.561598	1.545511	0.000183
 175	1.7313e+01	6.9239	20.960809	0.000314	3.142434	1.064686	0.000126
 176	1.7413e+01	6.9656	21.118257	0.000395	3.953385	1.339443	0.000158
 177	1.7512e+01	7.0025	21.243408	0.000314	3.142434	1.064686	0.000126
 178	1.7611e+01	7.0490	21.449302	0.000517	5.169811	1.751579	0.000207
 179	1.7711e+01	7.0811	21.610788	0.000405	4.054754	1.373788	0.000162
 180	1.7811e+01	7.1228	21.719790	0.000274	2.736959	0.927307	0.000110
 181	1.7910e+01	7.1709	21.889350	0.000426	4.257492	1.442477	0.000170
 182	1.8009e+01	7.2094	22.014501	0.000314	3.142434	1.064686	0.000126
 183	1.8109e+01	7.2511	22.188098	0.000436	4.358860	1.476822	0.000174
 184	1.8209e+01	7.2912	22.333435	0.000365	3.649279	1.236409	0.000146
 185	1.8308e+01	7.3346	22.426289	0.000233	2.331483	0.789928	0.000093
 186	1.8407e+01	7.3650	22.539329	0.000284	2.838328	0.961651	0.000114
 187	1.8507e+01	7.4083	22.664480	0.000314	3.142434	1.064686	0.000126
 188	1.8607e+01	7.4517	22.825965	0.000405	4.054754	1.373788	0.000162
 189	1.8706e+01	7.4934	23.003599	0.000446	4.460229	1.511167	0.000179
 190	1.8805e+01	7.5303	23.152973	0.000375	3.750647	1.270754	0.000150
 191	1.8905e+01	7.5688	23.286199	0.000335	3.345172	1.133375	0.000134
 192	1.9005e+01	7.6073	23.403276	0.000294	2.939697	0.995996	0.000118
 193	1.9104e+01	7.6490	23.584947	0.000456	4.561598	1.545511	0.000183
 194	1.9203e+01	7.6843	23.706061	0.000304	3.041065	1.030341	0.000122
 195	1.9303e+01	7.7356	23.879658	0.000436	4.358860	1.476822	0.000174
 196	1.9402e+01	7.7629	24.037106	0.000395	3.953385	1.339443	0.000158
 197	1.9502e+01	7.8046	24.198592	0.000405	4.054754	1.373788	0.000162
 198	1.9602e+01	7.8479	24.352003	0.000385	3.852016	1.305098	0.000154
 199	1.9701e+01	7.8864	24.549822	0.000497	4.967074	1.682890	0.000199
 200	1.9800e+01	7.9185	24.670936	0.000304	3.041065	1.030341	0.000122
 201	1.9900e+01	7.9650	24.812236	0.000355	3.547910	1.202064	0.000142
 202	2.0000e+01	8.0099	24.937387	0.000314	3.142434	1.064686	0.000126
 203	2.0099e+01	8.0420	25.123096	0.000466	4.662967	1.579856	0.000187
 204	2.0198e+01	8.0805	25.260358	0.000345	3.446541	1.167720	0.000138
 205	2.0298e+01	8.1222	25.389547	0.000324	3.243803	1.099030	0.000130
 206	2.0398e+01	8.1607	25.494512	0.000264	2.635590	0.892962	0.000105
 207	2.0497e+01	8.2024	25.660035	0.000416	4.156123	1.408133	0.000166
 208	2.0596e+01	8.2490	25.781149	0.000304	3.041065	1.030341	0.000122
 209	2.0696e+01	8.2827	25.922449	0.000355	3.547910	1.202064	0.000142
 210	2.0796e+01	8.3115	26.059711	0.000345	3.446541	1.167720	0.000138
 211	2.0895e+01	8.3597	26.237345	0.000446	4.460229	1.511167	0.000179
 212	2.0994e+01	8.4046	26.382682	0.000365	3.649279	1.236409	0.000146
 213	2.1094e+01	8.4383	26.548205	0.000416	4.156123	1.408133	0.000166
 214	2.1194e+01	8.4848	26.677393	0.000324	3.243803	1.099030	0.000130
 215	2.1293e+01	8.5233	26.842916	0.000416	4.156123	1.408133	0.000166
 216	2.1392e+01	8.5634	27.008438	0.000416	4.156123	1.408133	0.000166
 217	2.1492e+01	8.6035	27.190109	0.000456	4.561598	1.545511	0.000183
 218	2.1591e+01	8.6404	27.331409	0.000355	3.547910	1.202064	0.000142
 219	2.1691e+01	8.6869	27.476746	0.000365	3.649279	1.236409	0.000146
 220	2.1791e+01	8.7270	27.634194	0.000395	3.953385	1.339443	0.000158
 221	2.1890e+01	8.7639	27.755308	0.000304	3.041065	1.030341	0.000122
 222	2.1989e+01	8.8056	27.912756	0.000395	3.953385	1.339443	0.000158
 223	2.2089e+01	8.8506	28.029833	0.000294	2.939697	0.995996	0.000118
 224	2.2189e+01	8.8810	28.130762	0.000253	2.534221	0.858617	0.000101
 225	2.2288e+01	8.9131	28.292247	0.000405	4.054754	1.373788	0.000162
 226	2.2387e+01	8.9709	28.445658	0.000385	3.852016	1.305098	0.000154
 227	2.2487e+01	9.0014	28.619255	0.000436	4.358860	1.476822	0.000174
 228	2.2587e+01	9.0366	28.720184	0.000253	2.534221	0.858617	0.000101
 229	2.2686e+01	9.0800	28.857446	0.000345	3.446541	1.167720	0.000138
 230	2.2785e+01	9.1217	29.018932	0.000405	4.054754	1.373788	0.000162
 231	2.2885e+01	9.1586	29.188491	0.000426	4.257492	1.442477	0.000170
 232	2.2985e+01	9.2051	29.321717	0.000335	3.345172	1.133375	0.000134
 233	2.3084e+01	9.2436	29.503388	0.000456	4.561598	1.545511	0.000183
 234	2.3183e+01	9.2869	29.681022	0.000446	4.460229	1.511167	0.000179
 235	2.3283e+01	9.3174	29.838470	0.000395	3.953385	1.339443	0.000158
 236	2.3383e+01	9.3607	29.987844	0.000375	3.750647	1.270754	0.000150
 237	2.3482e+01	9.3960	30.121070	0.000335	3.345172	1.133375	0.000134
 238	2.3581e+01	9.4361	30.306778	0.000466	4.662967	1.579856	0.000187
 239	2.3681e+01	9.4730	30.427892	0.000304	3.041065	1.030341	0.000122
 240	2.3780e+01	9.5179	30.593415	0.000416	4.156123	1.408133	0.000166
 241	2.3880e+01	9.5612	30.670120	0.000193	1.926008	0.652549	0.000077
 242	2.3980e+01	9.5917	30.791234	0.000304	3.041065	1.030341	0.000122
 243	2.4079e+01	9.6318	30.952720	0.000405	4.054754	1.373788	0.000162
 244	2.4178e+01	9.6751	31.089982	0.000345	3.446541	1.167720	0.000138
 245	2.4278e+01	9.7233	31.239356	0.000375	3.750647	1.270754	0.000150
 246	2.4378e+01	9.7682	31.364508	0.000314	3.142434	1.064686	0.000126
 247	2.4477e+01	9.8003	31.538104	0.000436	4.358860	1.476822	0.000174
 248	2.4576e+01	9.8372	31.647107	0.000274	2.736959	0.927307	0.000110
 249	2.4676e+01	9.8837	31.816667	0.000426	4.257492	1.442477	0.000170
 250	2.4776e+01	9.9158	31.929707	0.000284	2.838328	0.961651	0.000114
 251	2.4875e+01	9.9591	32.111378	0.000456	4.561598	1.545511	0.000183
 252	2.4974e+01	9.9928	32.244603	0.000335	3.345172	1.133375	0.000134
 253	2.5074e+01	10.0345	32.450497	0.000517	5.169811	1.751579	0.000207
 254	2.5174e+01	10.0778	32.599871	0.000375	3.750647	1.270754	0.000150
 255	2.5273e+01	10.1163	32.805765	0.000517	5.169811	1.751579	0.000207
 256	2.5372e+01	10.1580	32.930916	0.000314	3.142434	1.064686	0.000126
 257	2.5472e+01	10.2029	33.064142	0.000335	3.345172	1.133375	0.000134
 258	2.5572e+01	10.2446	33.237739	0.000436	4.358860	1.476822	0.000174
 259	2.5671e+01	10.2847	33.346741	0.000274	2.736959	0.927307	0.000110
 260	2.5770e+01	10.3313	33.496115	0.000375	3.750647	1.270754	0.000150
 261	2.5870e+01	10.3617	33.617229	0.000304	3.041065	1.030341	0.000122
 262	2.5970e+01	10.4018	33.738343	0.000304	3.041065	1.030341	0.000122
