»»»»»»»»»»»»»»»»»»»»»»»»»»»»»»»»»»»» Hysteresis ««««««««««««««««««««««««««««««««««««
»»»  Executed Version:	5.48.1
»»»  Vision Version:	5.48.4 (R)
»»»  Vision Compiled:	9/18/24
»»»  Driver Version:	5.47.0
»»»  Windows Version:	Windows 8 or 8.1
»»»  Processor Information:	x86 (AMD or Intel) - 32 Processors
»»»  Tester Name:	PMF21124-494 (100V)
»»»  Tester S/N:	PMF21124-494
»»»  Internal Amp Type:	100V RevK 270k
»»»  Internal Amp S/N:	iAB2-596/K     
»»»  Execution Count:	1
»»»»»»»»»»»»»»»»»»»»»»»»»»»»»»»»»»»»»»»»»»««««««««««««««««««««««««««««««««««««««««««

Stored:	6/30/2025 - 11:56:56
Configured:	06/30/25 10:19:58 AM
Executed:	06/30/25 11:56:34 AM

»»»»»»»»»»»»»»»»»»»»»»»»»»»»»»»»»»» Sample Info ««««««««««««««««««««««««««««««««««««
Sample Name:	
Lot Name:	
Wafer Name:	
Die Row/Column:	0/0
Capacitor Number:	0
Sample Area (cm2):	1.00e-04
Sample Thickness (microns):	1.50e-01

Amplifier:	Internal

»»»»»»»»»»»»»»»»»»»»»»»»»»»»»»»»»»» Tester Info «««««««««««««««««««««««««««««««««««
Tester Name:	PMF21124-494 (100V)
Tester Serial Number:	PMF21124-494
Return Signal Amp. Level:	1.79 [Index: 2]

»»»»»»»»»»»»»»»»»»»»»»»»»»»»»»»» Hysteresis Info ««««««««««««««««««««««««««««««««««
Task Name:	Hyst-1804
Volts:	10.00
Field:	666.67 (kV/cm)
DCBias:	0.00
DCField:	0.00 (kV/cm)
Hysteresis Period (ms):	1.00e+00
Preset:	Enabled
Preset Delay (ms):	1.00e+03
Profile:	Standard Monopolar

»»»»»»»»»»»»»»»»»»»»»»»»»»»»»»»»»»»»»» Data «««««««««««««««««««««««««««««««««««««««
Points:	2001

Valid Data

Point	Time (ms)	Drive Voltage	Measured Polarization (uC/cm2)	Capacitance (uF)	Normalized Capacitance (uF/cm2)	Dielectric Constant	Instantaneous Current (mA)
   1	0.0000e+00	-0.0042	-17.333363	0.000607	6.070936	1.028444	0.012145
   2	5.0000e-04	0.0039	-17.272640	0.000607	6.070936	1.028444	0.012145
   3	1.0000e-03	0.0152	-17.229450	0.000432	4.318060	0.731499	0.008638
   4	1.5000e-03	0.0266	-17.164023	0.000654	6.541219	1.108113	0.013085
   5	2.0000e-03	0.0343	-17.119978	0.000440	4.403566	0.745984	0.008809
   6	2.5000e-03	0.0467	-17.082347	0.000376	3.762270	0.637346	0.007526
   7	3.0000e-03	0.0585	-17.021196	0.000611	6.113689	1.035687	0.012230
   8	3.5000e-03	0.0674	-16.960046	0.000611	6.113689	1.035687	0.012230
   9	4.0000e-03	0.0772	-16.942941	0.000171	1.710123	0.289703	0.003421
  10	4.5000e-03	0.0861	-16.872383	0.000705	7.054256	1.195023	0.014112
  11	5.0000e-03	0.0978	-16.844587	0.000278	2.778949	0.470767	0.005559
  12	5.5000e-03	0.1099	-16.803108	0.000415	4.147048	0.702529	0.008296
  13	6.0000e-03	0.1147	-16.732977	0.000701	7.011503	1.187781	0.014026
  14	6.5000e-03	0.1259	-16.692780	0.000402	4.018788	0.680801	0.008039
  15	7.0000e-03	0.1334	-16.666267	0.000265	2.650690	0.449039	0.005303
  16	7.5000e-03	0.1460	-16.622222	0.000440	4.403566	0.745984	0.008809
  17	8.0000e-03	0.1569	-16.557223	0.000650	6.498466	1.100870	0.013000
  18	8.5000e-03	0.1649	-16.514888	0.000423	4.232554	0.717014	0.008467
  19	9.0000e-03	0.1751	-16.473408	0.000415	4.147048	0.702529	0.008296
  20	9.5000e-03	0.1871	-16.407554	0.000658	6.583973	1.115355	0.013171
  21	1.0000e-02	0.1998	-16.366930	0.000406	4.061541	0.688044	0.008125
  22	1.0500e-02	0.2049	-16.323312	0.000436	4.360813	0.738742	0.008724
  23	1.1000e-02	0.2167	-16.289530	0.000338	3.377492	0.572163	0.006756
  24	1.1500e-02	0.2277	-16.237359	0.000522	5.215874	0.883593	0.010434
  25	1.2000e-02	0.2358	-16.175781	0.000616	6.156442	1.042929	0.012316
  26	1.2500e-02	0.2459	-16.147130	0.000286	2.864456	0.485252	0.005730
  27	1.3000e-02	0.2540	-16.097526	0.000496	4.959356	0.840138	0.009921
  28	1.3500e-02	0.2687	-16.045783	0.000517	5.173121	0.876350	0.010349
  29	1.4000e-02	0.2793	-16.002165	0.000436	4.360813	0.738742	0.008724
  30	1.4500e-02	0.2896	-15.968383	0.000338	3.377492	0.572163	0.006756
  31	1.5000e-02	0.2948	-15.919634	0.000487	4.873850	0.825653	0.009750
  32	1.5500e-02	0.3052	-15.871312	0.000483	4.831097	0.818410	0.009664
  33	1.6000e-02	0.3191	-15.822135	0.000492	4.916603	0.832895	0.009835
  34	1.6500e-02	0.3247	-15.793484	0.000286	2.864456	0.485252	0.005730
  35	1.7000e-02	0.3366	-15.731479	0.000620	6.199195	1.050172	0.012401
  36	1.7500e-02	0.3492	-15.681874	0.000496	4.959356	0.840138	0.009921
  37	1.8000e-02	0.3545	-15.627566	0.000543	5.429640	0.919806	0.010862
  38	1.8500e-02	0.3677	-15.607467	0.000201	2.009394	0.340401	0.004020
  39	1.9000e-02	0.3777	-15.541185	0.000663	6.626726	1.122598	0.013256
  40	1.9500e-02	0.3857	-15.500133	0.000410	4.104295	0.695286	0.008210
  41	2.0000e-02	0.3971	-15.463785	0.000363	3.634011	0.615618	0.007270
  42	2.0500e-02	0.4079	-15.404345	0.000594	5.942676	1.006717	0.011888
  43	2.1000e-02	0.4154	-15.348326	0.000560	5.600652	0.948776	0.011204
  44	2.1500e-02	0.4263	-15.319248	0.000291	2.907209	0.492494	0.005816
  45	2.2000e-02	0.4382	-15.272637	0.000466	4.660084	0.789440	0.009322
  46	2.2500e-02	0.4452	-15.217045	0.000556	5.557899	0.941534	0.011118
  47	2.3000e-02	0.4553	-15.170862	0.000462	4.617331	0.782197	0.009237
  48	2.3500e-02	0.4668	-15.138362	0.000325	3.249233	0.550435	0.006500
  49	2.4000e-02	0.4760	-15.069515	0.000688	6.883244	1.166053	0.013770
  50	2.4500e-02	0.4889	-15.034877	0.000346	3.462999	0.586648	0.006928
  51	2.5000e-02	0.4951	-14.988694	0.000462	4.617331	0.782197	0.009237
  52	2.5500e-02	0.5045	-14.936523	0.000522	5.215874	0.883593	0.010434
  53	2.6000e-02	0.5173	-14.911721	0.000248	2.479678	0.420069	0.004960
  54	2.6500e-02	0.5263	-14.860834	0.000509	5.087615	0.861865	0.010177
  55	2.7000e-02	0.5372	-14.795835	0.000650	6.498466	1.100870	0.013000
  56	2.7500e-02	0.5453	-14.768039	0.000278	2.778949	0.470767	0.005559
  57	2.8000e-02	0.5560	-14.703040	0.000650	6.498466	1.100870	0.013000
  58	2.8500e-02	0.5641	-14.646166	0.000569	5.686158	0.963261	0.011375
  59	2.9000e-02	0.5754	-14.633337	0.000128	1.282592	0.217277	0.002566
  60	2.9500e-02	0.5850	-14.599982	0.000333	3.334739	0.564920	0.006671
  61	3.0000e-02	0.6005	-14.541397	0.000586	5.857170	0.992232	0.011717
  62	3.0500e-02	0.6057	-14.486661	0.000547	5.472393	0.927048	0.010947
  63	3.1000e-02	0.6152	-14.446037	0.000406	4.061541	0.688044	0.008125
  64	3.1500e-02	0.6271	-14.401992	0.000440	4.403566	0.745984	0.008809
  65	3.2000e-02	0.6385	-14.365643	0.000363	3.634011	0.615618	0.007270
  66	3.2500e-02	0.6458	-14.318605	0.000470	4.702838	0.796682	0.009408
  67	3.3000e-02	0.6553	-14.272849	0.000457	4.574578	0.774955	0.009151
  68	3.3500e-02	0.6631	-14.211271	0.000616	6.156442	1.042929	0.012316
  69	3.4000e-02	0.6754	-14.183475	0.000278	2.778949	0.470767	0.005559
  70	3.4500e-02	0.6868	-14.127456	0.000560	5.600652	0.948776	0.011204
  71	3.5000e-02	0.6973	-14.105220	0.000222	2.223160	0.376613	0.004447
  72	3.5500e-02	0.7059	-14.055615	0.000496	4.959356	0.840138	0.009921
  73	3.6000e-02	0.7162	-14.009859	0.000457	4.574578	0.774955	0.009151
  74	3.6500e-02	0.7260	-13.929038	0.000808	8.080330	1.368845	0.016164
  75	3.7000e-02	0.7403	-13.903381	0.000257	2.565184	0.434554	0.005132
  76	3.7500e-02	0.7457	-13.861046	0.000423	4.232554	0.717014	0.008467
  77	3.8000e-02	0.7565	-13.812724	0.000483	4.831097	0.818410	0.009664
  78	3.8500e-02	0.7636	-13.775093	0.000376	3.762270	0.637346	0.007526
  79	3.9000e-02	0.7777	-13.749008	0.000261	2.607937	0.441797	0.005217
  80	3.9500e-02	0.7864	-13.687002	0.000620	6.199195	1.050172	0.012401
  81	4.0000e-02	0.7945	-13.630128	0.000569	5.686158	0.963261	0.011375
  82	4.0500e-02	0.8076	-13.587793	0.000423	4.232554	0.717014	0.008467
  83	4.1000e-02	0.8200	-13.548879	0.000389	3.890529	0.659073	0.007783
  84	4.1500e-02	0.8247	-13.497137	0.000517	5.173121	0.876350	0.010349
  85	4.2000e-02	0.8385	-13.462927	0.000342	3.420245	0.579405	0.006842
  86	4.2500e-02	0.8429	-13.397500	0.000654	6.541219	1.108113	0.013085
  87	4.3000e-02	0.8571	-13.368849	0.000286	2.864456	0.485252	0.005730
  88	4.3500e-02	0.8670	-13.312402	0.000564	5.643405	0.956019	0.011289
  89	4.4000e-02	0.8772	-13.273489	0.000389	3.890529	0.659073	0.007783
  90	4.4500e-02	0.8872	-13.232864	0.000406	4.061541	0.688044	0.008125
  91	4.5000e-02	0.8957	-13.200792	0.000321	3.206480	0.543192	0.006414
  92	4.5500e-02	0.9062	-13.134083	0.000667	6.669479	1.129840	0.013342
  93	4.6000e-02	0.9179	-13.102011	0.000321	3.206480	0.543192	0.006414
  94	4.6500e-02	0.9253	-13.063952	0.000381	3.805023	0.644588	0.007612
  95	4.7000e-02	0.9338	-13.024183	0.000398	3.976035	0.673559	0.007954
  96	4.7500e-02	0.9467	-12.972868	0.000513	5.130368	0.869108	0.010263
  97	4.8000e-02	0.9561	-12.915566	0.000573	5.728911	0.970504	0.011460
  98	4.8500e-02	0.9669	-12.878363	0.000372	3.719517	0.630103	0.007441
  99	4.9000e-02	0.9778	-12.844153	0.000342	3.420245	0.579405	0.006842
 100	4.9500e-02	0.9875	-12.781719	0.000624	6.241948	1.057415	0.012487
 101	5.0000e-02	0.9984	-12.759911	0.000218	2.180406	0.369371	0.004362
 102	5.0500e-02	1.0094	-12.698760	0.000611	6.113689	1.035687	0.012230
 103	5.1000e-02	1.0152	-12.668399	0.000304	3.035468	0.514222	0.006072
 104	5.1500e-02	1.0288	-12.625636	0.000428	4.275307	0.724257	0.008553
 105	5.2000e-02	1.0366	-12.575604	0.000500	5.002109	0.847380	0.010006
 106	5.2500e-02	1.0443	-12.526427	0.000492	4.916603	0.832895	0.009835
 107	5.3000e-02	1.0579	-12.489224	0.000372	3.719517	0.630103	0.007441
 108	5.3500e-02	1.0654	-12.437053	0.000522	5.215874	0.883593	0.010434
 109	5.4000e-02	1.0759	-12.378896	0.000581	5.814417	0.984989	0.011631
 110	5.4500e-02	1.0873	-12.365212	0.000137	1.368098	0.231762	0.002737
 111	5.5000e-02	1.0953	-12.318601	0.000466	4.660084	0.789440	0.009322
 112	5.5500e-02	1.1060	-12.250609	0.000680	6.797738	1.151568	0.013598
 113	5.6000e-02	1.1169	-12.225379	0.000252	2.522431	0.427311	0.005046
 114	5.6500e-02	1.1275	-12.195873	0.000295	2.949962	0.499737	0.005901
 115	5.7000e-02	1.1382	-12.119328	0.000765	7.652799	1.296419	0.015309
 116	5.7500e-02	1.1482	-12.095809	0.000235	2.351419	0.398341	0.004704
 117	5.8000e-02	1.1568	-12.042783	0.000530	5.301380	0.898078	0.010605
 118	5.8500e-02	1.1664	-12.003014	0.000398	3.976035	0.673559	0.007954
 119	5.9000e-02	1.1781	-11.955975	0.000470	4.702838	0.796682	0.009408
 120	5.9500e-02	1.1856	-11.916634	0.000393	3.933282	0.666316	0.007868
 121	6.0000e-02	1.1984	-11.872588	0.000440	4.403566	0.745984	0.008809
 122	6.0500e-02	1.2064	-11.840089	0.000325	3.249233	0.550435	0.006500
 123	6.1000e-02	1.2170	-11.775090	0.000650	6.498466	1.100870	0.013000
 124	6.1500e-02	1.2259	-11.738314	0.000368	3.676764	0.622861	0.007355
 125	6.2000e-02	1.2389	-11.695124	0.000432	4.318060	0.731499	0.008638
 126	6.2500e-02	1.2453	-11.661341	0.000338	3.377492	0.572163	0.006756
 127	6.3000e-02	1.2582	-11.608743	0.000526	5.258627	0.890836	0.010520
 128	6.3500e-02	1.2671	-11.588217	0.000205	2.052147	0.347643	0.004105
 129	6.4000e-02	1.2756	-11.518087	0.000701	7.011503	1.187781	0.014026
 130	6.4500e-02	1.2842	-11.458219	0.000599	5.985430	1.013959	0.011974
 131	6.5000e-02	1.2952	-11.435983	0.000222	2.223160	0.376613	0.004447
 132	6.5500e-02	1.3045	-11.396214	0.000398	3.976035	0.673559	0.007954
 133	6.6000e-02	1.3149	-11.356017	0.000402	4.018788	0.680801	0.008039
 134	6.6500e-02	1.3254	-11.316248	0.000398	3.976035	0.673559	0.007954
 135	6.7000e-02	1.3377	-11.253814	0.000624	6.241948	1.057415	0.012487
 136	6.7500e-02	1.3489	-11.218321	0.000355	3.548505	0.601133	0.007099
 137	6.8000e-02	1.3562	-11.178125	0.000402	4.018788	0.680801	0.008039
 138	6.8500e-02	1.3663	-11.132369	0.000457	4.574578	0.774955	0.009151
 139	6.9000e-02	1.3776	-11.087896	0.000445	4.446319	0.753227	0.008895
 140	6.9500e-02	1.3892	-11.043423	0.000445	4.446319	0.753227	0.008895
 141	7.0000e-02	1.3943	-10.999377	0.000440	4.403566	0.745984	0.008809
 142	7.0500e-02	1.4052	-10.951483	0.000479	4.788344	0.811167	0.009579
 143	7.1000e-02	1.4160	-10.920267	0.000312	3.120974	0.528707	0.006243
 144	7.1500e-02	1.4252	-10.862110	0.000581	5.814417	0.984989	0.011631
 145	7.2000e-02	1.4377	-10.850564	0.000115	1.154333	0.195549	0.002309
 146	7.2500e-02	1.4451	-10.793690	0.000569	5.686158	0.963261	0.011375
 147	7.3000e-02	1.4554	-10.752638	0.000410	4.104295	0.695286	0.008210
 148	7.3500e-02	1.4667	-10.708592	0.000440	4.403566	0.745984	0.008809
 149	7.4000e-02	1.4758	-10.666257	0.000423	4.232554	0.717014	0.008467
 150	7.4500e-02	1.4835	-10.628626	0.000376	3.762270	0.637346	0.007526
 151	7.5000e-02	1.4967	-10.575173	0.000534	5.344134	0.905321	0.010691
 152	7.5500e-02	1.5080	-10.541391	0.000338	3.377492	0.572163	0.006756
 153	7.6000e-02	1.5185	-10.501194	0.000402	4.018788	0.680801	0.008039
 154	7.6500e-02	1.5281	-10.447741	0.000534	5.344134	0.905321	0.010691
 155	7.7000e-02	1.5376	-10.407116	0.000406	4.061541	0.688044	0.008125
 156	7.7500e-02	1.5494	-10.363926	0.000432	4.318060	0.731499	0.008638
 157	7.8000e-02	1.5558	-10.319026	0.000449	4.489072	0.760469	0.008980
 158	7.8500e-02	1.5674	-10.287381	0.000316	3.163727	0.535950	0.006329
 159	7.9000e-02	1.5777	-10.249750	0.000376	3.762270	0.637346	0.007526
 160	7.9500e-02	1.5871	-10.207843	0.000419	4.189801	0.709771	0.008381
 161	8.0000e-02	1.5986	-10.140706	0.000671	6.712232	1.137083	0.013427
 162	8.0500e-02	1.6055	-10.109489	0.000312	3.120974	0.528707	0.006243
 163	8.1000e-02	1.6171	-10.050049	0.000594	5.942676	1.006717	0.011888
 164	8.1500e-02	1.6273	-10.011563	0.000385	3.847776	0.651831	0.007697
 165	8.2000e-02	1.6380	-9.953406	0.000581	5.814417	0.984989	0.011631
 166	8.2500e-02	1.6455	-9.929031	0.000244	2.436925	0.412826	0.004875
 167	8.3000e-02	1.6547	-9.890973	0.000381	3.805023	0.644588	0.007612
 168	8.3500e-02	1.6669	-9.850348	0.000406	4.061541	0.688044	0.008125
 169	8.4000e-02	1.6771	-9.797750	0.000526	5.258627	0.890836	0.010520
 170	8.4500e-02	1.6873	-9.762685	0.000351	3.505752	0.593890	0.007013
 171	8.5000e-02	1.6943	-9.736172	0.000265	2.650690	0.449039	0.005303
 172	8.5500e-02	1.7073	-9.676305	0.000599	5.985430	1.013959	0.011974
 173	8.6000e-02	1.7121	-9.627555	0.000487	4.873850	0.825653	0.009750
 174	8.6500e-02	1.7252	-9.590780	0.000368	3.676764	0.622861	0.007355
 175	8.7000e-02	1.7372	-9.548872	0.000419	4.189801	0.709771	0.008381
 176	8.7500e-02	1.7470	-9.518939	0.000299	2.992715	0.506980	0.005987
 177	8.8000e-02	1.7563	-9.489005	0.000299	2.992715	0.506980	0.005987
 178	8.8500e-02	1.7664	-9.431703	0.000573	5.728911	0.970504	0.011460
 179	8.9000e-02	1.7770	-9.393644	0.000381	3.805023	0.644588	0.007612
 180	8.9500e-02	1.7846	-9.358152	0.000355	3.548505	0.601133	0.007099
 181	9.0000e-02	1.7955	-9.316244	0.000419	4.189801	0.709771	0.008381
 182	9.0500e-02	1.8063	-9.267495	0.000487	4.873850	0.825653	0.009750
 183	9.1000e-02	1.8150	-9.209338	0.000581	5.814417	0.984989	0.011631
 184	9.1500e-02	1.8256	-9.187957	0.000214	2.137653	0.362128	0.004276
 185	9.2000e-02	1.8363	-9.140063	0.000479	4.788344	0.811167	0.009579
 186	9.2500e-02	1.8469	-9.099011	0.000410	4.104295	0.695286	0.008210
 187	9.3000e-02	1.8549	-9.037433	0.000616	6.156442	1.042929	0.012316
 188	9.3500e-02	1.8671	-9.008782	0.000286	2.864456	0.485252	0.005730
 189	9.4000e-02	1.8752	-8.950197	0.000586	5.857170	0.992232	0.011717
 190	9.4500e-02	1.8900	-8.935230	0.000150	1.496357	0.253490	0.002993
 191	9.5000e-02	1.8965	-8.881777	0.000534	5.344134	0.905321	0.010691
 192	9.5500e-02	1.9056	-8.847567	0.000342	3.420245	0.579405	0.006842
 193	9.6000e-02	1.9154	-8.787699	0.000599	5.985430	1.013959	0.011974
 194	9.6500e-02	1.9247	-8.766746	0.000209	2.094900	0.354886	0.004191
 195	9.7000e-02	1.9357	-8.721845	0.000449	4.489072	0.760469	0.008980
 196	9.7500e-02	1.9479	-8.677800	0.000440	4.403566	0.745984	0.008809
 197	9.8000e-02	1.9551	-8.641452	0.000363	3.634011	0.615618	0.007270
 198	9.8500e-02	1.9664	-8.587998	0.000534	5.344134	0.905321	0.010691
 199	9.9000e-02	1.9797	-8.538821	0.000492	4.916603	0.832895	0.009835
 200	9.9500e-02	1.9874	-8.531552	0.000073	0.726802	0.123124	0.001454
 201	1.0000e-01	1.9965	-8.461849	0.000697	6.968750	1.180538	0.013941
 202	1.0050e-01	2.0067	-8.444744	0.000171	1.710123	0.289703	0.003421
 203	1.0100e-01	2.0172	-8.390436	0.000543	5.429640	0.919806	0.010862
 204	1.0150e-01	2.0264	-8.353660	0.000368	3.676764	0.622861	0.007355
 205	1.0200e-01	2.0356	-8.304910	0.000487	4.873850	0.825653	0.009750
 206	1.0250e-01	2.0459	-8.267279	0.000376	3.762270	0.637346	0.007526
 207	1.0300e-01	2.0554	-8.241194	0.000261	2.607937	0.441797	0.005217
 208	1.0350e-01	2.0653	-8.175768	0.000654	6.541219	1.108113	0.013085
 209	1.0400e-01	2.0797	-8.151821	0.000239	2.394172	0.405584	0.004789
 210	1.0450e-01	2.0846	-8.120176	0.000316	3.163727	0.535950	0.006329
 211	1.0500e-01	2.0974	-8.049618	0.000705	7.054256	1.195023	0.014112
 212	1.0550e-01	2.1074	-8.015836	0.000338	3.377492	0.572163	0.006756
 213	1.0600e-01	2.1212	-7.974784	0.000410	4.104295	0.695286	0.008210
 214	1.0650e-01	2.1255	-7.950837	0.000239	2.394172	0.405584	0.004789
 215	1.0700e-01	2.1351	-7.907647	0.000432	4.318060	0.731499	0.008638
 216	1.0750e-01	2.1484	-7.848207	0.000594	5.942676	1.006717	0.011888
 217	1.0800e-01	2.1564	-7.806299	0.000419	4.189801	0.709771	0.008381
 218	1.0850e-01	2.1675	-7.769951	0.000363	3.634011	0.615618	0.007270
 219	1.0900e-01	2.1776	-7.737452	0.000325	3.249233	0.550435	0.006500
 220	1.0950e-01	2.1875	-7.698965	0.000385	3.847776	0.651831	0.007697
 221	1.1000e-01	2.1964	-7.647223	0.000517	5.173121	0.876350	0.010349
 222	1.1050e-01	2.2049	-7.609592	0.000376	3.762270	0.637346	0.007526
 223	1.1100e-01	2.2154	-7.578803	0.000308	3.078221	0.521465	0.006158
 224	1.1150e-01	2.2244	-7.527060	0.000517	5.173121	0.876350	0.010349
 225	1.1200e-01	2.2369	-7.502258	0.000248	2.479678	0.420069	0.004960
 226	1.1250e-01	2.2491	-7.453509	0.000487	4.873850	0.825653	0.009750
 227	1.1300e-01	2.2565	-7.408180	0.000453	4.531825	0.767712	0.009066
 228	1.1350e-01	2.2678	-7.361569	0.000466	4.660084	0.789440	0.009322
 229	1.1400e-01	2.2736	-7.319234	0.000423	4.232554	0.717014	0.008467
 230	1.1450e-01	2.2876	-7.302984	0.000162	1.624617	0.275218	0.003250
 231	1.1500e-01	2.2949	-7.239268	0.000637	6.370207	1.079142	0.012743
 232	1.1550e-01	2.3061	-7.217887	0.000214	2.137653	0.362128	0.004276
 233	1.1600e-01	2.3169	-7.176407	0.000415	4.147048	0.702529	0.008296
 234	1.1650e-01	2.3254	-7.122527	0.000539	5.386887	0.912563	0.010776
 235	1.1700e-01	2.3363	-7.092593	0.000299	2.992715	0.506980	0.005987
 236	1.1750e-01	2.3468	-7.035719	0.000569	5.686158	0.963261	0.011375
 237	1.1800e-01	2.3573	-7.005357	0.000304	3.035468	0.514222	0.006072
 238	1.1850e-01	2.3671	-6.957463	0.000479	4.788344	0.811167	0.009579
 239	1.1900e-01	2.3727	-6.927529	0.000299	2.992715	0.506980	0.005987
 240	1.1950e-01	2.3865	-6.886905	0.000406	4.061541	0.688044	0.008125
 241	1.2000e-01	2.3953	-6.847564	0.000393	3.933282	0.666316	0.007868
 242	1.2050e-01	2.4046	-6.809077	0.000385	3.847776	0.651831	0.007697
 243	1.2100e-01	2.4191	-6.780854	0.000282	2.821703	0.478009	0.005645
 244	1.2150e-01	2.4292	-6.723980	0.000569	5.686158	0.963261	0.011375
 245	1.2200e-01	2.4391	-6.673092	0.000509	5.087615	0.861865	0.010177
 246	1.2250e-01	2.4483	-6.649145	0.000239	2.394172	0.405584	0.004789
 247	1.2300e-01	2.4565	-6.607666	0.000415	4.147048	0.702529	0.008296
 248	1.2350e-01	2.4684	-6.564048	0.000436	4.360813	0.738742	0.008724
 249	1.2400e-01	2.4780	-6.503753	0.000603	6.028183	1.021202	0.012059
 250	1.2450e-01	2.4860	-6.481089	0.000227	2.265913	0.383856	0.004533
 251	1.2500e-01	2.4985	-6.428063	0.000530	5.301380	0.898078	0.010605
 252	1.2550e-01	2.5076	-6.411386	0.000167	1.667370	0.282460	0.003335
 253	1.2600e-01	2.5185	-6.357933	0.000534	5.344134	0.905321	0.010691
 254	1.2650e-01	2.5311	-6.316025	0.000419	4.189801	0.709771	0.008381
 255	1.2700e-01	2.5348	-6.283953	0.000321	3.206480	0.543192	0.006414
 256	1.2750e-01	2.5467	-6.247178	0.000368	3.676764	0.622861	0.007355
 257	1.2800e-01	2.5589	-6.212968	0.000342	3.420245	0.579405	0.006842
 258	1.2850e-01	2.5687	-6.156949	0.000560	5.600652	0.948776	0.011204
 259	1.2900e-01	2.5775	-6.151817	0.000051	0.513037	0.086911	0.001026
