»»»»»»»»»»»»»»»»»»»»»»»»»»»»»»»»»»»» Hysteresis ««««««««««««««««««««««««««««««««««««
»»»  Executed Version:	5.48.1
»»»  Vision Version:	5.48.4 (R)
»»»  Vision Compiled:	9/18/24
»»»  Driver Version:	5.47.0
»»»  Windows Version:	Windows 8 or 8.1
»»»  Processor Information:	x86 (AMD or Intel) - 32 Processors
»»»  Tester Name:	PMF21124-494 (100V)
»»»  Tester S/N:	PMF21124-494
»»»  Internal Amp Type:	100V RevK 270k
»»»  Internal Amp S/N:	iAB2-596/K     
»»»  Execution Count:	1
»»»»»»»»»»»»»»»»»»»»»»»»»»»»»»»»»»»»»»»»»»««««««««««««««««««««««««««««««««««««««««««

Stored:	6/30/2025 - 12:22:8
Configured:	06/30/25 10:19:58 AM
Executed:	06/30/25 12:21:45 PM

»»»»»»»»»»»»»»»»»»»»»»»»»»»»»»»»»»» Sample Info ««««««««««««««««««««««««««««««««««««
Sample Name:	
Lot Name:	
Wafer Name:	
Die Row/Column:	0/0
Capacitor Number:	0
Sample Area (cm2):	1.00e-04
Sample Thickness (microns):	1.50e-01

Amplifier:	Internal

»»»»»»»»»»»»»»»»»»»»»»»»»»»»»»»»»»» Tester Info «««««««««««««««««««««««««««««««««««
Tester Name:	PMF21124-494 (100V)
Tester Serial Number:	PMF21124-494
Return Signal Amp. Level:	1.79 [Index: 2]

»»»»»»»»»»»»»»»»»»»»»»»»»»»»»»»» Hysteresis Info ««««««««««««««««««««««««««««««««««
Task Name:	Hyst-1804
Volts:	10.00
Field:	666.67 (kV/cm)
DCBias:	0.00
DCField:	0.00 (kV/cm)
Hysteresis Period (ms):	1.00e+00
Preset:	Enabled
Preset Delay (ms):	1.00e+03
Profile:	Standard Monopolar

»»»»»»»»»»»»»»»»»»»»»»»»»»»»»»»»»»»»»» Data «««««««««««««««««««««««««««««««««««««««
Points:	2001

Valid Data

Point	Time (ms)	Drive Voltage	Measured Polarization (uC/cm2)	Capacitance (uF)	Normalized Capacitance (uF/cm2)	Dielectric Constant	Instantaneous Current (mA)
   1	0.0000e+00	-0.0056	-17.835609	0.000680	6.799423	1.151854	0.013598
   2	5.0000e-04	0.0055	-17.767616	0.000680	6.799423	1.151854	0.013598
   3	1.0000e-03	0.0160	-17.700052	0.000676	6.756660	1.144609	0.013513
   4	1.5000e-03	0.0253	-17.652585	0.000475	4.746767	0.804124	0.009493
   5	2.0000e-03	0.0381	-17.619658	0.000329	3.292803	0.557816	0.006585
   6	2.5000e-03	0.0466	-17.592290	0.000274	2.736875	0.463639	0.005474
   7	3.0000e-03	0.0574	-17.512324	0.000800	7.996806	1.354696	0.015993
   8	3.5000e-03	0.0643	-17.516600	-0.000043	-0.427637	-0.072444	-0.000855
   9	4.0000e-03	0.0757	-17.431931	0.000847	8.467207	1.434384	0.016934
  10	4.5000e-03	0.0850	-17.401141	0.000308	3.078984	0.521594	0.006158
  11	5.0000e-03	0.0946	-17.351965	0.000492	4.917822	0.833102	0.009835
  12	5.5000e-03	0.1064	-17.297229	0.000547	5.473750	0.927278	0.010947
  13	6.0000e-03	0.1160	-17.239927	0.000573	5.730332	0.970744	0.011460
  14	6.5000e-03	0.1256	-17.193743	0.000462	4.618476	0.782391	0.009237
  15	7.0000e-03	0.1360	-17.161671	0.000321	3.207275	0.543327	0.006414
  16	7.5000e-03	0.1440	-17.090258	0.000714	7.141533	1.209808	0.014283
  17	8.0000e-03	0.1537	-17.063318	0.000269	2.694111	0.456395	0.005388
  18	8.5000e-03	0.1649	-17.013285	0.000500	5.003349	0.847590	0.010006
  19	9.0000e-03	0.1769	-16.977365	0.000359	3.592148	0.608526	0.007184
  20	9.5000e-03	0.1878	-16.925195	0.000522	5.217168	0.883812	0.010434
  21	1.0000e-02	0.1987	-16.883715	0.000415	4.148076	0.702703	0.008296
  22	1.0500e-02	0.2074	-16.831545	0.000522	5.217168	0.883812	0.010434
  23	1.1000e-02	0.2155	-16.781940	0.000496	4.960586	0.840346	0.009921
  24	1.1500e-02	0.2253	-16.754572	0.000274	2.736875	0.463639	0.005474
  25	1.2000e-02	0.2384	-16.700691	0.000539	5.388222	0.912790	0.010776
  26	1.2500e-02	0.2453	-16.639969	0.000607	6.072441	1.028699	0.012145
  27	1.3000e-02	0.2578	-16.594213	0.000458	4.575713	0.775147	0.009151
  28	1.3500e-02	0.2657	-16.555726	0.000385	3.848730	0.651993	0.007697
  29	1.4000e-02	0.2753	-16.510826	0.000449	4.490185	0.760658	0.008980
  30	1.4500e-02	0.2851	-16.457800	0.000530	5.302695	0.898301	0.010605
  31	1.5000e-02	0.2958	-16.373986	0.000838	8.381679	1.419895	0.016763
  32	1.5500e-02	0.3060	-16.360302	0.000137	1.368437	0.231820	0.002737
  33	1.6000e-02	0.3160	-16.327802	0.000325	3.250039	0.550571	0.006500
  34	1.6500e-02	0.3264	-16.251257	0.000765	7.654697	1.296741	0.015309
  35	1.7000e-02	0.3373	-16.232442	0.000188	1.881601	0.318752	0.003763
  36	1.7500e-02	0.3443	-16.181982	0.000505	5.046113	0.854835	0.010092
  37	1.8000e-02	0.3559	-16.122970	0.000590	5.901386	0.999722	0.011802
  38	1.8500e-02	0.3645	-16.086621	0.000363	3.634912	0.615771	0.007270
  39	1.9000e-02	0.3774	-16.041293	0.000453	4.532949	0.767902	0.009066
  40	1.9500e-02	0.3860	-16.003234	0.000381	3.805967	0.644748	0.007612
  41	2.0000e-02	0.3963	-15.960900	0.000423	4.233603	0.717192	0.008467
  42	2.0500e-02	0.4064	-15.879223	0.000817	8.167861	1.383673	0.016335
  43	2.1000e-02	0.4153	-15.852283	0.000269	2.694111	0.456395	0.005388
  44	2.1500e-02	0.4262	-15.811231	0.000411	4.105312	0.695459	0.008210
  45	2.2000e-02	0.4355	-15.780014	0.000312	3.121748	0.528838	0.006243
  46	2.2500e-02	0.4440	-15.706035	0.000740	7.398115	1.253275	0.014796
  47	2.3000e-02	0.4552	-15.657713	0.000483	4.832295	0.818613	0.009664
  48	2.3500e-02	0.4635	-15.623503	0.000342	3.421094	0.579549	0.006842
  49	2.4000e-02	0.4753	-15.586727	0.000368	3.677676	0.623015	0.007355
  50	2.4500e-02	0.4864	-15.523011	0.000637	6.371787	1.079410	0.012743
  51	2.5000e-02	0.4986	-15.499492	0.000235	2.352002	0.398440	0.004704
  52	2.5500e-02	0.5084	-15.419098	0.000804	8.039570	1.361940	0.016079
  53	2.6000e-02	0.5152	-15.385316	0.000338	3.378330	0.572305	0.006756
  54	2.6500e-02	0.5253	-15.349395	0.000359	3.592148	0.608526	0.007184
  55	2.7000e-02	0.5356	-15.284396	0.000650	6.500078	1.101143	0.013000
  56	2.7500e-02	0.5516	-15.270285	0.000141	1.411201	0.239064	0.002822
  57	2.8000e-02	0.5583	-15.210845	0.000594	5.944150	1.006966	0.011888
  58	2.8500e-02	0.5624	-15.143708	0.000671	6.713896	1.137365	0.013427
  59	2.9000e-02	0.5819	-15.120188	0.000235	2.352002	0.398440	0.004704
  60	2.9500e-02	0.5899	-15.074432	0.000458	4.575713	0.775147	0.009151
  61	3.0000e-02	0.5972	-15.014137	0.000603	6.029677	1.021455	0.012059
  62	3.0500e-02	0.6058	-14.972230	0.000419	4.190840	0.709947	0.008381
  63	3.1000e-02	0.6189	-14.929895	0.000423	4.233603	0.717192	0.008467
  64	3.1500e-02	0.6258	-14.896113	0.000338	3.378330	0.572305	0.006756
  65	3.2000e-02	0.6380	-14.847791	0.000483	4.832295	0.818613	0.009664
  66	3.2500e-02	0.6480	-14.794338	0.000535	5.345459	0.905545	0.010691
  67	3.3000e-02	0.6553	-14.765687	0.000287	2.865166	0.485372	0.005730
  68	3.3500e-02	0.6650	-14.688287	0.000774	7.740224	1.311229	0.015480
  69	3.4000e-02	0.6739	-14.638682	0.000496	4.960586	0.840346	0.009921
  70	3.4500e-02	0.6873	-14.598485	0.000402	4.019785	0.680970	0.008039
  71	3.5000e-02	0.6976	-14.550591	0.000479	4.789531	0.811369	0.009579
  72	3.5500e-02	0.7079	-14.532204	0.000184	1.838838	0.311508	0.003678
  73	3.6000e-02	0.7196	-14.471481	0.000607	6.072441	1.028699	0.012145
  74	3.6500e-02	0.7288	-14.450527	0.000210	2.095420	0.354974	0.004191
  75	3.7000e-02	0.7364	-14.388094	0.000624	6.243496	1.057677	0.012487
  76	3.7500e-02	0.7478	-14.338062	0.000500	5.003349	0.847590	0.010006
  77	3.8000e-02	0.7575	-14.280332	0.000577	5.773095	0.977989	0.011546
  78	3.8500e-02	0.7660	-14.240563	0.000398	3.977021	0.673726	0.007954
  79	3.9000e-02	0.7767	-14.204215	0.000363	3.634912	0.615771	0.007270
  80	3.9500e-02	0.7848	-14.142637	0.000616	6.157968	1.043188	0.012316
  81	4.0000e-02	0.7938	-14.116552	0.000261	2.608584	0.441906	0.005217
  82	4.0500e-02	0.8076	-14.059250	0.000573	5.730332	0.970744	0.011460
  83	4.1000e-02	0.8172	-14.016060	0.000432	4.319131	0.731681	0.008638
  84	4.1500e-02	0.8250	-13.982277	0.000338	3.378330	0.572305	0.006756
  85	4.2000e-02	0.8354	-13.927114	0.000552	5.516513	0.934523	0.011033
  86	4.2500e-02	0.8489	-13.877937	0.000492	4.917822	0.833102	0.009835
  87	4.3000e-02	0.8578	-13.818925	0.000590	5.901386	0.999722	0.011802
  88	4.3500e-02	0.8661	-13.770175	0.000488	4.875058	0.825857	0.009750
  89	4.4000e-02	0.8752	-13.738103	0.000321	3.207275	0.543327	0.006414
  90	4.4500e-02	0.8844	-13.689354	0.000488	4.875058	0.825857	0.009750
  91	4.5000e-02	0.8947	-13.660276	0.000291	2.907930	0.492617	0.005816
  92	4.5500e-02	0.9048	-13.610671	0.000496	4.960586	0.840346	0.009921
  93	4.6000e-02	0.9148	-13.548238	0.000624	6.243496	1.057677	0.012487
  94	4.6500e-02	0.9280	-13.520870	0.000274	2.736875	0.463639	0.005474
  95	4.7000e-02	0.9366	-13.460575	0.000603	6.029677	1.021455	0.012059
  96	4.7500e-02	0.9479	-13.412253	0.000483	4.832295	0.818613	0.009664
  97	4.8000e-02	0.9601	-13.382319	0.000299	2.993457	0.507105	0.005987
  98	4.8500e-02	0.9665	-13.326728	0.000556	5.559277	0.941767	0.011118
  99	4.9000e-02	0.9753	-13.297222	0.000295	2.950693	0.499861	0.005901
 100	4.9500e-02	0.9871	-13.245479	0.000517	5.174404	0.876568	0.010349
 101	5.0000e-02	0.9962	-13.201434	0.000440	4.404658	0.746169	0.008809
 102	5.0500e-02	1.0047	-13.159954	0.000415	4.148076	0.702703	0.008296
 103	5.1000e-02	1.0181	-13.107784	0.000522	5.217168	0.883812	0.010434
 104	5.1500e-02	1.0301	-13.068015	0.000398	3.977021	0.673726	0.007954
 105	5.2000e-02	1.0379	-13.014989	0.000530	5.302695	0.898301	0.010605
 106	5.2500e-02	1.0468	-12.957687	0.000573	5.730332	0.970744	0.011460
 107	5.3000e-02	1.0557	-12.918346	0.000393	3.934258	0.666481	0.007868
 108	5.3500e-02	1.0677	-12.881998	0.000363	3.634912	0.615771	0.007270
 109	5.4000e-02	1.0756	-12.829400	0.000526	5.259931	0.891056	0.010520
 110	5.4500e-02	1.0857	-12.798611	0.000308	3.078984	0.521594	0.006158
 111	5.5000e-02	1.0978	-12.756276	0.000423	4.233603	0.717192	0.008467
 112	5.5500e-02	1.1049	-12.703250	0.000530	5.302695	0.898301	0.010605
 113	5.6000e-02	1.1171	-12.661343	0.000419	4.190840	0.709947	0.008381
 114	5.6500e-02	1.1276	-12.621146	0.000402	4.019785	0.680970	0.008039
 115	5.7000e-02	1.1377	-12.581377	0.000398	3.977021	0.673726	0.007954
 116	5.7500e-02	1.1448	-12.527496	0.000539	5.388222	0.912790	0.010776
 117	5.8000e-02	1.1587	-12.473615	0.000539	5.388222	0.912790	0.010776
 118	5.8500e-02	1.1674	-12.445392	0.000282	2.822402	0.478128	0.005645
 119	5.9000e-02	1.1769	-12.382531	0.000629	6.286259	1.064921	0.012572
 120	5.9500e-02	1.1864	-12.342762	0.000398	3.977021	0.673726	0.007954
 121	6.0000e-02	1.1970	-12.279474	0.000633	6.329023	1.072166	0.012658
 122	6.0500e-02	1.2091	-12.264934	0.000145	1.453965	0.246308	0.002908
 123	6.1000e-02	1.2170	-12.200363	0.000646	6.457314	1.093899	0.012914
 124	6.1500e-02	1.2260	-12.180265	0.000201	2.009892	0.340485	0.004020
 125	6.2000e-02	1.2369	-12.111417	0.000688	6.884951	1.166342	0.013770
 126	6.2500e-02	1.2469	-12.064806	0.000466	4.661240	0.789635	0.009322
 127	6.3000e-02	1.2564	-12.033589	0.000312	3.121748	0.528838	0.006243
 128	6.3500e-02	1.2698	-12.010925	0.000227	2.266474	0.383951	0.004533
 129	6.4000e-02	1.2758	-11.965169	0.000458	4.575713	0.775147	0.009151
 130	6.4500e-02	1.2857	-11.900598	0.000646	6.457314	1.093899	0.012914
 131	6.5000e-02	1.2984	-11.862539	0.000381	3.805967	0.644748	0.007612
 132	6.5500e-02	1.3061	-11.803527	0.000590	5.901386	0.999722	0.011802
 133	6.6000e-02	1.3179	-11.771455	0.000321	3.207275	0.543327	0.006414
 134	6.6500e-02	1.3271	-11.739383	0.000321	3.207275	0.543327	0.006414
 135	6.7000e-02	1.3342	-11.685502	0.000539	5.388222	0.912790	0.010776
 136	6.7500e-02	1.3481	-11.640601	0.000449	4.490185	0.760658	0.008980
 137	6.8000e-02	1.3558	-11.590997	0.000496	4.960586	0.840346	0.009921
 138	6.8500e-02	1.3627	-11.555076	0.000359	3.592148	0.608526	0.007184
 139	6.9000e-02	1.3757	-11.521294	0.000338	3.378330	0.572305	0.006756
 140	6.9500e-02	1.3863	-11.449025	0.000723	7.227060	1.224297	0.014454
 141	7.0000e-02	1.3959	-11.423795	0.000252	2.523056	0.427417	0.005046
 142	7.0500e-02	1.4037	-11.380605	0.000432	4.319131	0.731681	0.008638
 143	7.1000e-02	1.4166	-11.327152	0.000535	5.345459	0.905545	0.010691
 144	7.1500e-02	1.4249	-11.278403	0.000488	4.875058	0.825857	0.009750
 145	7.2000e-02	1.4358	-11.260870	0.000175	1.753310	0.297019	0.003507
 146	7.2500e-02	1.4468	-11.193305	0.000676	6.756660	1.144609	0.013513
 147	7.3000e-02	1.4565	-11.148832	0.000445	4.447422	0.753414	0.008895
 148	7.3500e-02	1.4668	-11.107780	0.000411	4.105312	0.695459	0.008210
 149	7.4000e-02	1.4772	-11.071432	0.000363	3.634912	0.615771	0.007270
 150	7.4500e-02	1.4865	-11.014986	0.000564	5.644804	0.956256	0.011289
 151	7.5000e-02	1.4954	-10.955973	0.000590	5.901386	0.999722	0.011802
 152	7.5500e-02	1.5057	-10.941006	0.000150	1.496728	0.253553	0.002993
 153	7.6000e-02	1.5161	-10.900382	0.000406	4.062549	0.688214	0.008125
 154	7.6500e-02	1.5266	-10.849922	0.000505	5.046113	0.854835	0.010092
 155	7.7000e-02	1.5336	-10.804166	0.000458	4.575713	0.775147	0.009151
 156	7.7500e-02	1.5460	-10.760976	0.000432	4.319131	0.731681	0.008638
 157	7.8000e-02	1.5569	-10.706240	0.000547	5.473750	0.927278	0.010947
 158	7.8500e-02	1.5656	-10.673313	0.000329	3.292803	0.557816	0.006585
 159	7.9000e-02	1.5766	-10.623709	0.000496	4.960586	0.840346	0.009921
 160	7.9500e-02	1.5862	-10.601044	0.000227	2.266474	0.383951	0.004533
 161	8.0000e-02	1.5987	-10.546736	0.000543	5.430986	0.920034	0.010862
 162	8.0500e-02	1.6061	-10.508250	0.000385	3.848730	0.651993	0.007697
 163	8.1000e-02	1.6147	-10.442823	0.000654	6.542841	1.108387	0.013085
 164	8.1500e-02	1.6245	-10.399205	0.000436	4.361894	0.738925	0.008724
 165	8.2000e-02	1.6358	-10.364995	0.000342	3.421094	0.579549	0.006842
 166	8.2500e-02	1.6443	-10.319667	0.000453	4.532949	0.767902	0.009066
 167	8.3000e-02	1.6565	-10.279898	0.000398	3.977021	0.673726	0.007954
 168	8.3500e-02	1.6655	-10.229438	0.000505	5.046113	0.854835	0.010092
 169	8.4000e-02	1.6780	-10.187958	0.000415	4.148076	0.702703	0.008296
 170	8.4500e-02	1.6866	-10.146479	0.000415	4.148076	0.702703	0.008296
 171	8.5000e-02	1.6971	-10.101150	0.000453	4.532949	0.767902	0.009066
 172	8.5500e-02	1.7070	-10.063947	0.000372	3.720439	0.630259	0.007441
 173	8.6000e-02	1.7153	-10.031020	0.000329	3.292803	0.557816	0.006585
 174	8.6500e-02	1.7270	-9.984836	0.000462	4.618476	0.782391	0.009237
 175	8.7000e-02	1.7380	-9.920693	0.000641	6.414550	1.086654	0.012829
 176	8.7500e-02	1.7485	-9.895463	0.000252	2.523056	0.427417	0.005046
 177	8.8000e-02	1.7569	-9.845003	0.000505	5.046113	0.854835	0.010092
 178	8.8500e-02	1.7661	-9.815069	0.000299	2.993457	0.507105	0.005987
 179	8.9000e-02	1.7764	-9.755629	0.000594	5.944150	1.006966	0.011888
 180	8.9500e-02	1.7854	-9.735531	0.000201	2.009892	0.340485	0.004020
 181	9.0000e-02	1.7953	-9.683361	0.000522	5.217168	0.883812	0.010434
 182	9.0500e-02	1.8080	-9.649578	0.000338	3.378330	0.572305	0.006756
 183	9.1000e-02	1.8176	-9.591421	0.000582	5.815859	0.985233	0.011631
 184	9.1500e-02	1.8282	-9.529415	0.000620	6.200732	1.050432	0.012401
 185	9.2000e-02	1.8352	-9.518297	0.000111	1.111855	0.188353	0.002224
 186	9.2500e-02	1.8428	-9.451160	0.000671	6.713896	1.137365	0.013427
 187	9.3000e-02	1.8573	-9.418233	0.000329	3.292803	0.557816	0.006585
 188	9.3500e-02	1.8677	-9.378891	0.000393	3.934258	0.666481	0.007868
 189	9.4000e-02	1.8755	-9.339977	0.000389	3.891494	0.659237	0.007783
 190	9.4500e-02	1.8854	-9.306623	0.000334	3.335566	0.565060	0.006671
 191	9.5000e-02	1.8991	-9.263005	0.000436	4.361894	0.738925	0.008724
 192	9.5500e-02	1.9064	-9.224091	0.000389	3.891494	0.659237	0.007783
 193	9.6000e-02	1.9162	-9.170210	0.000539	5.388222	0.912790	0.010776
 194	9.6500e-02	1.9263	-9.094521	0.000757	7.569169	1.282252	0.015138
 195	9.7000e-02	1.9357	-9.072284	0.000222	2.223711	0.376707	0.004447
 196	9.7500e-02	1.9464	-9.040212	0.000321	3.207275	0.543327	0.006414
 197	9.8000e-02	1.9586	-9.004292	0.000359	3.592148	0.608526	0.007184
 198	9.8500e-02	1.9639	-8.929030	0.000753	7.526406	1.275008	0.015052
 199	9.9000e-02	1.9773	-8.914918	0.000141	1.411201	0.239064	0.002822
 200	9.9500e-02	1.9888	-8.890116	0.000248	2.480293	0.420173	0.004960
 201	1.0000e-01	1.9966	-8.824261	0.000659	6.585605	1.115632	0.013171
 202	1.0050e-01	2.0081	-8.771663	0.000526	5.259931	0.891056	0.010520
 203	1.0100e-01	2.0145	-8.750282	0.000214	2.138183	0.362218	0.004276
 204	1.0150e-01	2.0273	-8.712651	0.000376	3.763203	0.637504	0.007526
 205	1.0200e-01	2.0355	-8.661764	0.000509	5.088877	0.862079	0.010177
 206	1.0250e-01	2.0461	-8.606600	0.000552	5.516513	0.934523	0.011033
 207	1.0300e-01	2.0560	-8.581798	0.000248	2.480293	0.420173	0.004960
 208	1.0350e-01	2.0652	-8.506963	0.000748	7.483642	1.267763	0.014967
 209	1.0400e-01	2.0743	-8.478313	0.000287	2.865166	0.485372	0.005730
 210	1.0450e-01	2.0868	-8.457359	0.000210	2.095420	0.354974	0.004191
 211	1.0500e-01	2.0966	-8.386373	0.000710	7.098769	1.202564	0.014197
 212	1.0550e-01	2.1069	-8.347032	0.000393	3.934258	0.666481	0.007868
 213	1.0600e-01	2.1143	-8.338051	0.000090	0.898037	0.152132	0.001796
 214	1.0650e-01	2.1268	-8.295289	0.000428	4.276367	0.724436	0.008553
 215	1.0700e-01	2.1375	-8.244829	0.000505	5.046113	0.854835	0.010092
 216	1.0750e-01	2.1470	-8.203777	0.000411	4.105312	0.695459	0.008210
 217	1.0800e-01	2.1559	-8.166574	0.000372	3.720439	0.630259	0.007441
 218	1.0850e-01	2.1651	-8.097726	0.000688	6.884951	1.166342	0.013770
 219	1.0900e-01	2.1737	-8.076345	0.000214	2.138183	0.362218	0.004276
 220	1.0950e-01	2.1854	-8.022464	0.000539	5.388222	0.912790	0.010776
 221	1.1000e-01	2.1986	-7.987399	0.000351	3.506621	0.594038	0.007013
 222	1.1050e-01	2.2089	-7.945064	0.000423	4.233603	0.717192	0.008467
 223	1.1100e-01	2.2165	-7.899308	0.000458	4.575713	0.775147	0.009151
 224	1.1150e-01	2.2260	-7.870657	0.000287	2.865166	0.485372	0.005730
 225	1.1200e-01	2.2382	-7.810789	0.000599	5.986914	1.014211	0.011974
 226	1.1250e-01	2.2459	-7.762895	0.000479	4.789531	0.811369	0.009579
 227	1.1300e-01	2.2551	-7.746218	0.000167	1.667783	0.282530	0.003335
 228	1.1350e-01	2.2662	-7.684640	0.000616	6.157968	1.043188	0.012316
 229	1.1400e-01	2.2778	-7.660693	0.000239	2.394765	0.405684	0.004789
 230	1.1450e-01	2.2882	-7.617930	0.000428	4.276367	0.724436	0.008553
 231	1.1500e-01	2.2980	-7.568754	0.000492	4.917822	0.833102	0.009835
 232	1.1550e-01	2.3053	-7.531550	0.000372	3.720439	0.630259	0.007441
 233	1.1600e-01	2.3183	-7.495630	0.000359	3.592148	0.608526	0.007184
 234	1.1650e-01	2.3264	-7.455860	0.000398	3.977021	0.673726	0.007954
 235	1.1700e-01	2.3349	-7.409677	0.000462	4.618476	0.782391	0.009237
 236	1.1750e-01	2.3488	-7.369908	0.000398	3.977021	0.673726	0.007954
 237	1.1800e-01	2.3578	-7.318165	0.000517	5.174404	0.876568	0.010349
 238	1.1850e-01	2.3683	-7.268988	0.000492	4.917822	0.833102	0.009835
 239	1.1900e-01	2.3789	-7.257870	0.000111	1.111855	0.188353	0.002224
 240	1.1950e-01	2.3870	-7.192871	0.000650	6.500078	1.101143	0.013000
 241	1.2000e-01	2.4010	-7.151819	0.000411	4.105312	0.695459	0.008210
 242	1.2050e-01	2.4057	-7.128300	0.000235	2.352002	0.398440	0.004704
 243	1.2100e-01	2.4179	-7.069715	0.000586	5.858623	0.992478	0.011717
 244	1.2150e-01	2.4265	-7.030373	0.000393	3.934258	0.666481	0.007868
 245	1.2200e-01	2.4344	-6.993170	0.000372	3.720439	0.630259	0.007441
 246	1.2250e-01	2.4500	-6.949980	0.000432	4.319131	0.731681	0.008638
 247	1.2300e-01	2.4579	-6.906790	0.000432	4.319131	0.731681	0.008638
 248	1.2350e-01	2.4667	-6.876428	0.000304	3.036221	0.514350	0.006072
 249	1.2400e-01	2.4780	-6.825113	0.000513	5.131640	0.869323	0.010263
 250	1.2450e-01	2.4904	-6.786199	0.000389	3.891494	0.659237	0.007783
 251	1.2500e-01	2.4966	-6.745575	0.000406	4.062549	0.688214	0.008125
 252	1.2550e-01	2.5042	-6.705806	0.000398	3.977021	0.673726	0.007954
 253	1.2600e-01	2.5171	-6.677155	0.000287	2.865166	0.485372	0.005730
 254	1.2650e-01	2.5294	-6.641234	0.000359	3.592148	0.608526	0.007184
 255	1.2700e-01	2.5402	-6.589064	0.000522	5.217168	0.883812	0.010434
 256	1.2750e-01	2.5464	-6.546729	0.000423	4.233603	0.717192	0.008467
 257	1.2800e-01	2.5572	-6.503539	0.000432	4.319131	0.731681	0.008638
 258	1.2850e-01	2.5636	-6.468474	0.000351	3.506621	0.594038	0.007013
