»»»»»»»»»»»»»»»»»»»»»»»»»»»»»»»»»»»» Hysteresis ««««««««««««««««««««««««««««««««««««
»»»  Executed Version:	5.48.1
»»»  Vision Version:	5.48.4 (R)
»»»  Vision Compiled:	9/18/24
»»»  Driver Version:	5.47.0
»»»  Windows Version:	Windows 8 or 8.1
»»»  Processor Information:	x86 (AMD or Intel) - 32 Processors
»»»  Tester Name:	PMF21124-494 (100V)
»»»  Tester S/N:	PMF21124-494
»»»  Internal Amp Type:	100V RevK 270k
»»»  Internal Amp S/N:	iAB2-596/K     
»»»  Execution Count:	1
»»»»»»»»»»»»»»»»»»»»»»»»»»»»»»»»»»»»»»»»»»««««««««««««««««««««««««««««««««««««««««««

Stored:	6/30/2025 - 14:58:1
Configured:	06/30/25 10:19:58 AM
Executed:	06/30/25 02:57:36 PM

»»»»»»»»»»»»»»»»»»»»»»»»»»»»»»»»»»» Sample Info ««««««««««««««««««««««««««««««««««««
Sample Name:	
Lot Name:	
Wafer Name:	
Die Row/Column:	0/0
Capacitor Number:	0
Sample Area (cm2):	1.00e-04
Sample Thickness (microns):	1.50e-01

Amplifier:	Internal

»»»»»»»»»»»»»»»»»»»»»»»»»»»»»»»»»»» Tester Info «««««««««««««««««««««««««««««««««««
Tester Name:	PMF21124-494 (100V)
Tester Serial Number:	PMF21124-494
Return Signal Amp. Level:	1.79 [Index: 2]

»»»»»»»»»»»»»»»»»»»»»»»»»»»»»»»» Hysteresis Info ««««««««««««««««««««««««««««««««««
Task Name:	Hyst-1804
Volts:	10.00
Field:	666.67 (kV/cm)
DCBias:	0.00
DCField:	0.00 (kV/cm)
Hysteresis Period (ms):	1.00e+00
Preset:	Enabled
Preset Delay (ms):	1.00e+03
Profile:	Standard Monopolar

»»»»»»»»»»»»»»»»»»»»»»»»»»»»»»»»»»»»»» Data «««««««««««««««««««««««««««««««««««««««
Points:	2001

Valid Data

Point	Time (ms)	Drive Voltage	Measured Polarization (uC/cm2)	Capacitance (uF)	Normalized Capacitance (uF/cm2)	Dielectric Constant	Instantaneous Current (mA)
   1	0.0000e+00	-0.0058	-20.809743	0.000808	8.080731	1.368913	0.016164
   2	5.0000e-04	0.0063	-20.728921	0.000808	8.080731	1.368913	0.016164
   3	1.0000e-03	0.0167	-20.668199	0.000607	6.071237	1.028495	0.012145
   4	1.5000e-03	0.0253	-20.640403	0.000278	2.779087	0.470790	0.005559
   5	2.0000e-03	0.0353	-20.560865	0.000795	7.952465	1.347184	0.015908
   6	2.5000e-03	0.0469	-20.514253	0.000466	4.660315	0.789479	0.009322
   7	3.0000e-03	0.0553	-20.453103	0.000611	6.113992	1.035738	0.012230
   8	3.5000e-03	0.0658	-20.412906	0.000402	4.018988	0.680835	0.008039
   9	4.0000e-03	0.0748	-20.362447	0.000505	5.045112	0.854665	0.010092
  10	4.5000e-03	0.0869	-20.304289	0.000581	5.814706	0.985038	0.011631
  11	5.0000e-03	0.0973	-20.255540	0.000487	4.874091	0.825693	0.009750
  12	5.5000e-03	0.1079	-20.190969	0.000646	6.456033	1.093682	0.012914
  13	6.0000e-03	0.1154	-20.170870	0.000201	2.009494	0.340417	0.004020
  14	6.5000e-03	0.1265	-20.093043	0.000778	7.781444	1.318212	0.015566
  15	7.0000e-03	0.1344	-20.063109	0.000299	2.992863	0.507005	0.005987
  16	7.5000e-03	0.1434	-20.000248	0.000629	6.285013	1.064710	0.012572
  17	8.0000e-03	0.1548	-19.946795	0.000534	5.344399	0.905366	0.010691
  18	8.5000e-03	0.1667	-19.891203	0.000556	5.558174	0.941580	0.011118
  19	9.0000e-03	0.1755	-19.854428	0.000368	3.676946	0.622892	0.007355
  20	9.5000e-03	0.1852	-19.810382	0.000440	4.403784	0.746021	0.008809
  21	1.0000e-02	0.1986	-19.726995	0.000834	8.337262	1.412370	0.016677
  22	1.0500e-02	0.2066	-19.698772	0.000282	2.821842	0.478033	0.005645
  23	1.1000e-02	0.2169	-19.629924	0.000688	6.883585	1.166111	0.013770
  24	1.1500e-02	0.2235	-19.573906	0.000560	5.600930	0.948823	0.011204
  25	1.2000e-02	0.2368	-19.540123	0.000338	3.377660	0.572191	0.006756
  26	1.2500e-02	0.2467	-19.479400	0.000607	6.071237	1.028495	0.012145
  27	1.3000e-02	0.2557	-19.434927	0.000445	4.446540	0.753264	0.008895
  28	1.3500e-02	0.2676	-19.384895	0.000500	5.002357	0.847422	0.010006
  29	1.4000e-02	0.2739	-19.346409	0.000385	3.847967	0.651863	0.007697
  30	1.4500e-02	0.2863	-19.263450	0.000829	8.294506	1.405127	0.016592
  31	1.5000e-02	0.2953	-19.217694	0.000457	4.574805	0.774993	0.009151
  32	1.5500e-02	0.3065	-19.155260	0.000624	6.242257	1.057467	0.012487
  33	1.6000e-02	0.3165	-19.130458	0.000248	2.479801	0.420090	0.004960
  34	1.6500e-02	0.3262	-19.052203	0.000782	7.824199	1.325455	0.015651
  35	1.7000e-02	0.3320	-19.003026	0.000492	4.916847	0.832936	0.009835
  36	1.7500e-02	0.3491	-18.977368	0.000257	2.565311	0.434575	0.005132
  37	1.8000e-02	0.3550	-18.915790	0.000616	6.156747	1.042981	0.012316
  38	1.8500e-02	0.3693	-18.870034	0.000457	4.574805	0.774993	0.009151
  39	1.9000e-02	0.3760	-18.802470	0.000676	6.755320	1.144382	0.013513
  40	1.9500e-02	0.3842	-18.754148	0.000483	4.831336	0.818451	0.009664
  41	2.0000e-02	0.3976	-18.693853	0.000603	6.028482	1.021252	0.012059
  42	2.0500e-02	0.4070	-18.640827	0.000530	5.301643	0.898123	0.010605
  43	2.1000e-02	0.4144	-18.597209	0.000436	4.361029	0.738778	0.008724
  44	2.1500e-02	0.4242	-18.550598	0.000466	4.660315	0.789479	0.009322
  45	2.2000e-02	0.4379	-18.494579	0.000560	5.600930	0.948823	0.011204
  46	2.2500e-02	0.4448	-18.441981	0.000526	5.258888	0.890880	0.010520
  47	2.3000e-02	0.4581	-18.385107	0.000569	5.686440	0.963309	0.011375
  48	2.3500e-02	0.4644	-18.336358	0.000487	4.874091	0.825693	0.009750
  49	2.4000e-02	0.4755	-18.281194	0.000552	5.515419	0.934337	0.011033
  50	2.4500e-02	0.4861	-18.216195	0.000650	6.498789	1.100925	0.013000
  51	2.5000e-02	0.4967	-18.170867	0.000453	4.532050	0.767750	0.009066
  52	2.5500e-02	0.5070	-18.108006	0.000629	6.285013	1.064710	0.012572
  53	2.6000e-02	0.5157	-18.073368	0.000346	3.463170	0.586677	0.006928
  54	2.6500e-02	0.5256	-18.024192	0.000492	4.916847	0.832936	0.009835
  55	2.7000e-02	0.5353	-17.998534	0.000257	2.565311	0.434575	0.005132
  56	2.7500e-02	0.5450	-17.926693	0.000718	7.182872	1.216811	0.014368
  57	2.8000e-02	0.5589	-17.892483	0.000342	3.420415	0.579434	0.006842
  58	2.8500e-02	0.5638	-17.804392	0.000881	8.807569	1.492043	0.017618
  59	2.9000e-02	0.5779	-17.763768	0.000406	4.061743	0.688078	0.008125
  60	2.9500e-02	0.5865	-17.713736	0.000500	5.002357	0.847422	0.010006
  61	3.0000e-02	0.5930	-17.671401	0.000423	4.232764	0.717050	0.008467
  62	3.0500e-02	0.6072	-17.608967	0.000624	6.242257	1.057467	0.012487
  63	3.1000e-02	0.6161	-17.555942	0.000530	5.301643	0.898123	0.010605
  64	3.1500e-02	0.6271	-17.503344	0.000526	5.258888	0.890880	0.010520
  65	3.2000e-02	0.6372	-17.463147	0.000402	4.018988	0.680835	0.008039
  66	3.2500e-02	0.6448	-17.410549	0.000526	5.258888	0.890880	0.010520
  67	3.3000e-02	0.6555	-17.337425	0.000731	7.311137	1.238540	0.014625
  68	3.3500e-02	0.6635	-17.296801	0.000406	4.061743	0.688078	0.008125
  69	3.4000e-02	0.6784	-17.262163	0.000346	3.463170	0.586677	0.006928
  70	3.4500e-02	0.6848	-17.222822	0.000393	3.933477	0.666349	0.007868
  71	3.5000e-02	0.6956	-17.116343	0.001065	10.646042	1.803488	0.021296
  72	3.5500e-02	0.7078	-17.082133	0.000342	3.420415	0.579434	0.006842
  73	3.6000e-02	0.7158	-17.053910	0.000282	2.821842	0.478033	0.005645
  74	3.6500e-02	0.7268	-17.010720	0.000432	4.318274	0.731535	0.008638
  75	3.7000e-02	0.7344	-16.927760	0.000829	8.294506	1.405127	0.016592
  76	3.7500e-02	0.7492	-16.891840	0.000359	3.591436	0.608406	0.007184
  77	3.8000e-02	0.7566	-16.867038	0.000248	2.479801	0.420090	0.004960
  78	3.8500e-02	0.7658	-16.804177	0.000629	6.285013	1.064710	0.012572
  79	3.9000e-02	0.7740	-16.753717	0.000505	5.045112	0.854665	0.010092
  80	3.9500e-02	0.7879	-16.669902	0.000838	8.380017	1.419613	0.016763
  81	4.0000e-02	0.7951	-16.622008	0.000479	4.788581	0.811208	0.009579
  82	4.0500e-02	0.8062	-16.562996	0.000590	5.900216	0.999524	0.011802
  83	4.1000e-02	0.8168	-16.509970	0.000530	5.301643	0.898123	0.010605
  84	4.1500e-02	0.8281	-16.479609	0.000304	3.035618	0.514248	0.006072
  85	4.2000e-02	0.8353	-16.404775	0.000748	7.482158	1.267512	0.014967
  86	4.2500e-02	0.8476	-16.356453	0.000483	4.831336	0.818451	0.009664
  87	4.3000e-02	0.8566	-16.322671	0.000338	3.377660	0.572191	0.006756
  88	4.3500e-02	0.8659	-16.292737	0.000299	2.992863	0.507005	0.005987
  89	4.4000e-02	0.8762	-16.211488	0.000812	8.123486	1.376156	0.016250
  90	4.4500e-02	0.8867	-16.158890	0.000526	5.258888	0.890880	0.010520
  91	4.5000e-02	0.8957	-16.119549	0.000393	3.933477	0.666349	0.007868
  92	4.5500e-02	0.9064	-16.063957	0.000556	5.558174	0.941580	0.011118
  93	4.6000e-02	0.9164	-15.988268	0.000757	7.567668	1.281998	0.015138
  94	4.6500e-02	0.9277	-15.952775	0.000355	3.548681	0.601163	0.007099
  95	4.7000e-02	0.9372	-15.912578	0.000402	4.018988	0.680835	0.008039
  96	4.7500e-02	0.9479	-15.851000	0.000616	6.156747	1.042981	0.012316
  97	4.8000e-02	0.9525	-15.799257	0.000517	5.173378	0.876394	0.010349
  98	4.8500e-02	0.9668	-15.753929	0.000453	4.532050	0.767750	0.009066
  99	4.9000e-02	0.9763	-15.698338	0.000556	5.558174	0.941580	0.011118
 100	4.9500e-02	0.9856	-15.651726	0.000466	4.660315	0.789479	0.009322
 101	5.0000e-02	0.9971	-15.601694	0.000500	5.002357	0.847422	0.010006
 102	5.0500e-02	1.0052	-15.571761	0.000299	2.992863	0.507005	0.005987
 103	5.1000e-02	1.0156	-15.519590	0.000522	5.216133	0.883637	0.010434
 104	5.1500e-02	1.0283	-15.446894	0.000727	7.268382	1.231297	0.014539
 105	5.2000e-02	1.0361	-15.374198	0.000727	7.268382	1.231297	0.014539
 106	5.2500e-02	1.0481	-15.339560	0.000346	3.463170	0.586677	0.006928
 107	5.3000e-02	1.0538	-15.283114	0.000564	5.643685	0.956066	0.011289
 108	5.3500e-02	1.0635	-15.223674	0.000594	5.942971	1.006767	0.011888
 109	5.4000e-02	1.0750	-15.175352	0.000483	4.831336	0.818451	0.009664
 110	5.4500e-02	1.0876	-15.107360	0.000680	6.798075	1.151625	0.013598
 111	5.5000e-02	1.0962	-15.090682	0.000167	1.667452	0.282474	0.003335
 112	5.5500e-02	1.1069	-15.021407	0.000693	6.926340	1.173354	0.013855
 113	5.6000e-02	1.1158	-15.003874	0.000175	1.752963	0.296960	0.003507
 114	5.6500e-02	1.1281	-14.932033	0.000718	7.182872	1.216811	0.014368
 115	5.7000e-02	1.1346	-14.896113	0.000359	3.591436	0.608406	0.007184
 116	5.7500e-02	1.1456	-14.818712	0.000774	7.738689	1.310969	0.015480
 117	5.8000e-02	1.1565	-14.784930	0.000338	3.377660	0.572191	0.006756
 118	5.8500e-02	1.1652	-14.734898	0.000500	5.002357	0.847422	0.010006
 119	5.9000e-02	1.1759	-14.657498	0.000774	7.738689	1.310969	0.015480
 120	5.9500e-02	1.1873	-14.622005	0.000355	3.548681	0.601163	0.007099
 121	6.0000e-02	1.1954	-14.574538	0.000475	4.745826	0.803965	0.009493
 122	6.0500e-02	1.2054	-14.506546	0.000680	6.798075	1.151625	0.013598
 123	6.1000e-02	1.2158	-14.466777	0.000398	3.976232	0.673592	0.007954
 124	6.1500e-02	1.2277	-14.414607	0.000522	5.216133	0.883637	0.010434
 125	6.2000e-02	1.2354	-14.361581	0.000530	5.301643	0.898123	0.010605
 126	6.2500e-02	1.2451	-14.323950	0.000376	3.762457	0.637377	0.007526
 127	6.3000e-02	1.2576	-14.281187	0.000428	4.275519	0.724292	0.008553
 128	6.3500e-02	1.2683	-14.211485	0.000697	6.969096	1.180597	0.013941
 129	6.4000e-02	1.2769	-14.146913	0.000646	6.456033	1.093682	0.012914
 130	6.4500e-02	1.2846	-14.125532	0.000214	2.137759	0.362146	0.004276
 131	6.5000e-02	1.2964	-14.042145	0.000834	8.337262	1.412370	0.016677
 132	6.5500e-02	1.3065	-14.022902	0.000192	1.923983	0.325932	0.003849
 133	6.6000e-02	1.3136	-13.967311	0.000556	5.558174	0.941580	0.011118
 134	6.6500e-02	1.3235	-13.902739	0.000646	6.456033	1.093682	0.012914
 135	6.7000e-02	1.3351	-13.849286	0.000534	5.344399	0.905366	0.010691
 136	6.7500e-02	1.3451	-13.796688	0.000526	5.258888	0.890880	0.010520
 137	6.8000e-02	1.3530	-13.767182	0.000295	2.950108	0.499762	0.005901
 138	6.8500e-02	1.3678	-13.714584	0.000526	5.258888	0.890880	0.010520
 139	6.9000e-02	1.3760	-13.644881	0.000697	6.969096	1.180597	0.013941
 140	6.9500e-02	1.3850	-13.614520	0.000304	3.035618	0.514248	0.006072
 141	7.0000e-02	1.3928	-13.541823	0.000727	7.268382	1.231297	0.014539
 142	7.0500e-02	1.4017	-13.481528	0.000603	6.028482	1.021252	0.012059
 143	7.1000e-02	1.4160	-13.438766	0.000428	4.275519	0.724292	0.008553
 144	7.1500e-02	1.4249	-13.402845	0.000359	3.591436	0.608406	0.007184
 145	7.2000e-02	1.4337	-13.346399	0.000564	5.643685	0.956066	0.011289
 146	7.2500e-02	1.4473	-13.282255	0.000641	6.413278	1.086439	0.012829
 147	7.3000e-02	1.4551	-13.253176	0.000291	2.907353	0.492519	0.005816
 148	7.3500e-02	1.4664	-13.182618	0.000705	7.054606	1.195083	0.014112
 149	7.4000e-02	1.4771	-13.144132	0.000385	3.847967	0.651863	0.007697
 150	7.4500e-02	1.4863	-13.101797	0.000423	4.232764	0.717050	0.008467
 151	7.5000e-02	1.4956	-13.035515	0.000663	6.627054	1.122653	0.013256
 152	7.5500e-02	1.5036	-13.008575	0.000269	2.693577	0.456304	0.005388
 153	7.6000e-02	1.5161	-12.938872	0.000697	6.969096	1.180597	0.013941
 154	7.6500e-02	1.5266	-12.888412	0.000505	5.045112	0.854665	0.010092
 155	7.7000e-02	1.5356	-12.848215	0.000402	4.018988	0.680835	0.008039
 156	7.7500e-02	1.5473	-12.779368	0.000688	6.883585	1.166111	0.013770
 157	7.8000e-02	1.5578	-12.723349	0.000560	5.600930	0.948823	0.011204
 158	7.8500e-02	1.5651	-12.687000	0.000363	3.634191	0.615649	0.007270
 159	7.9000e-02	1.5759	-12.639106	0.000479	4.788581	0.811208	0.009579
 160	7.9500e-02	1.5865	-12.602331	0.000368	3.676946	0.622892	0.007355
 161	8.0000e-02	1.5953	-12.526641	0.000757	7.567668	1.281998	0.015138
 162	8.0500e-02	1.6051	-12.488155	0.000385	3.847967	0.651863	0.007697
 163	8.1000e-02	1.6147	-12.432136	0.000560	5.600930	0.948823	0.011204
 164	8.1500e-02	1.6242	-12.394932	0.000372	3.719701	0.630134	0.007441
 165	8.2000e-02	1.6373	-12.327368	0.000676	6.755320	1.144382	0.013513
 166	8.2500e-02	1.6449	-12.293158	0.000342	3.420415	0.579434	0.006842
 167	8.3000e-02	1.6525	-12.226448	0.000667	6.669809	1.129896	0.013342
 168	8.3500e-02	1.6653	-12.187534	0.000389	3.890722	0.659106	0.007783
 169	8.4000e-02	1.6757	-12.125528	0.000620	6.199502	1.050224	0.012401
 170	8.4500e-02	1.6837	-12.066944	0.000586	5.857461	0.992281	0.011717
 171	8.5000e-02	1.6971	-12.019050	0.000479	4.788581	0.811208	0.009579
 172	8.5500e-02	1.7047	-11.983557	0.000355	3.548681	0.601163	0.007099
 173	8.6000e-02	1.7133	-11.947209	0.000363	3.634191	0.615649	0.007270
 174	8.6500e-02	1.7249	-11.858263	0.000889	8.893079	1.506528	0.017789
 175	8.7000e-02	1.7369	-11.817211	0.000410	4.104498	0.695321	0.008210
 176	8.7500e-02	1.7450	-11.758626	0.000586	5.857461	0.992281	0.011717
 177	8.8000e-02	1.7555	-11.722705	0.000359	3.591436	0.608406	0.007184
 178	8.8500e-02	1.7651	-11.678660	0.000440	4.403784	0.746021	0.008809
 179	8.9000e-02	1.7770	-11.621786	0.000569	5.686440	0.963309	0.011375
 180	8.9500e-02	1.7873	-11.581589	0.000402	4.018988	0.680835	0.008039
 181	9.0000e-02	1.7976	-11.528991	0.000526	5.258888	0.890880	0.010520
 182	9.0500e-02	1.8092	-11.469979	0.000590	5.900216	0.999524	0.011802
 183	9.1000e-02	1.8152	-11.446032	0.000239	2.394291	0.405604	0.004789
 184	9.1500e-02	1.8263	-11.370770	0.000752	7.524913	1.274755	0.015052
 185	9.2000e-02	1.8369	-11.315179	0.000556	5.558174	0.941580	0.011118
 186	9.2500e-02	1.8466	-11.276265	0.000389	3.890722	0.659106	0.007783
 187	9.3000e-02	1.8542	-11.216825	0.000594	5.942971	1.006767	0.011888
 188	9.3500e-02	1.8690	-11.167220	0.000496	4.959602	0.840179	0.009921
 189	9.4000e-02	1.8765	-11.125313	0.000419	4.190008	0.709807	0.008381
 190	9.4500e-02	1.8871	-11.071860	0.000534	5.344399	0.905366	0.010691
 191	9.5000e-02	1.8954	-11.030380	0.000415	4.147253	0.702564	0.008296
 192	9.5500e-02	1.9067	-10.990183	0.000402	4.018988	0.680835	0.008039
 193	9.6000e-02	1.9179	-10.971368	0.000188	1.881228	0.318689	0.003763
 194	9.6500e-02	1.9244	-10.872159	0.000992	9.919204	1.680359	0.019842
 195	9.7000e-02	1.9359	-10.843936	0.000282	2.821842	0.478033	0.005645
 196	9.7500e-02	1.9478	-10.787061	0.000569	5.686440	0.963309	0.011375
 197	9.8000e-02	1.9566	-10.724628	0.000624	6.242257	1.057467	0.012487
 198	9.8500e-02	1.9664	-10.669464	0.000552	5.515419	0.934337	0.011033
 199	9.9000e-02	1.9800	-10.643379	0.000261	2.608066	0.441818	0.005217
 200	9.9500e-02	1.9876	-10.567690	0.000757	7.567668	1.281998	0.015138
 201	1.0000e-01	1.9954	-10.508677	0.000590	5.900216	0.999524	0.011802
 202	1.0050e-01	2.0056	-10.481309	0.000274	2.736332	0.463547	0.005474
 203	1.0100e-01	2.0176	-10.423580	0.000577	5.771950	0.977795	0.011546
 204	1.0150e-01	2.0254	-10.372692	0.000509	5.087867	0.861908	0.010177
 205	1.0200e-01	2.0351	-10.344897	0.000278	2.779087	0.470790	0.005559
 206	1.0250e-01	2.0476	-10.269207	0.000757	7.567668	1.281998	0.015138
 207	1.0300e-01	2.0554	-10.223451	0.000457	4.574805	0.774993	0.009151
 208	1.0350e-01	2.0664	-10.177695	0.000457	4.574805	0.774993	0.009151
 209	1.0400e-01	2.0774	-10.141775	0.000359	3.591436	0.608406	0.007184
 210	1.0450e-01	2.0869	-10.092598	0.000492	4.916847	0.832936	0.009835
 211	1.0500e-01	2.0950	-10.029737	0.000629	6.285013	1.064710	0.012572
 212	1.0550e-01	2.1066	-9.982698	0.000470	4.703071	0.796722	0.009408
 213	1.0600e-01	2.1165	-9.920265	0.000624	6.242257	1.057467	0.012487
 214	1.0650e-01	2.1260	-9.907864	0.000124	1.239900	0.210045	0.002480
 215	1.0700e-01	2.1356	-9.817635	0.000902	9.021345	1.528257	0.018046
 216	1.0750e-01	2.1461	-9.780859	0.000368	3.676946	0.622892	0.007355
 217	1.0800e-01	2.1562	-9.705169	0.000757	7.567668	1.281998	0.015138
 218	1.0850e-01	2.1650	-9.679940	0.000252	2.522556	0.427333	0.005046
 219	1.0900e-01	2.1777	-9.644019	0.000359	3.591436	0.608406	0.007184
 220	1.0950e-01	2.1875	-9.583296	0.000607	6.071237	1.028495	0.012145
 221	1.1000e-01	2.1949	-9.543099	0.000402	4.018988	0.680835	0.008039
 222	1.1050e-01	2.2047	-9.492640	0.000505	5.045112	0.854665	0.010092
 223	1.1100e-01	2.2157	-9.456292	0.000363	3.634191	0.615649	0.007270
 224	1.1150e-01	2.2260	-9.405832	0.000505	5.045112	0.854665	0.010092
 225	1.1200e-01	2.2359	-9.342116	0.000637	6.370523	1.079196	0.012743
 226	1.1250e-01	2.2440	-9.298925	0.000432	4.318274	0.731535	0.008638
 227	1.1300e-01	2.2564	-9.242479	0.000564	5.643685	0.956066	0.011289
 228	1.1350e-01	2.2657	-9.188170	0.000543	5.429909	0.919851	0.010862
 229	1.1400e-01	2.2734	-9.141987	0.000462	4.617560	0.782236	0.009237
 230	1.1450e-01	2.2852	-9.086396	0.000556	5.558174	0.941580	0.011118
 231	1.1500e-01	2.2952	-9.056890	0.000295	2.950108	0.499762	0.005901
 232	1.1550e-01	2.3056	-9.000871	0.000560	5.600930	0.948823	0.011204
 233	1.1600e-01	2.3157	-8.948700	0.000522	5.216133	0.883637	0.010434
 234	1.1650e-01	2.3264	-8.886267	0.000624	6.242257	1.057467	0.012487
 235	1.1700e-01	2.3366	-8.832814	0.000534	5.344399	0.905366	0.010691
 236	1.1750e-01	2.3453	-8.795610	0.000372	3.719701	0.630134	0.007441
 237	1.1800e-01	2.3568	-8.751993	0.000436	4.361029	0.738778	0.008724
 238	1.1850e-01	2.3645	-8.724197	0.000278	2.779087	0.470790	0.005559
 239	1.1900e-01	2.3785	-8.648507	0.000757	7.567668	1.281998	0.015138
 240	1.1950e-01	2.3855	-8.592061	0.000564	5.643685	0.956066	0.011289
 241	1.2000e-01	2.3973	-8.576239	0.000158	1.581942	0.267988	0.003164
 242	1.2050e-01	2.4100	-8.518509	0.000577	5.771950	0.977795	0.011546
 243	1.2100e-01	2.4183	-8.453938	0.000646	6.456033	1.093682	0.012914
 244	1.2150e-01	2.4243	-8.405189	0.000487	4.874091	0.825693	0.009750
 245	1.2200e-01	2.4387	-8.367558	0.000376	3.762457	0.637377	0.007526
 246	1.2250e-01	2.4466	-8.311111	0.000564	5.643685	0.956066	0.011289
 247	1.2300e-01	2.4561	-8.285881	0.000252	2.522556	0.427333	0.005046
 248	1.2350e-01	2.4638	-8.230290	0.000556	5.558174	0.941580	0.011118
 249	1.2400e-01	2.4768	-8.158449	0.000718	7.182872	1.216811	0.014368
 250	1.2450e-01	2.4854	-8.123384	0.000351	3.505925	0.593920	0.007013
 251	1.2500e-01	2.4966	-8.070786	0.000526	5.258888	0.890880	0.010520
 252	1.2550e-01	2.5039	-8.043845	0.000269	2.693577	0.456304	0.005388
 253	1.2600e-01	2.5166	-8.004931	0.000389	3.890722	0.659106	0.007783
 254	1.2650e-01	2.5314	-7.945491	0.000594	5.942971	1.006767	0.011888
 255	1.2700e-01	2.5378	-7.883058	0.000624	6.242257	1.057467	0.012487
 256	1.2750e-01	2.5459	-7.832598	0.000505	5.045112	0.854665	0.010092
 257	1.2800e-01	2.5556	-7.800526	0.000321	3.206639	0.543219	0.006414
 258	1.2850e-01	2.5642	-7.747929	0.000526	5.258888	0.890880	0.010520
