»»»»»»»»»»»»»»»»»»»»»»»»»»»»»»»»»»»» Hysteresis ««««««««««««««««««««««««««««««««««««
»»»  Executed Version:	5.48.1
»»»  Vision Version:	5.48.4 (R)
»»»  Vision Compiled:	9/18/24
»»»  Driver Version:	5.47.0
»»»  Windows Version:	Windows 8 or 8.1
»»»  Processor Information:	x86 (AMD or Intel) - 32 Processors
»»»  Tester Name:	PMF21124-494 (100V)
»»»  Tester S/N:	PMF21124-494
»»»  Internal Amp Type:	100V RevK 270k
»»»  Internal Amp S/N:	iAB2-596/K     
»»»  Execution Count:	1
»»»»»»»»»»»»»»»»»»»»»»»»»»»»»»»»»»»»»»»»»»««««««««««««««««««««««««««««««««««««««««««

Stored:	6/30/2025 - 15:0:0
Configured:	06/30/25 10:19:58 AM
Executed:	06/30/25 02:59:32 PM

»»»»»»»»»»»»»»»»»»»»»»»»»»»»»»»»»»» Sample Info ««««««««««««««««««««««««««««««««««««
Sample Name:	
Lot Name:	
Wafer Name:	
Die Row/Column:	0/0
Capacitor Number:	0
Sample Area (cm2):	1.00e-04
Sample Thickness (microns):	1.50e-01

Amplifier:	Internal

»»»»»»»»»»»»»»»»»»»»»»»»»»»»»»»»»»» Tester Info «««««««««««««««««««««««««««««««««««
Tester Name:	PMF21124-494 (100V)
Tester Serial Number:	PMF21124-494
Return Signal Amp. Level:	1.79 [Index: 2]

»»»»»»»»»»»»»»»»»»»»»»»»»»»»»»»» Hysteresis Info ««««««««««««««««««««««««««««««««««
Task Name:	Hyst-1804
Volts:	10.00
Field:	666.67 (kV/cm)
DCBias:	0.00
DCField:	0.00 (kV/cm)
Hysteresis Period (ms):	1.00e+00
Preset:	Enabled
Preset Delay (ms):	1.00e+03
Profile:	Standard Monopolar

»»»»»»»»»»»»»»»»»»»»»»»»»»»»»»»»»»»»»» Data «««««««««««««««««««««««««««««««««««««««
Points:	2001

Valid Data

Point	Time (ms)	Drive Voltage	Measured Polarization (uC/cm2)	Capacitance (uF)	Normalized Capacitance (uF/cm2)	Dielectric Constant	Instantaneous Current (mA)
   1	0.0000e+00	-0.0055	-21.280772	0.000658	6.583897	1.115342	0.013171
   2	5.0000e-04	0.0050	-21.214918	0.000658	6.583897	1.115342	0.013171
   3	1.0000e-03	0.0146	-21.152912	0.000620	6.199124	1.050160	0.012401
   4	1.5000e-03	0.0275	-21.103735	0.000492	4.916547	0.832886	0.009835
   5	2.0000e-03	0.0369	-21.051565	0.000522	5.215815	0.883583	0.010434
   6	2.5000e-03	0.0459	-20.967750	0.000838	8.379506	1.419527	0.016763
   7	3.0000e-03	0.0537	-20.935251	0.000325	3.249196	0.550429	0.006500
   8	3.5000e-03	0.0663	-20.896764	0.000385	3.847732	0.651823	0.007697
   9	4.0000e-03	0.0773	-20.833048	0.000637	6.370134	1.079130	0.012743
  10	4.5000e-03	0.0864	-20.769332	0.000637	6.370134	1.079130	0.012743
  11	5.0000e-03	0.0971	-20.734694	0.000346	3.462959	0.586641	0.006928
  12	5.5000e-03	0.1055	-20.660715	0.000740	7.396196	1.252950	0.014796
  13	6.0000e-03	0.1167	-20.617097	0.000436	4.360763	0.738733	0.008724
  14	6.5000e-03	0.1265	-20.561934	0.000552	5.515083	0.934280	0.011033
  15	7.0000e-03	0.1353	-20.520026	0.000419	4.189753	0.709763	0.008381
  16	7.5000e-03	0.1469	-20.462725	0.000573	5.728846	0.970493	0.011460
  17	8.0000e-03	0.1559	-20.386180	0.000765	7.652712	1.296404	0.015309
  18	8.5000e-03	0.1646	-20.357101	0.000291	2.907175	0.492489	0.005816
  19	9.0000e-03	0.1748	-20.279273	0.000778	7.780969	1.318132	0.015566
  20	9.5000e-03	0.1850	-20.262168	0.000171	1.710103	0.289699	0.003421
  21	1.0000e-02	0.1969	-20.195031	0.000671	6.712155	1.137070	0.013427
  22	1.0500e-02	0.2045	-20.117631	0.000774	7.738217	1.310889	0.015480
  23	1.1000e-02	0.2134	-20.094967	0.000227	2.265887	0.383852	0.004533
  24	1.1500e-02	0.2242	-20.031251	0.000637	6.370134	1.079130	0.012743
  25	1.2000e-02	0.2355	-19.984212	0.000470	4.702784	0.796673	0.009408
  26	1.2500e-02	0.2468	-19.905957	0.000782	7.823722	1.325374	0.015651
  27	1.3000e-02	0.2567	-19.869181	0.000368	3.676722	0.622854	0.007355
  28	1.3500e-02	0.2655	-19.825135	0.000440	4.403516	0.745976	0.008809
  29	1.4000e-02	0.2747	-19.775103	0.000500	5.002052	0.847371	0.010006
  30	1.4500e-02	0.2872	-19.702835	0.000723	7.225186	1.223980	0.014454
  31	1.5000e-02	0.2959	-19.661783	0.000410	4.104248	0.695278	0.008210
  32	1.5500e-02	0.3051	-19.604481	0.000573	5.728846	0.970493	0.011460
  33	1.6000e-02	0.3172	-19.540765	0.000637	6.370134	1.079130	0.012743
  34	1.6500e-02	0.3263	-19.489022	0.000517	5.173062	0.876340	0.010349
  35	1.7000e-02	0.3391	-19.429582	0.000594	5.942608	1.006705	0.011888
  36	1.7500e-02	0.3466	-19.375274	0.000543	5.429578	0.919795	0.010862
  37	1.8000e-02	0.3549	-19.330801	0.000445	4.446268	0.753218	0.008895
  38	1.8500e-02	0.3667	-19.263236	0.000675	6.754907	1.144312	0.013513
  39	1.9000e-02	0.3775	-19.217052	0.000462	4.617279	0.782188	0.009237
  40	1.9500e-02	0.3852	-19.176428	0.000406	4.061495	0.688036	0.008125
  41	2.0000e-02	0.3983	-19.107153	0.000693	6.925918	1.173282	0.013855
  42	2.0500e-02	0.4068	-19.069094	0.000380	3.804980	0.644581	0.007612
  43	2.1000e-02	0.4168	-19.013503	0.000556	5.557835	0.941523	0.011118
  44	2.1500e-02	0.4264	-18.941662	0.000718	7.182433	1.216737	0.014368
  45	2.2000e-02	0.4371	-18.895050	0.000466	4.660031	0.789431	0.009322
  46	2.2500e-02	0.4449	-18.847156	0.000479	4.788289	0.811158	0.009579
  47	2.3000e-02	0.4564	-18.785151	0.000620	6.199124	1.050160	0.012401
  48	2.3500e-02	0.4669	-18.733408	0.000517	5.173062	0.876340	0.010349
  49	2.4000e-02	0.4774	-18.695777	0.000376	3.762227	0.637339	0.007526
  50	2.4500e-02	0.4865	-18.632916	0.000628	6.284629	1.064645	0.012572
  51	2.5000e-02	0.4957	-18.580318	0.000526	5.258567	0.890825	0.010520
  52	2.5500e-02	0.5064	-18.515319	0.000650	6.498392	1.100857	0.013000
  53	2.6000e-02	0.5184	-18.462721	0.000526	5.258567	0.890825	0.010520
  54	2.6500e-02	0.5246	-18.413544	0.000492	4.916547	0.832886	0.009835
  55	2.7000e-02	0.5378	-18.349401	0.000641	6.412887	1.086372	0.012829
  56	2.7500e-02	0.5463	-18.330157	0.000192	1.923866	0.325912	0.003849
  57	2.8000e-02	0.5550	-18.253612	0.000765	7.652712	1.296404	0.015309
  58	2.8500e-02	0.5661	-18.186903	0.000667	6.669402	1.129827	0.013342
  59	2.9000e-02	0.5766	-18.144140	0.000428	4.275258	0.724248	0.008553
  60	2.9500e-02	0.5869	-18.092825	0.000513	5.130309	0.869098	0.010263
  61	3.0000e-02	0.5936	-18.044931	0.000479	4.788289	0.811158	0.009579
  62	3.0500e-02	0.6049	-17.983353	0.000616	6.156371	1.042918	0.012316
  63	3.1000e-02	0.6170	-17.925196	0.000581	5.814351	0.984978	0.011631
  64	3.1500e-02	0.6260	-17.902104	0.000231	2.308639	0.391094	0.004618
  65	3.2000e-02	0.6378	-17.833684	0.000684	6.840413	1.158797	0.013684
  66	3.2500e-02	0.6473	-17.761416	0.000723	7.225186	1.223980	0.014454
  67	3.3000e-02	0.6551	-17.706680	0.000547	5.472330	0.927038	0.010947
  68	3.3500e-02	0.6666	-17.659213	0.000475	4.745536	0.803916	0.009493
  69	3.4000e-02	0.6781	-17.612175	0.000470	4.702784	0.796673	0.009408
  70	3.4500e-02	0.6850	-17.555728	0.000564	5.643340	0.956008	0.011289
  71	3.5000e-02	0.6981	-17.498854	0.000569	5.686093	0.963250	0.011375
  72	3.5500e-02	0.7057	-17.452670	0.000462	4.617279	0.782188	0.009237
  73	3.6000e-02	0.7146	-17.409908	0.000428	4.275258	0.724248	0.008553
  74	3.6500e-02	0.7259	-17.338067	0.000718	7.182433	1.216737	0.014368
  75	3.7000e-02	0.7365	-17.266653	0.000714	7.139681	1.209495	0.014283
  76	3.7500e-02	0.7478	-17.220897	0.000457	4.574526	0.774946	0.009151
  77	3.8000e-02	0.7568	-17.178135	0.000428	4.275258	0.724248	0.008553
  78	3.8500e-02	0.7690	-17.144780	0.000333	3.334701	0.564914	0.006671
  79	3.9000e-02	0.7779	-17.108860	0.000359	3.591217	0.608369	0.007184
  80	3.9500e-02	0.7864	-17.020341	0.000885	8.849784	1.499194	0.017704
  81	4.0000e-02	0.7940	-16.983993	0.000363	3.633969	0.615611	0.007270
  82	4.0500e-02	0.8059	-16.942941	0.000410	4.104248	0.695278	0.008210
  83	4.1000e-02	0.8140	-16.865113	0.000778	7.780969	1.318132	0.015566
  84	4.1500e-02	0.8263	-16.817647	0.000475	4.745536	0.803916	0.009493
  85	4.2000e-02	0.8367	-16.750937	0.000667	6.669402	1.129827	0.013342
  86	4.2500e-02	0.8469	-16.709030	0.000419	4.189753	0.709763	0.008381
  87	4.3000e-02	0.8546	-16.664557	0.000445	4.446268	0.753218	0.008895
  88	4.3500e-02	0.8661	-16.605972	0.000586	5.857103	0.992220	0.011717
  89	4.4000e-02	0.8756	-16.557651	0.000483	4.831041	0.818401	0.009664
  90	4.4500e-02	0.8856	-16.491796	0.000658	6.583897	1.115342	0.013171
  91	4.5000e-02	0.8958	-16.438343	0.000534	5.344072	0.905310	0.010691
  92	4.5500e-02	0.9076	-16.404133	0.000342	3.420206	0.579399	0.006842
  93	4.6000e-02	0.9187	-16.343410	0.000607	6.070866	1.028433	0.012145
  94	4.6500e-02	0.9269	-16.284826	0.000586	5.857103	0.992220	0.011717
  95	4.7000e-02	0.9375	-16.220682	0.000641	6.412887	1.086372	0.012829
  96	4.7500e-02	0.9489	-16.176209	0.000445	4.446268	0.753218	0.008895
  97	4.8000e-02	0.9559	-16.126177	0.000500	5.002052	0.847371	0.010006
  98	4.8500e-02	0.9666	-16.070158	0.000560	5.600588	0.948765	0.011204
  99	4.9000e-02	0.9748	-16.009435	0.000607	6.070866	1.028433	0.012145
 100	4.9500e-02	0.9864	-15.976508	0.000329	3.291949	0.557671	0.006585
 101	5.0000e-02	0.9947	-15.924338	0.000522	5.215815	0.883583	0.010434
 102	5.0500e-02	1.0055	-15.869174	0.000552	5.515083	0.934280	0.011033
 103	5.1000e-02	1.0160	-15.813155	0.000560	5.600588	0.948765	0.011204
 104	5.1500e-02	1.0275	-15.768254	0.000449	4.489021	0.760461	0.008980
 105	5.2000e-02	1.0379	-15.711380	0.000569	5.686093	0.963250	0.011375
 106	5.2500e-02	1.0438	-15.636118	0.000752	7.524454	1.274677	0.015052
 107	5.3000e-02	1.0565	-15.595494	0.000406	4.061495	0.688036	0.008125
 108	5.3500e-02	1.0663	-15.560428	0.000351	3.505711	0.593884	0.007013
 109	5.4000e-02	1.0760	-15.486877	0.000735	7.353444	1.245707	0.014710
 110	5.4500e-02	1.0869	-15.452239	0.000346	3.462959	0.586641	0.006928
 111	5.5000e-02	1.0925	-15.395793	0.000564	5.643340	0.956008	0.011289
 112	5.5500e-02	1.1070	-15.323524	0.000723	7.225186	1.223980	0.014454
 113	5.6000e-02	1.1149	-15.296156	0.000274	2.736165	0.463519	0.005474
 114	5.6500e-02	1.1246	-15.235006	0.000611	6.113619	1.035675	0.012230
 115	5.7000e-02	1.1368	-15.170434	0.000646	6.455639	1.093615	0.012914
 116	5.7500e-02	1.1428	-15.131093	0.000393	3.933237	0.666308	0.007868
 117	5.8000e-02	1.1551	-15.061390	0.000697	6.968670	1.180525	0.013941
 118	5.8500e-02	1.1665	-15.020765	0.000406	4.061495	0.688036	0.008125
 119	5.9000e-02	1.1761	-14.971161	0.000496	4.959299	0.840128	0.009921
 120	5.9500e-02	1.1848	-14.911293	0.000599	5.985361	1.013948	0.011974
 121	6.0000e-02	1.1946	-14.862544	0.000487	4.873794	0.825643	0.009750
 122	6.0500e-02	1.2073	-14.812084	0.000504	5.044804	0.854613	0.010092
 123	6.1000e-02	1.2161	-14.765045	0.000470	4.702784	0.796673	0.009408
 124	6.1500e-02	1.2269	-14.714586	0.000504	5.044804	0.854613	0.010092
 125	6.2000e-02	1.2347	-14.669685	0.000449	4.489021	0.760461	0.008980
 126	6.2500e-02	1.2464	-14.594851	0.000748	7.481701	1.267435	0.014967
 127	6.3000e-02	1.2559	-14.564917	0.000299	2.992681	0.506974	0.005987
 128	6.3500e-02	1.2659	-14.501201	0.000637	6.370134	1.079130	0.012743
 129	6.4000e-02	1.2752	-14.452451	0.000487	4.873794	0.825643	0.009750
 130	6.4500e-02	1.2842	-14.391729	0.000607	6.070866	1.028433	0.012145
 131	6.5000e-02	1.2955	-14.346828	0.000449	4.489021	0.760461	0.008980
 132	6.5500e-02	1.3055	-14.287388	0.000594	5.942608	1.006705	0.011888
 133	6.6000e-02	1.3146	-14.239066	0.000483	4.831041	0.818401	0.009664
 134	6.6500e-02	1.3251	-14.180482	0.000586	5.857103	0.992220	0.011717
 135	6.7000e-02	1.3342	-14.150548	0.000299	2.992681	0.506974	0.005987
 136	6.7500e-02	1.3453	-14.085121	0.000654	6.541145	1.108100	0.013085
 137	6.8000e-02	1.3531	-14.031241	0.000539	5.386825	0.912553	0.010776
 138	6.8500e-02	1.3649	-13.983774	0.000475	4.745536	0.803916	0.009493
 139	6.9000e-02	1.3750	-13.949136	0.000346	3.462959	0.586641	0.006928
 140	6.9500e-02	1.3844	-13.888841	0.000603	6.028114	1.021190	0.012059
 141	7.0000e-02	1.3951	-13.822132	0.000667	6.669402	1.129827	0.013342
 142	7.0500e-02	1.4078	-13.804599	0.000175	1.752856	0.296942	0.003507
 143	7.1000e-02	1.4160	-13.721212	0.000834	8.336753	1.412284	0.016677
 144	7.1500e-02	1.4255	-13.669042	0.000522	5.215815	0.883583	0.010434
 145	7.2000e-02	1.4344	-13.625852	0.000432	4.318010	0.731491	0.008638
 146	7.2500e-02	1.4447	-13.554011	0.000718	7.182433	1.216737	0.014368
 147	7.3000e-02	1.4577	-13.517235	0.000368	3.676722	0.622854	0.007355
 148	7.3500e-02	1.4655	-13.466775	0.000504	5.044804	0.854613	0.010092
 149	7.4000e-02	1.4792	-13.409046	0.000577	5.771598	0.977735	0.011546
 150	7.4500e-02	1.4847	-13.355593	0.000534	5.344072	0.905310	0.010691
 151	7.5000e-02	1.4945	-13.315823	0.000398	3.975990	0.673551	0.007954
 152	7.5500e-02	1.5048	-13.245693	0.000701	7.011423	1.187767	0.014026
 153	7.6000e-02	1.5159	-13.204641	0.000410	4.104248	0.695278	0.008210
 154	7.6500e-02	1.5270	-13.160595	0.000440	4.403516	0.745976	0.008809
 155	7.7000e-02	1.5350	-13.110136	0.000504	5.044804	0.854613	0.010092
 156	7.7500e-02	1.5423	-13.052406	0.000577	5.771598	0.977735	0.011546
 157	7.8000e-02	1.5559	-12.993394	0.000590	5.899856	0.999463	0.011802
 158	7.8500e-02	1.5637	-12.953625	0.000398	3.975990	0.673551	0.007954
 159	7.9000e-02	1.5759	-12.897606	0.000560	5.600588	0.948765	0.011204
 160	7.9500e-02	1.5859	-12.837311	0.000603	6.028114	1.021190	0.012059
 161	8.0000e-02	1.5964	-12.790700	0.000466	4.660031	0.789431	0.009322
 162	8.0500e-02	1.6069	-12.746227	0.000445	4.446268	0.753218	0.008895
 163	8.1000e-02	1.6159	-12.687642	0.000586	5.857103	0.992220	0.011717
 164	8.1500e-02	1.6272	-12.638465	0.000492	4.916547	0.832886	0.009835
 165	8.2000e-02	1.6359	-12.586295	0.000522	5.215815	0.883583	0.010434
 166	8.2500e-02	1.6461	-12.533269	0.000530	5.301320	0.898068	0.010605
 167	8.3000e-02	1.6537	-12.490934	0.000423	4.232505	0.717006	0.008467
 168	8.3500e-02	1.6676	-12.425508	0.000654	6.541145	1.108100	0.013085
 169	8.4000e-02	1.6769	-12.407975	0.000175	1.752856	0.296942	0.003507
 170	8.4500e-02	1.6873	-12.338700	0.000693	6.925918	1.173282	0.013855
 171	8.5000e-02	1.6986	-12.304062	0.000346	3.462959	0.586641	0.006928
 172	8.5500e-02	1.7036	-12.227517	0.000765	7.652712	1.296404	0.015309
 173	8.6000e-02	1.7146	-12.161663	0.000658	6.583897	1.115342	0.013171
 174	8.6500e-02	1.7261	-12.111203	0.000504	5.044804	0.854613	0.010092
 175	8.7000e-02	1.7397	-12.078276	0.000329	3.291949	0.557671	0.006585
 176	8.7500e-02	1.7465	-12.028671	0.000496	4.959299	0.840128	0.009921
 177	8.8000e-02	1.7543	-11.986336	0.000423	4.232505	0.717006	0.008467
 178	8.8500e-02	1.7648	-11.925614	0.000607	6.070866	1.028433	0.012145
 179	8.9000e-02	1.7760	-11.887127	0.000385	3.847732	0.651823	0.007697
 180	8.9500e-02	1.7862	-11.819990	0.000671	6.712155	1.137070	0.013427
 181	9.0000e-02	1.7972	-11.792622	0.000274	2.736165	0.463519	0.005474
 182	9.0500e-02	1.8063	-11.713512	0.000791	7.909227	1.339859	0.015822
 183	9.1000e-02	1.8170	-11.696407	0.000171	1.710103	0.289699	0.003421
 184	9.1500e-02	1.8253	-11.627559	0.000688	6.883165	1.166040	0.013770
 185	9.2000e-02	1.8365	-11.575389	0.000522	5.215815	0.883583	0.010434
 186	9.2500e-02	1.8457	-11.532626	0.000428	4.275258	0.724248	0.008553
 187	9.3000e-02	1.8559	-11.470193	0.000624	6.241877	1.057403	0.012487
 188	9.3500e-02	1.8665	-11.414174	0.000560	5.600588	0.948765	0.011204
 189	9.4000e-02	1.8774	-11.373977	0.000402	4.018742	0.680793	0.008039
 190	9.4500e-02	1.8871	-11.333353	0.000406	4.061495	0.688036	0.008125
 191	9.5000e-02	1.8962	-11.262367	0.000710	7.096928	1.202252	0.014197
 192	9.5500e-02	1.9049	-11.218321	0.000440	4.403516	0.745976	0.008809
 193	9.6000e-02	1.9144	-11.171283	0.000470	4.702784	0.796673	0.009408
 194	9.6500e-02	1.9247	-11.113126	0.000581	5.814351	0.984978	0.011631
 195	9.7000e-02	1.9349	-11.077205	0.000359	3.591217	0.608369	0.007184
 196	9.7500e-02	1.9466	-11.021614	0.000556	5.557835	0.941523	0.011118
 197	9.8000e-02	1.9542	-10.972865	0.000487	4.873794	0.825643	0.009750
 198	9.8500e-02	1.9654	-10.924543	0.000483	4.831041	0.818401	0.009664
 199	9.9000e-02	1.9763	-10.868096	0.000564	5.643340	0.956008	0.011289
 200	9.9500e-02	1.9858	-10.819775	0.000483	4.831041	0.818401	0.009664
 201	1.0000e-01	1.9979	-10.775729	0.000440	4.403516	0.745976	0.008809
 202	1.0050e-01	2.0073	-10.700895	0.000748	7.481701	1.267435	0.014967
 203	1.0100e-01	2.0190	-10.653856	0.000470	4.702784	0.796673	0.009408
 204	1.0150e-01	2.0267	-10.607245	0.000466	4.660031	0.789431	0.009322
 205	1.0200e-01	2.0334	-10.559351	0.000479	4.788289	0.811158	0.009579
 206	1.0250e-01	2.0465	-10.517871	0.000415	4.147000	0.702521	0.008296
 207	1.0300e-01	2.0586	-10.456293	0.000616	6.156371	1.042918	0.012316
 208	1.0350e-01	2.0654	-10.419945	0.000363	3.633969	0.615611	0.007270
 209	1.0400e-01	2.0763	-10.375044	0.000449	4.489021	0.760461	0.008980
 210	1.0450e-01	2.0872	-10.305769	0.000693	6.925918	1.173282	0.013855
 211	1.0500e-01	2.0950	-10.253599	0.000522	5.215815	0.883583	0.010434
 212	1.0550e-01	2.1051	-10.200146	0.000534	5.344072	0.905310	0.010691
 213	1.0600e-01	2.1165	-10.160804	0.000393	3.933237	0.666308	0.007868
 214	1.0650e-01	2.1258	-10.119324	0.000415	4.147000	0.702521	0.008296
 215	1.0700e-01	2.1405	-10.071430	0.000479	4.788289	0.811158	0.009579
 216	1.0750e-01	2.1487	-10.018833	0.000526	5.258567	0.890825	0.010520
 217	1.0800e-01	2.1548	-9.977781	0.000410	4.104248	0.695278	0.008210
 218	1.0850e-01	2.1652	-9.925183	0.000526	5.258567	0.890825	0.010520
 219	1.0900e-01	2.1764	-9.865315	0.000599	5.985361	1.013948	0.011974
 220	1.0950e-01	2.1875	-9.825118	0.000402	4.018742	0.680793	0.008039
 221	1.1000e-01	2.2006	-9.778935	0.000462	4.617279	0.782188	0.009237
 222	1.1050e-01	2.2086	-9.710515	0.000684	6.840413	1.158797	0.013684
 223	1.1100e-01	2.2156	-9.688278	0.000222	2.223134	0.376609	0.004447
 224	1.1150e-01	2.2247	-9.630549	0.000577	5.771598	0.977735	0.011546
 225	1.1200e-01	2.2343	-9.575385	0.000552	5.515083	0.934280	0.011033
 226	1.1250e-01	2.2495	-9.513807	0.000616	6.156371	1.042918	0.012316
 227	1.1300e-01	2.2560	-9.474466	0.000393	3.933237	0.666308	0.007868
 228	1.1350e-01	2.2668	-9.432558	0.000419	4.189753	0.709763	0.008381
 229	1.1400e-01	2.2771	-9.360290	0.000723	7.225186	1.223980	0.014454
 230	1.1450e-01	2.2867	-9.326507	0.000338	3.377454	0.572156	0.006756
 231	1.1500e-01	2.2960	-9.275192	0.000513	5.130309	0.869098	0.010263
 232	1.1550e-01	2.3047	-9.238844	0.000363	3.633969	0.615611	0.007270
 233	1.1600e-01	2.3151	-9.182825	0.000560	5.600588	0.948765	0.011204
 234	1.1650e-01	2.3267	-9.116543	0.000663	6.626650	1.122585	0.013256
 235	1.1700e-01	2.3367	-9.097300	0.000192	1.923866	0.325912	0.003849
 236	1.1750e-01	2.3456	-9.030163	0.000671	6.712155	1.137070	0.013427
 237	1.1800e-01	2.3584	-8.960460	0.000697	6.968670	1.180525	0.013941
 238	1.1850e-01	2.3657	-8.920691	0.000398	3.975990	0.673551	0.007954
 239	1.1900e-01	2.3777	-8.885198	0.000355	3.548464	0.601126	0.007099
 240	1.1950e-01	2.3859	-8.824903	0.000603	6.028114	1.021190	0.012059
 241	1.2000e-01	2.3949	-8.780430	0.000445	4.446268	0.753218	0.008895
 242	1.2050e-01	2.4092	-8.730825	0.000496	4.959299	0.840128	0.009921
 243	1.2100e-01	2.4164	-8.684214	0.000466	4.660031	0.789431	0.009322
 244	1.2150e-01	2.4265	-8.641879	0.000423	4.232505	0.717006	0.008467
 245	1.2200e-01	2.4374	-8.602965	0.000389	3.890485	0.659066	0.007783
 246	1.2250e-01	2.4478	-8.548657	0.000543	5.429578	0.919795	0.010862
 247	1.2300e-01	2.4570	-8.513164	0.000355	3.548464	0.601126	0.007099
 248	1.2350e-01	2.4652	-8.454152	0.000590	5.899856	0.999463	0.011802
 249	1.2400e-01	2.4790	-8.392146	0.000620	6.199124	1.050160	0.012401
 250	1.2450e-01	2.4872	-8.339548	0.000526	5.258567	0.890825	0.010520
 251	1.2500e-01	2.5005	-8.312608	0.000269	2.693412	0.456276	0.005388
 252	1.2550e-01	2.5064	-8.260010	0.000526	5.258567	0.890825	0.010520
 253	1.2600e-01	2.5169	-8.196721	0.000633	6.327382	1.071887	0.012658
 254	1.2650e-01	2.5288	-8.137281	0.000594	5.942608	1.006705	0.011888
 255	1.2700e-01	2.5391	-8.125308	0.000120	1.197072	0.202790	0.002395
 256	1.2750e-01	2.5476	-8.065868	0.000594	5.942608	1.006705	0.011888
 257	1.2800e-01	2.5574	-8.029520	0.000363	3.633969	0.615611	0.007270
 258	1.2850e-01	2.5666	-7.964948	0.000646	6.455639	1.093615	0.012914
