»»»»»»»»»»»»»»»»»»»»»»»»»»»»»»»»»»»» Hysteresis ««««««««««««««««««««««««««««««««««««
»»»  Executed Version:	5.48.1
»»»  Vision Version:	5.48.4 (R)
»»»  Vision Compiled:	9/18/24
»»»  Driver Version:	5.47.0
»»»  Windows Version:	Windows 8 or 8.1
»»»  Processor Information:	x86 (AMD or Intel) - 32 Processors
»»»  Tester Name:	PMF21124-494 (100V)
»»»  Tester S/N:	PMF21124-494
»»»  Internal Amp Type:	100V RevK 270k
»»»  Internal Amp S/N:	iAB2-596/K     
»»»  Execution Count:	1
»»»»»»»»»»»»»»»»»»»»»»»»»»»»»»»»»»»»»»»»»»««««««««««««««««««««««««««««««««««««««««««

Stored:	6/13/2025 - 10:24:19
Configured:	06/13/25 10:12:58 AM
Executed:	06/13/25 10:23:47 AM

»»»»»»»»»»»»»»»»»»»»»»»»»»»»»»»»»»» Sample Info ««««««««««««««««««««««««««««««««««««
Sample Name:	
Lot Name:	
Wafer Name:	
Die Row/Column:	0/0
Capacitor Number:	0
Sample Area (cm2):	1.00e-04
Sample Thickness (microns):	3.00e-01

Amplifier:	Internal

»»»»»»»»»»»»»»»»»»»»»»»»»»»»»»»»»»» Tester Info «««««««««««««««««««««««««««««««««««
Tester Name:	PMF21124-494 (100V)
Tester Serial Number:	PMF21124-494
Return Signal Amp. Level:	0.19 [Index: 3]

»»»»»»»»»»»»»»»»»»»»»»»»»»»»»»»» Hysteresis Info ««««««««««««««««««««««««««««««««««
Task Name:	Hyst-1704
Volts:	20.00
Field:	666.67 (kV/cm)
DCBias:	0.00
DCField:	0.00 (kV/cm)
Hysteresis Period (ms):	2.00e+02
Preset:	Enabled
Preset Delay (ms):	1.00e+03
Profile:	Standard Bipolar

»»»»»»»»»»»»»»»»»»»»»»»»»»»»»»»»»»»»»» Data «««««««««««««««««««««««««««««««««««««««
Points:	2009

Valid Data

Point	Time (ms)	Drive Voltage	Measured Polarization (uC/cm2)	Capacitance (uF)	Normalized Capacitance (uF/cm2)	Dielectric Constant	Instantaneous Current (mA)
   1	0.0000e+00	-0.0096	-0.062576	0.000233	2.331063	0.789785	0.000093
   2	9.9500e-02	0.0225	0.030279	0.000233	2.331063	0.789785	0.000093
   3	1.9900e-01	0.0545	0.183690	0.000385	3.851321	1.304863	0.000154
   4	2.9850e-01	0.1043	0.304804	0.000304	3.040516	1.030155	0.000122
   5	3.9800e-01	0.1396	0.478401	0.000436	4.358074	1.476555	0.000174
   6	4.9750e-01	0.1765	0.599515	0.000304	3.040516	1.030155	0.000122
   7	5.9700e-01	0.2150	0.761000	0.000405	4.054022	1.373540	0.000162
   8	6.9650e-01	0.2567	0.922486	0.000405	4.054022	1.373540	0.000162
   9	7.9600e-01	0.2920	1.075897	0.000385	3.851321	1.304863	0.000154
  10	8.9550e-01	0.3401	1.229308	0.000385	3.851321	1.304863	0.000154
  11	9.9500e-01	0.3770	1.366570	0.000345	3.445919	1.167509	0.000138
  12	1.0945e+00	0.4235	1.499796	0.000334	3.344568	1.133170	0.000134
  13	1.1940e+00	0.4556	1.661281	0.000405	4.054022	1.373540	0.000162
  14	1.2935e+00	0.4957	1.810655	0.000375	3.749970	1.270524	0.000150
  15	1.3930e+00	0.5342	1.972141	0.000405	4.054022	1.373540	0.000162
  16	1.4925e+00	0.5743	2.101329	0.000324	3.243218	1.098832	0.000130
  17	1.5920e+00	0.6112	2.311260	0.000527	5.270229	1.785602	0.000211
  18	1.6915e+00	0.6706	2.416226	0.000264	2.635114	0.892801	0.000105
  19	1.7910e+00	0.6946	2.545414	0.000324	3.243218	1.098832	0.000130
  20	1.8905e+00	0.7267	2.763419	0.000547	5.472930	1.854279	0.000219
  21	1.9900e+00	0.7716	2.872422	0.000274	2.736465	0.927139	0.000110
  22	2.0895e+00	0.8150	3.041982	0.000426	4.256723	1.442217	0.000170
  23	2.1890e+00	0.8583	3.159059	0.000294	2.939166	0.995816	0.000118
  24	2.2885e+00	0.8968	3.352841	0.000486	4.864826	1.648248	0.000195
  25	2.3880e+00	0.9305	3.526438	0.000436	4.358074	1.476555	0.000174
  26	2.4875e+00	0.9850	3.623329	0.000243	2.432413	0.824124	0.000097
  27	2.5870e+00	1.0139	3.792889	0.000426	4.256723	1.442217	0.000170
  28	2.6865e+00	1.0508	3.938226	0.000365	3.648620	1.236186	0.000146
  29	2.7860e+00	1.1021	4.107786	0.000426	4.256723	1.442217	0.000170
  30	2.8855e+00	1.1342	4.245048	0.000345	3.445919	1.167509	0.000138
  31	2.9850e+00	1.1791	4.422682	0.000446	4.459424	1.510894	0.000179
  32	3.0845e+00	1.2128	4.604353	0.000456	4.560775	1.545232	0.000183
  33	3.1840e+00	1.2641	4.753727	0.000375	3.749970	1.270524	0.000150
  34	3.2835e+00	1.2978	4.862730	0.000274	2.736465	0.927139	0.000110
  35	3.3830e+00	1.3347	5.028253	0.000416	4.155373	1.407878	0.000166
  36	3.4825e+00	1.3764	5.217998	0.000476	4.763476	1.613909	0.000191
  37	3.5820e+00	1.4069	5.343149	0.000314	3.141867	1.064493	0.000126
  38	3.6815e+00	1.4566	5.528857	0.000466	4.662125	1.579571	0.000187
  39	3.7810e+00	1.4967	5.641897	0.000284	2.837815	0.961478	0.000114
  40	3.8805e+00	1.5256	5.807420	0.000416	4.155373	1.407878	0.000166
  41	3.9800e+00	1.5673	5.968905	0.000405	4.054022	1.373540	0.000162
  42	4.0795e+00	1.6106	6.122316	0.000385	3.851321	1.304863	0.000154
  43	4.1790e+00	1.6604	6.295913	0.000436	4.358074	1.476555	0.000174
  44	4.2785e+00	1.6973	6.473547	0.000446	4.459424	1.510894	0.000179
  45	4.3780e+00	1.7358	6.586587	0.000284	2.837815	0.961478	0.000114
  46	4.4775e+00	1.7631	6.752110	0.000416	4.155373	1.407878	0.000166
  47	4.5770e+00	1.8096	6.945892	0.000486	4.864826	1.648248	0.000195
  48	4.6765e+00	1.8449	7.103340	0.000395	3.952671	1.339201	0.000158
  49	4.7760e+00	1.8898	7.240603	0.000345	3.445919	1.167509	0.000138
  50	4.8755e+00	1.9267	7.406126	0.000416	4.155373	1.407878	0.000166
  51	4.9750e+00	1.9748	7.563574	0.000395	3.952671	1.339201	0.000158
  52	5.0745e+00	2.0069	7.648354	0.000213	2.128362	0.721108	0.000085
  53	5.1740e+00	2.0502	7.886545	0.000598	5.979682	2.025971	0.000239
  54	5.2735e+00	2.0887	7.991510	0.000264	2.635114	0.892801	0.000105
  55	5.3730e+00	2.1304	8.140884	0.000375	3.749970	1.270524	0.000150
  56	5.4725e+00	2.1689	8.314481	0.000436	4.358074	1.476555	0.000174
  57	5.5720e+00	2.2170	8.488078	0.000436	4.358074	1.476555	0.000174
  58	5.6715e+00	2.2539	8.645526	0.000395	3.952671	1.339201	0.000158
  59	5.7710e+00	2.2973	8.819123	0.000436	4.358074	1.476555	0.000174
  60	5.8705e+00	2.3293	8.944274	0.000314	3.141867	1.064493	0.000126
  61	5.9700e+00	2.3614	9.113834	0.000426	4.256723	1.442217	0.000170
  62	6.0695e+00	2.4144	9.222837	0.000274	2.736465	0.927139	0.000110
  63	6.1690e+00	2.4561	9.444879	0.000557	5.574280	1.888617	0.000223
  64	6.2685e+00	2.4866	9.561956	0.000294	2.939166	0.995816	0.000118
  65	6.3680e+00	2.5235	9.731516	0.000426	4.256723	1.442217	0.000170
  66	6.4675e+00	2.5716	9.872815	0.000355	3.547269	1.201847	0.000142
  67	6.5670e+00	2.6181	10.046412	0.000436	4.358074	1.476555	0.000174
  68	6.6665e+00	2.6486	10.207898	0.000405	4.054022	1.373540	0.000162
  69	6.7660e+00	2.6839	10.333049	0.000314	3.141867	1.064493	0.000126
  70	6.8655e+00	2.7336	10.482423	0.000375	3.749970	1.270524	0.000150
  71	6.9650e+00	2.7641	10.672168	0.000476	4.763476	1.613909	0.000191
  72	7.0645e+00	2.8042	10.809431	0.000345	3.445919	1.167509	0.000138
  73	7.1640e+00	2.8475	10.978991	0.000426	4.256723	1.442217	0.000170
  74	7.2635e+00	2.8860	11.132402	0.000385	3.851321	1.304863	0.000154
  75	7.3630e+00	2.9213	11.253516	0.000304	3.040516	1.030155	0.000122
  76	7.4625e+00	2.9646	11.455373	0.000507	5.067527	1.716925	0.000203
  77	7.5620e+00	3.0047	11.564375	0.000274	2.736465	0.927139	0.000110
  78	7.6615e+00	3.0513	11.733935	0.000426	4.256723	1.442217	0.000170
  79	7.7610e+00	3.0865	11.863123	0.000324	3.243218	1.098832	0.000130
  80	7.8605e+00	3.1315	12.036720	0.000436	4.358074	1.476555	0.000174
  81	7.9600e+00	3.1571	12.194168	0.000395	3.952671	1.339201	0.000158
  82	8.0595e+00	3.2004	12.351617	0.000395	3.952671	1.339201	0.000158
  83	8.1590e+00	3.2534	12.533288	0.000456	4.560775	1.545232	0.000183
  84	8.2585e+00	3.2807	12.646328	0.000284	2.837815	0.961478	0.000114
  85	8.3580e+00	3.3256	12.807813	0.000405	4.054022	1.373540	0.000162
  86	8.4575e+00	3.3673	12.973336	0.000416	4.155373	1.407878	0.000166
  87	8.5570e+00	3.4074	13.114635	0.000355	3.547269	1.201847	0.000142
  88	8.6565e+00	3.4459	13.247861	0.000334	3.344568	1.133170	0.000134
  89	8.7560e+00	3.4892	13.449718	0.000507	5.067527	1.716925	0.000203
  90	8.8555e+00	3.5261	13.546609	0.000243	2.432413	0.824124	0.000097
  91	8.9550e+00	3.5662	13.724243	0.000446	4.459424	1.510894	0.000179
  92	9.0545e+00	3.5983	13.873617	0.000375	3.749970	1.270524	0.000150
  93	9.1540e+00	3.6496	14.043177	0.000426	4.256723	1.442217	0.000170
  94	9.2535e+00	3.6817	14.156216	0.000284	2.837815	0.961478	0.000114
  95	9.3530e+00	3.7218	14.305590	0.000375	3.749970	1.270524	0.000150
  96	9.4525e+00	3.7699	14.467076	0.000405	4.054022	1.373540	0.000162
  97	9.5520e+00	3.7956	14.640673	0.000436	4.358074	1.476555	0.000174
  98	9.6515e+00	3.8421	14.781973	0.000355	3.547269	1.201847	0.000142
  99	9.7510e+00	3.8822	14.947495	0.000416	4.155373	1.407878	0.000166
 100	9.8505e+00	3.9191	15.088795	0.000355	3.547269	1.201847	0.000142
 101	9.9500e+00	3.9689	15.234132	0.000365	3.648620	1.236186	0.000146
 102	1.0050e+01	3.9994	15.383506	0.000375	3.749970	1.270524	0.000150
 103	1.0149e+01	4.0346	15.565177	0.000456	4.560775	1.545232	0.000183
 104	1.0248e+01	4.0876	15.674180	0.000274	2.736465	0.927139	0.000110
 105	1.0348e+01	4.1325	15.851813	0.000446	4.459424	1.510894	0.000179
 106	1.0447e+01	4.1630	16.041559	0.000476	4.763476	1.613909	0.000191
 107	1.0547e+01	4.2063	16.166710	0.000314	3.141867	1.064493	0.000126
 108	1.0646e+01	4.2432	16.320121	0.000385	3.851321	1.304863	0.000154
 109	1.0746e+01	4.2817	16.461421	0.000355	3.547269	1.201847	0.000142
 110	1.0845e+01	4.3266	16.643092	0.000456	4.560775	1.545232	0.000183
 111	1.0945e+01	4.3651	16.800540	0.000395	3.952671	1.339201	0.000158
 112	1.1044e+01	4.4068	16.949914	0.000375	3.749970	1.270524	0.000150
 113	1.1144e+01	4.4437	17.083140	0.000334	3.344568	1.133170	0.000134
 114	1.1243e+01	4.4886	17.216365	0.000334	3.344568	1.133170	0.000134
 115	1.1343e+01	4.5255	17.398036	0.000456	4.560775	1.545232	0.000183
 116	1.1443e+01	4.5640	17.490891	0.000233	2.331063	0.789785	0.000093
 117	1.1542e+01	4.5929	17.660450	0.000426	4.256723	1.442217	0.000170
 118	1.1642e+01	4.6362	17.825973	0.000416	4.155373	1.407878	0.000166
 119	1.1741e+01	4.6763	17.987458	0.000405	4.054022	1.373540	0.000162
 120	1.1841e+01	4.7180	18.169129	0.000456	4.560775	1.545232	0.000183
 121	1.1940e+01	4.7549	18.261984	0.000233	2.331063	0.789785	0.000093
 122	1.2040e+01	4.7918	18.455766	0.000486	4.864826	1.648248	0.000195
 123	1.2139e+01	4.8512	18.597066	0.000355	3.547269	1.201847	0.000142
 124	1.2239e+01	4.8865	18.754514	0.000395	3.952671	1.339201	0.000158
 125	1.2338e+01	4.9218	18.903888	0.000375	3.749970	1.270524	0.000150
 126	1.2438e+01	4.9555	19.004816	0.000253	2.533764	0.858462	0.000101
 127	1.2537e+01	4.9956	19.174376	0.000426	4.256723	1.442217	0.000170
 128	1.2636e+01	5.0212	19.327787	0.000385	3.851321	1.304863	0.000154
 129	1.2736e+01	5.0806	19.456976	0.000324	3.243218	1.098832	0.000130
 130	1.2835e+01	5.1303	19.626535	0.000426	4.256723	1.442217	0.000170
 131	1.2935e+01	5.1656	19.783984	0.000395	3.952671	1.339201	0.000158
 132	1.3034e+01	5.1977	19.937395	0.000385	3.851321	1.304863	0.000154
 133	1.3134e+01	5.2362	20.106955	0.000426	4.256723	1.442217	0.000170
 134	1.3233e+01	5.2731	20.268440	0.000405	4.054022	1.373540	0.000162
 135	1.3333e+01	5.3164	20.417814	0.000375	3.749970	1.270524	0.000150
 136	1.3432e+01	5.3581	20.551039	0.000334	3.344568	1.133170	0.000134
 137	1.3532e+01	5.4031	20.672154	0.000304	3.040516	1.030155	0.000122
 138	1.3632e+01	5.4448	20.861899	0.000476	4.763476	1.613909	0.000191
 139	1.3731e+01	5.4769	21.023384	0.000405	4.054022	1.373540	0.000162
 140	1.3831e+01	5.5234	21.136424	0.000284	2.837815	0.961478	0.000114
 141	1.3930e+01	5.5587	21.289835	0.000385	3.851321	1.304863	0.000154
 142	1.4030e+01	5.6036	21.427098	0.000345	3.445919	1.167509	0.000138
 143	1.4129e+01	5.6357	21.564361	0.000345	3.445919	1.167509	0.000138
 144	1.4229e+01	5.6854	21.697586	0.000334	3.344568	1.133170	0.000134
 145	1.4328e+01	5.7175	21.855034	0.000395	3.952671	1.339201	0.000158
 146	1.4428e+01	5.7592	21.984223	0.000324	3.243218	1.098832	0.000130
 147	1.4527e+01	5.7929	22.161857	0.000446	4.459424	1.510894	0.000179
 148	1.4627e+01	5.8330	22.331416	0.000426	4.256723	1.442217	0.000170
 149	1.4726e+01	5.8795	22.456568	0.000314	3.141867	1.064493	0.000126
 150	1.4825e+01	5.9260	22.658424	0.000507	5.067527	1.716925	0.000203
 151	1.4925e+01	5.9549	22.751278	0.000233	2.331063	0.789785	0.000093
 152	1.5024e+01	5.9950	22.920838	0.000426	4.256723	1.442217	0.000170
 153	1.5124e+01	6.0415	23.106546	0.000466	4.662125	1.579571	0.000187
 154	1.5223e+01	6.0816	23.243809	0.000345	3.445919	1.167509	0.000138
 155	1.5323e+01	6.1153	23.360886	0.000294	2.939166	0.995816	0.000118
 156	1.5422e+01	6.1538	23.490074	0.000324	3.243218	1.098832	0.000130
 157	1.5522e+01	6.1891	23.651560	0.000405	4.054022	1.373540	0.000162
 158	1.5621e+01	6.2389	23.809008	0.000395	3.952671	1.339201	0.000158
 159	1.5721e+01	6.2774	23.942233	0.000334	3.344568	1.133170	0.000134
 160	1.5820e+01	6.3111	24.095645	0.000385	3.851321	1.304863	0.000154
 161	1.5920e+01	6.3560	24.253093	0.000395	3.952671	1.339201	0.000158
 162	1.6020e+01	6.3977	24.366133	0.000284	2.837815	0.961478	0.000114
 163	1.6119e+01	6.4330	24.551841	0.000466	4.662125	1.579571	0.000187
 164	1.6218e+01	6.4699	24.705252	0.000385	3.851321	1.304863	0.000154
 165	1.6318e+01	6.5180	24.842515	0.000345	3.445919	1.167509	0.000138
 166	1.6418e+01	6.5533	25.020149	0.000446	4.459424	1.510894	0.000179
 167	1.6517e+01	6.5870	25.145300	0.000314	3.141867	1.064493	0.000126
 168	1.6616e+01	6.6335	25.306785	0.000405	4.054022	1.373540	0.000162
 169	1.6716e+01	6.6688	25.460197	0.000385	3.851321	1.304863	0.000154
 170	1.6816e+01	6.7137	25.569199	0.000274	2.736465	0.927139	0.000110
 171	1.6915e+01	6.7554	25.750870	0.000456	4.560775	1.545232	0.000183
 172	1.7015e+01	6.7875	25.855836	0.000264	2.635114	0.892801	0.000105
 173	1.7114e+01	6.8324	26.017321	0.000405	4.054022	1.373540	0.000162
 174	1.7213e+01	6.8725	26.211104	0.000486	4.864826	1.648248	0.000195
 175	1.7313e+01	6.9078	26.332218	0.000304	3.040516	1.030155	0.000122
 176	1.7413e+01	6.9576	26.469480	0.000345	3.445919	1.167509	0.000138
 177	1.7512e+01	7.0009	26.618854	0.000375	3.749970	1.270524	0.000150
 178	1.7611e+01	7.0233	26.752080	0.000334	3.344568	1.133170	0.000134
 179	1.7711e+01	7.0699	26.941825	0.000476	4.763476	1.613909	0.000191
 180	1.7811e+01	7.1132	27.083125	0.000355	3.547269	1.201847	0.000142
 181	1.7910e+01	7.1436	27.200202	0.000294	2.939166	0.995816	0.000118
 182	1.8009e+01	7.1934	27.373799	0.000436	4.358074	1.476555	0.000174
 183	1.8109e+01	7.2351	27.462616	0.000223	2.229712	0.755447	0.000089
 184	1.8209e+01	7.2688	27.656398	0.000486	4.864826	1.648248	0.000195
 185	1.8308e+01	7.3105	27.793661	0.000345	3.445919	1.167509	0.000138
 186	1.8407e+01	7.3538	27.971295	0.000446	4.459424	1.510894	0.000179
 187	1.8507e+01	7.3891	28.068186	0.000243	2.432413	0.824124	0.000097
 188	1.8607e+01	7.4324	28.221597	0.000385	3.851321	1.304863	0.000154
 189	1.8706e+01	7.4725	28.362897	0.000355	3.547269	1.201847	0.000142
 190	1.8805e+01	7.5078	28.564754	0.000507	5.067527	1.716925	0.000203
 191	1.8905e+01	7.5527	28.653571	0.000223	2.229712	0.755447	0.000089
 192	1.9005e+01	7.5864	28.815056	0.000405	4.054022	1.373540	0.000162
 193	1.9104e+01	7.6297	28.956356	0.000355	3.547269	1.201847	0.000142
 194	1.9203e+01	7.6618	29.105730	0.000375	3.749970	1.270524	0.000150
 195	1.9303e+01	7.7067	29.234918	0.000324	3.243218	1.098832	0.000130
 196	1.9402e+01	7.7484	29.408515	0.000436	4.358074	1.476555	0.000174
 197	1.9502e+01	7.7902	29.529629	0.000304	3.040516	1.030155	0.000122
 198	1.9602e+01	7.8271	29.691115	0.000405	4.054022	1.373540	0.000162
 199	1.9701e+01	7.8672	29.844526	0.000385	3.851321	1.304863	0.000154
 200	1.9800e+01	7.9089	29.953529	0.000274	2.736465	0.927139	0.000110
 201	1.9900e+01	7.9474	30.090791	0.000345	3.445919	1.167509	0.000138
 202	2.0000e+01	7.9891	30.260351	0.000426	4.256723	1.442217	0.000170
 203	2.0099e+01	8.0292	30.357242	0.000243	2.432413	0.824124	0.000097
 204	2.0198e+01	8.0677	30.526802	0.000426	4.256723	1.442217	0.000170
 205	2.0298e+01	8.1014	30.668102	0.000355	3.547269	1.201847	0.000142
 206	2.0398e+01	8.1415	30.809401	0.000355	3.547269	1.201847	0.000142
 207	2.0497e+01	8.1896	30.962813	0.000385	3.851321	1.304863	0.000154
 208	2.0596e+01	8.2313	31.104112	0.000355	3.547269	1.201847	0.000142
 209	2.0696e+01	8.2618	31.249449	0.000365	3.648620	1.236186	0.000146
 210	2.0796e+01	8.3196	31.394786	0.000365	3.648620	1.236186	0.000146
 211	2.0895e+01	8.3436	31.499752	0.000264	2.635114	0.892801	0.000105
 212	2.0994e+01	8.3901	31.689497	0.000476	4.763476	1.613909	0.000191
 213	2.1094e+01	8.4238	31.802537	0.000284	2.837815	0.961478	0.000114
 214	2.1194e+01	8.4575	31.968059	0.000416	4.155373	1.407878	0.000166
 215	2.1293e+01	8.5056	32.109359	0.000355	3.547269	1.201847	0.000142
 216	2.1392e+01	8.5425	32.250659	0.000355	3.547269	1.201847	0.000142
 217	2.1492e+01	8.5810	32.363699	0.000284	2.837815	0.961478	0.000114
 218	2.1591e+01	8.6131	32.525184	0.000405	4.054022	1.373540	0.000162
 219	2.1691e+01	8.6741	32.682632	0.000395	3.952671	1.339201	0.000158
 220	2.1791e+01	8.7142	32.823932	0.000355	3.547269	1.201847	0.000142
 221	2.1890e+01	8.7399	32.941009	0.000294	2.939166	0.995816	0.000118
 222	2.1989e+01	8.7848	33.102494	0.000405	4.054022	1.373540	0.000162
 223	2.2089e+01	8.8265	33.219571	0.000294	2.939166	0.995816	0.000118
 224	2.2189e+01	8.8618	33.377020	0.000395	3.952671	1.339201	0.000158
 225	2.2288e+01	8.9131	33.526394	0.000375	3.749970	1.270524	0.000150
 226	2.2387e+01	8.9500	33.675768	0.000375	3.749970	1.270524	0.000150
 227	2.2487e+01	8.9821	33.788808	0.000284	2.837815	0.961478	0.000114
 228	2.2587e+01	9.0286	33.954330	0.000416	4.155373	1.407878	0.000166
 229	2.2686e+01	9.0687	34.091593	0.000345	3.445919	1.167509	0.000138
 230	2.2785e+01	9.1153	34.224818	0.000334	3.344568	1.133170	0.000134
 231	2.2885e+01	9.1409	34.386304	0.000405	4.054022	1.373540	0.000162
 232	2.2985e+01	9.1810	34.523566	0.000345	3.445919	1.167509	0.000138
 233	2.3084e+01	9.2259	34.628532	0.000264	2.635114	0.892801	0.000105
 234	2.3183e+01	9.2693	34.761757	0.000334	3.344568	1.133170	0.000134
 235	2.3283e+01	9.3013	34.899020	0.000345	3.445919	1.167509	0.000138
 236	2.3383e+01	9.3414	35.056468	0.000395	3.952671	1.339201	0.000158
 237	2.3482e+01	9.3848	35.149322	0.000233	2.331063	0.789785	0.000093
 238	2.3581e+01	9.4168	35.302733	0.000385	3.851321	1.304863	0.000154
 239	2.3681e+01	9.4794	35.448070	0.000365	3.648620	1.236186	0.000146
 240	2.3780e+01	9.4971	35.609556	0.000405	4.054022	1.373540	0.000162
 241	2.3880e+01	9.5484	35.698373	0.000223	2.229712	0.755447	0.000089
 242	2.3980e+01	9.5805	35.871970	0.000436	4.358074	1.476555	0.000174
 243	2.4079e+01	9.6174	36.025381	0.000385	3.851321	1.304863	0.000154
 244	2.4178e+01	9.6623	36.126309	0.000253	2.533764	0.858462	0.000101
 245	2.4278e+01	9.7040	36.259535	0.000334	3.344568	1.133170	0.000134
 246	2.4378e+01	9.7425	36.421020	0.000405	4.054022	1.373540	0.000162
 247	2.4477e+01	9.7810	36.558283	0.000345	3.445919	1.167509	0.000138
 248	2.4576e+01	9.8131	36.707657	0.000375	3.749970	1.270524	0.000150
 249	2.4676e+01	9.8628	36.832808	0.000314	3.141867	1.064493	0.000126
 250	2.4776e+01	9.8981	36.933736	0.000253	2.533764	0.858462	0.000101
 251	2.4875e+01	9.9334	37.079073	0.000365	3.648620	1.236186	0.000146
 252	2.4974e+01	9.9783	37.200187	0.000304	3.040516	1.030155	0.000122
 253	2.5074e+01	10.0216	37.345524	0.000365	3.648620	1.236186	0.000146
 254	2.5174e+01	10.0569	37.466638	0.000304	3.040516	1.030155	0.000122
 255	2.5273e+01	10.1002	37.636198	0.000426	4.256723	1.442217	0.000170
 256	2.5372e+01	10.1500	37.741163	0.000264	2.635114	0.892801	0.000105
 257	2.5472e+01	10.1805	37.842092	0.000253	2.533764	0.858462	0.000101
 258	2.5572e+01	10.2238	37.971280	0.000324	3.243218	1.098832	0.000130
 259	2.5671e+01	10.2591	38.112580	0.000355	3.547269	1.201847	0.000142
 260	2.5770e+01	10.3088	38.282140	0.000426	4.256723	1.442217	0.000170
 261	2.5870e+01	10.3329	38.419402	0.000345	3.445919	1.167509	0.000138
 262	2.5970e+01	10.3730	38.536479	0.000294	2.939166	0.995816	0.000118
 263	2.6069e+01	10.4227	38.633370	0.000243	2.432413	0.824124	0.000097
 264	2.6169e+01	10.4628	38.794856	0.000405	4.054022	1.373540	0.000162
 265	2.6268e+01	10.5013	38.920007	0.000314	3.141867	1.064493	0.000126
 266	2.6367e+01	10.5414	39.089567	0.000426	4.256723	1.442217	0.000170
