»»»»»»»»»»»»»»»»»»»»»»»»»»»»»»»»»»»» Hysteresis ««««««««««««««««««««««««««««««««««««
»»»  Executed Version:	5.48.1
»»»  Vision Version:	5.48.4 (R)
»»»  Vision Compiled:	9/18/24
»»»  Driver Version:	5.47.0
»»»  Windows Version:	Windows 8 or 8.1
»»»  Processor Information:	x86 (AMD or Intel) - 32 Processors
»»»  Tester Name:	PMF21124-494 (100V)
»»»  Tester S/N:	PMF21124-494
»»»  Internal Amp Type:	100V RevK 270k
»»»  Internal Amp S/N:	iAB2-596/K     
»»»  Execution Count:	1
»»»»»»»»»»»»»»»»»»»»»»»»»»»»»»»»»»»»»»»»»»««««««««««««««««««««««««««««««««««««««««««

Stored:	6/13/2025 - 12:14:23
Configured:	06/13/25 10:12:58 AM
Executed:	06/13/25 12:13:53 PM

»»»»»»»»»»»»»»»»»»»»»»»»»»»»»»»»»»» Sample Info ««««««««««««««««««««««««««««««««««««
Sample Name:	
Lot Name:	
Wafer Name:	
Die Row/Column:	0/0
Capacitor Number:	0
Sample Area (cm2):	1.00e-04
Sample Thickness (microns):	3.00e-01

Amplifier:	Internal

»»»»»»»»»»»»»»»»»»»»»»»»»»»»»»»»»»» Tester Info «««««««««««««««««««««««««««««««««««
Tester Name:	PMF21124-494 (100V)
Tester Serial Number:	PMF21124-494
Return Signal Amp. Level:	0.19 [Index: 3]

»»»»»»»»»»»»»»»»»»»»»»»»»»»»»»»» Hysteresis Info ««««««««««««««««««««««««««««««««««
Task Name:	Hyst-1704
Volts:	20.00
Field:	666.67 (kV/cm)
DCBias:	0.00
DCField:	0.00 (kV/cm)
Hysteresis Period (ms):	2.00e+02
Preset:	Enabled
Preset Delay (ms):	1.00e+03
Profile:	Standard Bipolar

»»»»»»»»»»»»»»»»»»»»»»»»»»»»»»»»»»»»»» Data «««««««««««««««««««««««««««««««««««««««
Points:	2009

Valid Data

Point	Time (ms)	Drive Voltage	Measured Polarization (uC/cm2)	Capacitance (uF)	Normalized Capacitance (uF/cm2)	Dielectric Constant	Instantaneous Current (mA)
   1	0.0000e+00	-0.0032	-2.202258	0.000243	2.432316	0.824091	0.000097
   2	9.9500e-02	0.0273	-2.105366	0.000243	2.432316	0.824091	0.000097
   3	1.9900e-01	0.0738	-1.943881	0.000405	4.053859	1.373485	0.000162
   4	2.9850e-01	0.1219	-1.838915	0.000264	2.635009	0.892765	0.000105
   5	3.9800e-01	0.1540	-1.737987	0.000253	2.533662	0.858428	0.000101
   6	4.9750e-01	0.1877	-1.588613	0.000375	3.749820	1.270473	0.000150
   7	5.9700e-01	0.2358	-1.479610	0.000274	2.736355	0.927102	0.000110
   8	6.9650e-01	0.2711	-1.358496	0.000304	3.040395	1.030114	0.000122
   9	7.9600e-01	0.3000	-1.229308	0.000324	3.243087	1.098788	0.000130
  10	8.9550e-01	0.3593	-1.067822	0.000405	4.053859	1.373485	0.000162
  11	9.9500e-01	0.3914	-0.938634	0.000324	3.243087	1.098788	0.000130
  12	1.0945e+00	0.4396	-0.805409	0.000334	3.344434	1.133125	0.000134
  13	1.1940e+00	0.4781	-0.660072	0.000365	3.648473	1.236136	0.000146
  14	1.2935e+00	0.5053	-0.542995	0.000294	2.939048	0.995776	0.000118
  15	1.3930e+00	0.5567	-0.438029	0.000264	2.635009	0.892765	0.000105
  16	1.4925e+00	0.5968	-0.316915	0.000304	3.040395	1.030114	0.000122
  17	1.5920e+00	0.6369	-0.244247	0.000182	1.824237	0.618068	0.000073
  18	1.6915e+00	0.6802	-0.098910	0.000365	3.648473	1.236136	0.000146
  19	1.7910e+00	0.7187	0.030279	0.000324	3.243087	1.098788	0.000130
  20	1.8905e+00	0.7524	0.139281	0.000274	2.736355	0.927102	0.000110
  21	1.9900e+00	0.7893	0.324989	0.000466	4.661938	1.579507	0.000187
  22	2.0895e+00	0.8262	0.425918	0.000253	2.533662	0.858428	0.000101
  23	2.1890e+00	0.8663	0.514735	0.000223	2.229623	0.755417	0.000089
  24	2.2885e+00	0.9128	0.651997	0.000345	3.445780	1.167462	0.000138
  25	2.3880e+00	0.9497	0.785223	0.000334	3.344434	1.133125	0.000134
  26	2.4875e+00	0.9946	0.922486	0.000345	3.445780	1.167462	0.000138
  27	2.5870e+00	1.0315	1.112231	0.000476	4.763285	1.613845	0.000191
  28	2.6865e+00	1.0636	1.245456	0.000334	3.344434	1.133125	0.000134
  29	2.7860e+00	1.1101	1.394830	0.000375	3.749820	1.270473	0.000150
  30	2.8855e+00	1.1406	1.503833	0.000274	2.736355	0.927102	0.000110
  31	2.9850e+00	1.1839	1.628984	0.000314	3.141741	1.064451	0.000126
  32	3.0845e+00	1.2224	1.742024	0.000284	2.837702	0.961439	0.000114
  33	3.1840e+00	1.2689	1.782395	0.000101	1.013465	0.343371	0.000041
  34	3.2835e+00	1.3091	1.951955	0.000426	4.256552	1.442159	0.000170
  35	3.3830e+00	1.3427	2.093255	0.000355	3.547127	1.201799	0.000142
  36	3.4825e+00	1.3893	2.214369	0.000304	3.040395	1.030114	0.000122
  37	3.5820e+00	1.4358	2.331446	0.000294	2.939048	0.995776	0.000118
  38	3.6815e+00	1.4727	2.452560	0.000304	3.040395	1.030114	0.000122
  39	3.7810e+00	1.5096	2.569637	0.000294	2.939048	0.995776	0.000118
  40	3.8805e+00	1.5465	2.666528	0.000243	2.432316	0.824091	0.000097
  41	3.9800e+00	1.5882	2.828014	0.000405	4.053859	1.373485	0.000162
  42	4.0795e+00	1.6299	2.932979	0.000264	2.635009	0.892765	0.000105
  43	4.1790e+00	1.6684	3.054093	0.000304	3.040395	1.030114	0.000122
  44	4.2785e+00	1.7117	3.243839	0.000476	4.763285	1.613845	0.000191
  45	4.3780e+00	1.7486	3.381101	0.000345	3.445780	1.167462	0.000138
  46	4.4775e+00	1.7823	3.526438	0.000365	3.648473	1.236136	0.000146
  47	4.5770e+00	1.8304	3.643515	0.000294	2.939048	0.995776	0.000118
  48	4.6765e+00	1.8641	3.764629	0.000304	3.040395	1.030114	0.000122
  49	4.7760e+00	1.9155	3.893817	0.000324	3.243087	1.098788	0.000130
  50	4.8755e+00	1.9491	4.002820	0.000274	2.736355	0.927102	0.000110
  51	4.9750e+00	1.9892	4.083563	0.000203	2.026930	0.686742	0.000081
  52	5.0745e+00	2.0278	4.184491	0.000253	2.533662	0.858428	0.000101
  53	5.1740e+00	2.0679	4.333865	0.000375	3.749820	1.270473	0.000150
  54	5.2735e+00	2.1064	4.459016	0.000314	3.141741	1.064451	0.000126
  55	5.3730e+00	2.1449	4.604353	0.000365	3.648473	1.236136	0.000146
  56	5.4725e+00	2.1850	4.725467	0.000304	3.040395	1.030114	0.000122
  57	5.5720e+00	2.2315	4.858693	0.000334	3.344434	1.133125	0.000134
  58	5.6715e+00	2.2652	5.012104	0.000385	3.851166	1.304810	0.000154
  59	5.7710e+00	2.3101	5.137255	0.000314	3.141741	1.064451	0.000126
  60	5.8705e+00	2.3470	5.290666	0.000385	3.851166	1.304810	0.000154
  61	5.9700e+00	2.3871	5.411780	0.000304	3.040395	1.030114	0.000122
  62	6.0695e+00	2.4208	5.545006	0.000334	3.344434	1.133125	0.000134
  63	6.1690e+00	2.4609	5.682269	0.000345	3.445780	1.167462	0.000138
  64	6.2685e+00	2.4978	5.867977	0.000466	4.661938	1.579507	0.000187
  65	6.3680e+00	2.5459	5.960831	0.000233	2.330969	0.789754	0.000093
  66	6.4675e+00	2.5908	6.114242	0.000385	3.851166	1.304810	0.000154
  67	6.5670e+00	2.6245	6.211133	0.000243	2.432316	0.824091	0.000097
  68	6.6665e+00	2.6646	6.320136	0.000274	2.736355	0.927102	0.000110
  69	6.7660e+00	2.7031	6.437213	0.000294	2.939048	0.995776	0.000118
  70	6.8655e+00	2.7448	6.582550	0.000365	3.648473	1.236136	0.000146
  71	6.9650e+00	2.7769	6.731924	0.000375	3.749820	1.270473	0.000150
  72	7.0645e+00	2.8299	6.849001	0.000294	2.939048	0.995776	0.000118
  73	7.1640e+00	2.8603	6.921669	0.000182	1.824237	0.618068	0.000073
  74	7.2635e+00	2.9037	7.095266	0.000436	4.357899	1.476496	0.000174
  75	7.3630e+00	2.9438	7.216380	0.000304	3.040395	1.030114	0.000122
  76	7.4625e+00	2.9807	7.337494	0.000304	3.040395	1.030114	0.000122
  77	7.5620e+00	3.0144	7.478794	0.000355	3.547127	1.201799	0.000142
  78	7.6615e+00	3.0577	7.636242	0.000395	3.952513	1.339148	0.000158
  79	7.7610e+00	3.0994	7.741208	0.000264	2.635009	0.892765	0.000105
  80	7.8605e+00	3.1395	7.975362	0.000588	5.878096	1.991553	0.000235
  81	7.9600e+00	3.1860	8.076290	0.000253	2.533662	0.858428	0.000101
  82	8.0595e+00	3.2165	8.205478	0.000324	3.243087	1.098788	0.000130
  83	8.1590e+00	3.2646	8.346778	0.000355	3.547127	1.201799	0.000142
  84	8.2585e+00	3.3047	8.435595	0.000223	2.229623	0.755417	0.000089
  85	8.3580e+00	3.3416	8.605155	0.000426	4.256552	1.442159	0.000170
  86	8.4575e+00	3.3785	8.702046	0.000243	2.432316	0.824091	0.000097
  87	8.5570e+00	3.4170	8.811049	0.000274	2.736355	0.927102	0.000110
  88	8.6565e+00	3.4635	8.960423	0.000375	3.749820	1.270473	0.000150
  89	8.7560e+00	3.4892	9.065388	0.000264	2.635009	0.892765	0.000105
  90	8.8555e+00	3.5357	9.186502	0.000304	3.040395	1.030114	0.000122
  91	8.9550e+00	3.5839	9.347988	0.000405	4.053859	1.373485	0.000162
  92	9.0545e+00	3.6208	9.489288	0.000355	3.547127	1.201799	0.000142
  93	9.1540e+00	3.6641	9.598290	0.000274	2.736355	0.927102	0.000110
  94	9.2535e+00	3.7090	9.719404	0.000304	3.040395	1.030114	0.000122
  95	9.3530e+00	3.7443	9.864741	0.000365	3.648473	1.236136	0.000146
  96	9.4525e+00	3.7796	10.006041	0.000355	3.547127	1.201799	0.000142
  97	9.5520e+00	3.8245	10.147341	0.000355	3.547127	1.201799	0.000142
  98	9.6515e+00	3.8598	10.280566	0.000334	3.344434	1.133125	0.000134
  99	9.7510e+00	3.9015	10.413792	0.000334	3.344434	1.133125	0.000134
 100	9.8505e+00	3.9400	10.547017	0.000334	3.344434	1.133125	0.000134
 101	9.9500e+00	3.9833	10.660057	0.000284	2.837702	0.961439	0.000114
 102	1.0050e+01	4.0186	10.777134	0.000294	2.939048	0.995776	0.000118
 103	1.0149e+01	4.0587	10.865951	0.000223	2.229623	0.755417	0.000089
 104	1.0248e+01	4.0924	11.051659	0.000466	4.661938	1.579507	0.000187
 105	1.0348e+01	4.1518	11.164699	0.000284	2.837702	0.961439	0.000114
 106	1.0447e+01	4.1758	11.301961	0.000345	3.445780	1.167462	0.000138
 107	1.0547e+01	4.2191	11.406927	0.000264	2.635009	0.892765	0.000105
 108	1.0646e+01	4.2592	11.576487	0.000426	4.256552	1.442159	0.000170
 109	1.0746e+01	4.2961	11.681452	0.000264	2.635009	0.892765	0.000105
 110	1.0845e+01	4.3330	11.842938	0.000405	4.053859	1.373485	0.000162
 111	1.0945e+01	4.3796	11.964052	0.000304	3.040395	1.030114	0.000122
 112	1.1044e+01	4.4116	12.089203	0.000314	3.141741	1.064451	0.000126
 113	1.1144e+01	4.4566	12.226466	0.000345	3.445780	1.167462	0.000138
 114	1.1243e+01	4.4935	12.355654	0.000324	3.243087	1.098788	0.000130
 115	1.1343e+01	4.5432	12.468694	0.000284	2.837702	0.961439	0.000114
 116	1.1443e+01	4.5833	12.670551	0.000507	5.067324	1.716856	0.000203
 117	1.1542e+01	4.6170	12.755330	0.000213	2.128276	0.721079	0.000085
 118	1.1642e+01	4.6651	12.896630	0.000355	3.547127	1.201799	0.000142
 119	1.1741e+01	4.6956	13.029856	0.000334	3.344434	1.133125	0.000134
 120	1.1841e+01	4.7421	13.126747	0.000243	2.432316	0.824091	0.000097
 121	1.1940e+01	4.7758	13.276121	0.000375	3.749820	1.270473	0.000150
 122	1.2040e+01	4.8095	13.437606	0.000405	4.053859	1.373485	0.000162
 123	1.2139e+01	4.8560	13.514312	0.000193	1.925583	0.652405	0.000077
 124	1.2239e+01	4.9025	13.667723	0.000385	3.851166	1.304810	0.000154
 125	1.2338e+01	4.9394	13.813060	0.000365	3.648473	1.236136	0.000146
 126	1.2438e+01	4.9747	13.905914	0.000233	2.330969	0.789754	0.000093
 127	1.2537e+01	5.0212	14.071437	0.000416	4.155206	1.407822	0.000166
 128	1.2636e+01	5.0549	14.196588	0.000314	3.141741	1.064451	0.000126
 129	1.2736e+01	5.1015	14.354036	0.000395	3.952513	1.339148	0.000158
 130	1.2835e+01	5.1384	14.442853	0.000223	2.229623	0.755417	0.000089
 131	1.2935e+01	5.1753	14.600301	0.000395	3.952513	1.339148	0.000158
 132	1.3034e+01	5.2154	14.737564	0.000345	3.445780	1.167462	0.000138
 133	1.3134e+01	5.2523	14.907124	0.000426	4.256552	1.442159	0.000170
 134	1.3233e+01	5.2940	15.036312	0.000324	3.243087	1.098788	0.000130
 135	1.3333e+01	5.3389	15.108980	0.000182	1.824237	0.618068	0.000073
 136	1.3432e+01	5.3742	15.205872	0.000243	2.432316	0.824091	0.000097
 137	1.3532e+01	5.4127	15.335060	0.000324	3.243087	1.098788	0.000130
 138	1.3632e+01	5.4576	15.476360	0.000355	3.547127	1.201799	0.000142
 139	1.3731e+01	5.4929	15.617660	0.000355	3.547127	1.201799	0.000142
 140	1.3831e+01	5.5314	15.742811	0.000314	3.141741	1.064451	0.000126
 141	1.3930e+01	5.5731	15.867962	0.000314	3.141741	1.064451	0.000126
 142	1.4030e+01	5.6100	15.993113	0.000314	3.141741	1.064451	0.000126
 143	1.4129e+01	5.6453	16.118264	0.000314	3.141741	1.064451	0.000126
 144	1.4229e+01	5.6902	16.255527	0.000345	3.445780	1.167462	0.000138
 145	1.4328e+01	5.7335	16.384715	0.000324	3.243087	1.098788	0.000130
 146	1.4428e+01	5.7801	16.485644	0.000253	2.533662	0.858428	0.000101
 147	1.4527e+01	5.8202	16.602721	0.000294	2.939048	0.995776	0.000118
 148	1.4627e+01	5.8538	16.756132	0.000385	3.851166	1.304810	0.000154
 149	1.4726e+01	5.8891	16.929729	0.000436	4.357899	1.476496	0.000174
 150	1.4825e+01	5.9325	17.034694	0.000264	2.635009	0.892765	0.000105
 151	1.4925e+01	5.9774	17.139660	0.000264	2.635009	0.892765	0.000105
 152	1.5024e+01	6.0191	17.244625	0.000264	2.635009	0.892765	0.000105
 153	1.5124e+01	6.0512	17.345554	0.000253	2.533662	0.858428	0.000101
 154	1.5223e+01	6.0881	17.490891	0.000365	3.648473	1.236136	0.000146
 155	1.5323e+01	6.1250	17.628153	0.000345	3.445780	1.167462	0.000138
 156	1.5422e+01	6.1683	17.664487	0.000091	0.912118	0.309034	0.000037
 157	1.5522e+01	6.2180	17.850196	0.000466	4.661938	1.579507	0.000187
 158	1.5621e+01	6.2517	17.959198	0.000274	2.736355	0.927102	0.000110
 159	1.5721e+01	6.2902	18.052052	0.000233	2.330969	0.789754	0.000093
 160	1.5820e+01	6.3303	18.205464	0.000385	3.851166	1.304810	0.000154
 161	1.5920e+01	6.3768	18.306392	0.000253	2.533662	0.858428	0.000101
 162	1.6020e+01	6.4153	18.467877	0.000405	4.053859	1.373485	0.000162
 163	1.6119e+01	6.4490	18.584954	0.000294	2.939048	0.995776	0.000118
 164	1.6218e+01	6.4923	18.697994	0.000284	2.837702	0.961439	0.000114
 165	1.6318e+01	6.5212	18.835257	0.000345	3.445780	1.167462	0.000138
 166	1.6418e+01	6.5677	18.984631	0.000375	3.749820	1.270473	0.000150
 167	1.6517e+01	6.6126	19.117856	0.000334	3.344434	1.133125	0.000134
 168	1.6616e+01	6.6528	19.251082	0.000334	3.344434	1.133125	0.000134
 169	1.6716e+01	6.6848	19.380270	0.000324	3.243087	1.098788	0.000130
 170	1.6816e+01	6.7265	19.432753	0.000132	1.317504	0.446383	0.000053
 171	1.6915e+01	6.7699	19.545793	0.000284	2.837702	0.961439	0.000114
 172	1.7015e+01	6.8100	19.650758	0.000264	2.635009	0.892765	0.000105
 173	1.7114e+01	6.8421	19.779947	0.000324	3.243087	1.098788	0.000130
 174	1.7213e+01	6.8870	19.888949	0.000274	2.736355	0.927102	0.000110
 175	1.7313e+01	6.9223	19.989878	0.000253	2.533662	0.858428	0.000101
 176	1.7413e+01	6.9672	20.143289	0.000385	3.851166	1.304810	0.000154
 177	1.7512e+01	7.0073	20.232106	0.000223	2.229623	0.755417	0.000089
 178	1.7611e+01	7.0458	20.377443	0.000365	3.648473	1.236136	0.000146
 179	1.7711e+01	7.0859	20.510668	0.000334	3.344434	1.133125	0.000134
 180	1.7811e+01	7.1180	20.603522	0.000233	2.330969	0.789754	0.000093
 181	1.7910e+01	7.1645	20.752896	0.000375	3.749820	1.270473	0.000150
 182	1.8009e+01	7.2078	20.853825	0.000253	2.533662	0.858428	0.000101
 183	1.8109e+01	7.2479	20.991087	0.000345	3.445780	1.167462	0.000138
 184	1.8209e+01	7.2768	21.136424	0.000365	3.648473	1.236136	0.000146
 185	1.8308e+01	7.3281	21.277724	0.000355	3.547127	1.201799	0.000142
 186	1.8407e+01	7.3731	21.406912	0.000324	3.243087	1.098788	0.000130
 187	1.8507e+01	7.4100	21.491692	0.000213	2.128276	0.721079	0.000085
 188	1.8607e+01	7.4420	21.564361	0.000182	1.824237	0.618068	0.000073
 189	1.8706e+01	7.4821	21.661252	0.000243	2.432316	0.824091	0.000097
 190	1.8805e+01	7.5190	21.802552	0.000355	3.547127	1.201799	0.000142
 191	1.8905e+01	7.5688	21.919628	0.000294	2.939048	0.995776	0.000118
 192	1.9005e+01	7.6057	22.056891	0.000345	3.445780	1.167462	0.000138
 193	1.9104e+01	7.6474	22.194154	0.000345	3.445780	1.167462	0.000138
 194	1.9203e+01	7.6859	22.234525	0.000101	1.013465	0.343371	0.000041
 195	1.9303e+01	7.7196	22.359676	0.000314	3.141741	1.064451	0.000126
 196	1.9402e+01	7.7677	22.476753	0.000294	2.939048	0.995776	0.000118
 197	1.9502e+01	7.8062	22.622090	0.000365	3.648473	1.236136	0.000146
 198	1.9602e+01	7.8351	22.731093	0.000274	2.736355	0.927102	0.000110
 199	1.9701e+01	7.8784	22.868355	0.000345	3.445780	1.167462	0.000138
 200	1.9800e+01	7.9217	22.961210	0.000233	2.330969	0.789754	0.000093
 201	1.9900e+01	7.9634	23.118658	0.000395	3.952513	1.339148	0.000158
 202	2.0000e+01	8.0035	23.231698	0.000284	2.837702	0.961439	0.000114
 203	2.0099e+01	8.0452	23.332626	0.000253	2.533662	0.858428	0.000101
 204	2.0198e+01	8.0885	23.482000	0.000375	3.749820	1.270473	0.000150
 205	2.0298e+01	8.1286	23.538520	0.000142	1.418851	0.480720	0.000057
 206	2.0398e+01	8.1623	23.655597	0.000294	2.939048	0.995776	0.000118
 207	2.0497e+01	8.2105	23.752488	0.000243	2.432316	0.824091	0.000097
 208	2.0596e+01	8.2329	23.853417	0.000253	2.533662	0.858428	0.000101
 209	2.0696e+01	8.2794	23.994716	0.000355	3.547127	1.201799	0.000142
 210	2.0796e+01	8.3228	24.095645	0.000253	2.533662	0.858428	0.000101
 211	2.0895e+01	8.3548	24.208684	0.000284	2.837702	0.961439	0.000114
 212	2.0994e+01	8.3998	24.293464	0.000213	2.128276	0.721079	0.000085
 213	2.1094e+01	8.4447	24.414578	0.000304	3.040395	1.030114	0.000122
 214	2.1194e+01	8.4832	24.547804	0.000334	3.344434	1.133125	0.000134
 215	2.1293e+01	8.5185	24.640658	0.000233	2.330969	0.789754	0.000093
 216	2.1392e+01	8.5650	24.794069	0.000385	3.851166	1.304810	0.000154
 217	2.1492e+01	8.5987	24.886923	0.000233	2.330969	0.789754	0.000093
 218	2.1591e+01	8.6372	25.012074	0.000314	3.141741	1.064451	0.000126
 219	2.1691e+01	8.6741	25.141263	0.000324	3.243087	1.098788	0.000130
 220	2.1791e+01	8.7190	25.258340	0.000294	2.939048	0.995776	0.000118
 221	2.1890e+01	8.7511	25.407714	0.000375	3.749820	1.270473	0.000150
 222	2.1989e+01	8.8056	25.460197	0.000132	1.317504	0.446383	0.000053
 223	2.2089e+01	8.8377	25.561125	0.000253	2.533662	0.858428	0.000101
 224	2.2189e+01	8.8746	25.706462	0.000365	3.648473	1.236136	0.000146
 225	2.2288e+01	8.9115	25.779130	0.000182	1.824237	0.618068	0.000073
 226	2.2387e+01	8.9596	25.900244	0.000304	3.040395	1.030114	0.000122
 227	2.2487e+01	8.9965	26.021358	0.000304	3.040395	1.030114	0.000122
 228	2.2587e+01	9.0350	26.138435	0.000294	2.939048	0.995776	0.000118
 229	2.2686e+01	9.0784	26.243401	0.000264	2.635009	0.892765	0.000105
 230	2.2785e+01	9.1281	26.344329	0.000253	2.533662	0.858428	0.000101
 231	2.2885e+01	9.1602	26.485629	0.000355	3.547127	1.201799	0.000142
 232	2.2985e+01	9.1890	26.610780	0.000314	3.141741	1.064451	0.000126
 233	2.3084e+01	9.2372	26.667300	0.000142	1.418851	0.480720	0.000057
 234	2.3183e+01	9.2837	26.844934	0.000446	4.459245	1.510833	0.000179
 235	2.3283e+01	9.3222	26.982197	0.000345	3.445780	1.167462	0.000138
 236	2.3383e+01	9.3511	27.099274	0.000294	2.939048	0.995776	0.000118
 237	2.3482e+01	9.3976	27.216351	0.000294	2.939048	0.995776	0.000118
 238	2.3581e+01	9.4393	27.313242	0.000243	2.432316	0.824091	0.000097
 239	2.3681e+01	9.4778	27.442430	0.000324	3.243087	1.098788	0.000130
 240	2.3780e+01	9.5259	27.531247	0.000223	2.229623	0.755417	0.000089
 241	2.3880e+01	9.5660	27.611990	0.000203	2.026930	0.686742	0.000081
 242	2.3980e+01	9.5949	27.741178	0.000324	3.243087	1.098788	0.000130
 243	2.4079e+01	9.6382	27.842107	0.000253	2.533662	0.858428	0.000101
 244	2.4178e+01	9.6767	27.938998	0.000243	2.432316	0.824091	0.000097
 245	2.4278e+01	9.7184	28.027815	0.000223	2.229623	0.755417	0.000089
 246	2.4378e+01	9.7569	28.185263	0.000395	3.952513	1.339148	0.000158
 247	2.4477e+01	9.7954	28.286192	0.000253	2.533662	0.858428	0.000101
 248	2.4576e+01	9.8291	28.403268	0.000294	2.939048	0.995776	0.000118
 249	2.4676e+01	9.8837	28.540531	0.000345	3.445780	1.167462	0.000138
 250	2.4776e+01	9.9190	28.633385	0.000233	2.330969	0.789754	0.000093
 251	2.4875e+01	9.9511	28.738351	0.000264	2.635009	0.892765	0.000105
 252	2.4974e+01	9.9896	28.871576	0.000334	3.344434	1.133125	0.000134
 253	2.5074e+01	10.0313	28.948282	0.000193	1.925583	0.652405	0.000077
 254	2.5174e+01	10.0746	29.146101	0.000497	4.965978	1.682519	0.000199
 255	2.5273e+01	10.1131	29.255104	0.000274	2.736355	0.927102	0.000110
 256	2.5372e+01	10.1580	29.343921	0.000223	2.229623	0.755417	0.000089
 257	2.5472e+01	10.2029	29.465035	0.000304	3.040395	1.030114	0.000122
 258	2.5572e+01	10.2382	29.578075	0.000284	2.837702	0.961439	0.000114
 259	2.5671e+01	10.2655	29.695152	0.000294	2.939048	0.995776	0.000118
 260	2.5770e+01	10.3152	29.747635	0.000132	1.317504	0.446383	0.000053
 261	2.5870e+01	10.3537	29.876823	0.000324	3.243087	1.098788	0.000130
 262	2.5970e+01	10.3906	29.965640	0.000223	2.229623	0.755417	0.000089
 263	2.6069e+01	10.4275	30.094828	0.000324	3.243087	1.098788	0.000130
 264	2.6169e+01	10.4853	30.248240	0.000385	3.851166	1.304810	0.000154
 265	2.6268e+01	10.5077	30.333019	0.000213	2.128276	0.721079	0.000085
 266	2.6367e+01	10.5446	30.462208	0.000324	3.243087	1.098788	0.000130
