»»»»»»»»»»»»»»»»»»»»»»»»»»»»»»»»»»»» Hysteresis ««««««««««««««««««««««««««««««««««««
»»»  Executed Version:	5.48.1
»»»  Vision Version:	5.48.4 (R)
»»»  Vision Compiled:	9/18/24
»»»  Driver Version:	5.47.0
»»»  Windows Version:	Windows 8 or 8.1
»»»  Processor Information:	x86 (AMD or Intel) - 32 Processors
»»»  Tester Name:	PMF21124-494 (100V)
»»»  Tester S/N:	PMF21124-494
»»»  Internal Amp Type:	100V RevK 270k
»»»  Internal Amp S/N:	iAB2-596/K     
»»»  Execution Count:	1
»»»»»»»»»»»»»»»»»»»»»»»»»»»»»»»»»»»»»»»»»»««««««««««««««««««««««««««««««««««««««««««

Stored:	6/13/2025 - 14:2:28
Configured:	06/13/25 01:30:53 PM
Executed:	06/13/25 02:01:57 PM

»»»»»»»»»»»»»»»»»»»»»»»»»»»»»»»»»»» Sample Info ««««««««««««««««««««««««««««««««««««
Sample Name:	
Lot Name:	
Wafer Name:	
Die Row/Column:	0/0
Capacitor Number:	0
Sample Area (cm2):	1.00e-04
Sample Thickness (microns):	3.00e-01

Amplifier:	Internal

»»»»»»»»»»»»»»»»»»»»»»»»»»»»»»»»»»» Tester Info «««««««««««««««««««««««««««««««««««
Tester Name:	PMF21124-494 (100V)
Tester Serial Number:	PMF21124-494
Return Signal Amp. Level:	0.19 [Index: 3]

»»»»»»»»»»»»»»»»»»»»»»»»»»»»»»»» Hysteresis Info ««««««««««««««««««««««««««««««««««
Task Name:	Hyst-1922
Volts:	20.00
Field:	666.67 (kV/cm)
DCBias:	0.00
DCField:	0.00 (kV/cm)
Hysteresis Period (ms):	2.00e+02
Preset:	Enabled
Preset Delay (ms):	1.00e+03
Profile:	Standard Bipolar

»»»»»»»»»»»»»»»»»»»»»»»»»»»»»»»»»»»»»» Data «««««««««««««««««««««««««««««««««««««««
Points:	2009

Valid Data

Point	Time (ms)	Drive Voltage	Measured Polarization (uC/cm2)	Capacitance (uF)	Normalized Capacitance (uF/cm2)	Dielectric Constant	Instantaneous Current (mA)
   1	0.0000e+00	0.0080	-1.980215	0.000314	3.141363	1.064323	0.000126
   2	9.9500e-02	0.0241	-1.855064	0.000314	3.141363	1.064323	0.000126
   3	1.9900e-01	0.0770	-1.649170	0.000517	5.168049	1.750982	0.000207
   4	2.9850e-01	0.1075	-1.483647	0.000415	4.154706	1.407652	0.000166
   5	3.9800e-01	0.1508	-1.314088	0.000426	4.256040	1.441985	0.000170
   6	4.9750e-01	0.1941	-1.176825	0.000345	3.445366	1.167322	0.000138
   7	5.9700e-01	0.2278	-0.974968	0.000507	5.066715	1.716649	0.000203
   8	6.9650e-01	0.2711	-0.809446	0.000415	4.154706	1.407652	0.000166
   9	7.9600e-01	0.3080	-0.651997	0.000395	3.952037	1.338986	0.000158
  10	8.9550e-01	0.3449	-0.433992	0.000547	5.472052	1.853981	0.000219
  11	9.9500e-01	0.3898	-0.272507	0.000405	4.053372	1.373319	0.000162
  12	1.0945e+00	0.4364	-0.082761	0.000476	4.762712	1.613650	0.000191
  13	1.1940e+00	0.4700	0.090836	0.000436	4.357374	1.476318	0.000174
  14	1.2935e+00	0.5166	0.252321	0.000405	4.053372	1.373319	0.000162
  15	1.3930e+00	0.5438	0.450141	0.000497	4.965380	1.682316	0.000199
  16	1.4925e+00	0.5936	0.603552	0.000385	3.850703	1.304654	0.000154
  17	1.5920e+00	0.6305	0.793297	0.000476	4.762712	1.613650	0.000191
  18	1.6915e+00	0.6658	0.962857	0.000426	4.256040	1.441985	0.000170
  19	1.7910e+00	0.6962	1.124342	0.000405	4.053372	1.373319	0.000162
  20	1.8905e+00	0.7508	1.330236	0.000517	5.168049	1.750982	0.000207
  21	1.9900e+00	0.7748	1.511907	0.000456	4.560043	1.544984	0.000183
  22	2.0895e+00	0.8294	1.673393	0.000405	4.053372	1.373319	0.000162
  23	2.1890e+00	0.8647	1.867175	0.000486	4.864046	1.647983	0.000195
  24	2.2885e+00	0.9048	2.008475	0.000355	3.546700	1.201655	0.000142
  25	2.3880e+00	0.9609	2.210332	0.000507	5.066715	1.716649	0.000203
  26	2.4875e+00	0.9866	2.400077	0.000476	4.762712	1.613650	0.000191
  27	2.5870e+00	1.0267	2.573674	0.000436	4.357374	1.476318	0.000174
  28	2.6865e+00	1.0684	2.787642	0.000537	5.370717	1.819648	0.000215
  29	2.7860e+00	1.1037	2.912793	0.000314	3.141363	1.064323	0.000126
  30	2.8855e+00	1.1390	3.058130	0.000365	3.648034	1.235988	0.000146
  31	2.9850e+00	1.1968	3.272099	0.000537	5.370717	1.819648	0.000215
  32	3.0845e+00	1.2224	3.473955	0.000507	5.066715	1.716649	0.000203
  33	3.1840e+00	1.2625	3.635441	0.000405	4.053372	1.373319	0.000162
  34	3.2835e+00	1.3042	3.813075	0.000446	4.458709	1.510651	0.000179
  35	3.3830e+00	1.3476	3.986672	0.000436	4.357374	1.476318	0.000174
  36	3.4825e+00	1.3861	4.132008	0.000365	3.648034	1.235988	0.000146
  37	3.5820e+00	1.4246	4.362125	0.000578	5.776055	1.956980	0.000231
  38	3.6815e+00	1.4647	4.531685	0.000426	4.256040	1.441985	0.000170
  39	3.7810e+00	1.5080	4.721430	0.000476	4.762712	1.613650	0.000191
  40	3.8805e+00	1.5513	4.903101	0.000456	4.560043	1.544984	0.000183
  41	3.9800e+00	1.5850	5.080735	0.000446	4.458709	1.510651	0.000179
  42	4.0795e+00	1.6251	5.246258	0.000415	4.154706	1.407652	0.000166
  43	4.1790e+00	1.6652	5.427929	0.000456	4.560043	1.544984	0.000183
  44	4.2785e+00	1.7069	5.605563	0.000446	4.458709	1.510651	0.000179
  45	4.3780e+00	1.7406	5.799345	0.000486	4.864046	1.647983	0.000195
  46	4.4775e+00	1.7887	5.948720	0.000375	3.749369	1.270321	0.000150
  47	4.5770e+00	1.8208	6.110205	0.000405	4.053372	1.373319	0.000162
  48	4.6765e+00	1.8625	6.320136	0.000527	5.269383	1.785315	0.000211
  49	4.7760e+00	1.8994	6.509881	0.000476	4.762712	1.613650	0.000191
  50	4.8755e+00	1.9411	6.667330	0.000395	3.952037	1.338986	0.000158
  51	4.9750e+00	1.9844	6.857075	0.000476	4.762712	1.613650	0.000191
  52	5.0745e+00	2.0261	7.034709	0.000446	4.458709	1.510651	0.000179
  53	5.1740e+00	2.0695	7.200232	0.000415	4.154706	1.407652	0.000166
  54	5.2735e+00	2.0967	7.357680	0.000395	3.952037	1.338986	0.000158
  55	5.3730e+00	2.1417	7.591834	0.000588	5.877389	1.991313	0.000235
  56	5.4725e+00	2.1882	7.753319	0.000405	4.053372	1.373319	0.000162
  57	5.5720e+00	2.2154	7.902693	0.000375	3.749369	1.270321	0.000150
  58	5.6715e+00	2.2668	8.076290	0.000436	4.357374	1.476318	0.000174
  59	5.7710e+00	2.3037	8.290258	0.000537	5.370717	1.819648	0.000215
  60	5.8705e+00	2.3438	8.443669	0.000385	3.850703	1.304654	0.000154
  61	5.9700e+00	2.3807	8.649563	0.000517	5.168049	1.750982	0.000207
  62	6.0695e+00	2.4224	8.835272	0.000466	4.661377	1.579317	0.000187
  63	6.1690e+00	2.4497	8.964460	0.000324	3.242697	1.098656	0.000130
  64	6.2685e+00	2.5074	9.158242	0.000486	4.864046	1.647983	0.000195
  65	6.3680e+00	2.5443	9.335876	0.000446	4.458709	1.510651	0.000179
  66	6.4675e+00	2.5908	9.529659	0.000486	4.864046	1.647983	0.000195
  67	6.5670e+00	2.6181	9.679033	0.000375	3.749369	1.270321	0.000150
  68	6.6665e+00	2.6678	9.884927	0.000517	5.168049	1.750982	0.000207
  69	6.7660e+00	2.7047	10.054487	0.000426	4.256040	1.441985	0.000170
  70	6.8655e+00	2.7368	10.244232	0.000476	4.762712	1.613650	0.000191
  71	6.9650e+00	2.7769	10.417829	0.000436	4.357374	1.476318	0.000174
  72	7.0645e+00	2.8170	10.563166	0.000365	3.648034	1.235988	0.000146
  73	7.1640e+00	2.8571	10.708503	0.000365	3.648034	1.235988	0.000146
  74	7.2635e+00	2.8988	10.906322	0.000497	4.965380	1.682316	0.000199
  75	7.3630e+00	2.9390	11.092030	0.000466	4.661377	1.579317	0.000187
  76	7.4625e+00	2.9742	11.273702	0.000456	4.560043	1.544984	0.000183
  77	7.5620e+00	3.0160	11.459410	0.000466	4.661377	1.579317	0.000187
  78	7.6615e+00	3.0673	11.637044	0.000446	4.458709	1.510651	0.000179
  79	7.7610e+00	3.0946	11.766232	0.000324	3.242697	1.098656	0.000130
  80	7.8605e+00	3.1363	11.951940	0.000466	4.661377	1.579317	0.000187
  81	7.9600e+00	3.1764	12.133611	0.000456	4.560043	1.544984	0.000183
  82	8.0595e+00	3.2245	12.307208	0.000436	4.357374	1.476318	0.000174
  83	8.1590e+00	3.2662	12.488879	0.000456	4.560043	1.544984	0.000183
  84	8.2585e+00	3.3063	12.690736	0.000507	5.066715	1.716649	0.000203
  85	8.3580e+00	3.3336	12.848184	0.000395	3.952037	1.338986	0.000158
  86	8.4575e+00	3.3801	13.029856	0.000456	4.560043	1.544984	0.000183
  87	8.5570e+00	3.4138	13.167118	0.000345	3.445366	1.167322	0.000138
  88	8.6565e+00	3.4651	13.364938	0.000497	4.965380	1.682316	0.000199
  89	8.7560e+00	3.4988	13.550646	0.000466	4.661377	1.579317	0.000187
  90	8.8555e+00	3.5277	13.695983	0.000365	3.648034	1.235988	0.000146
  91	8.9550e+00	3.5839	13.877654	0.000456	4.560043	1.544984	0.000183
  92	9.0545e+00	3.6224	14.035102	0.000395	3.952037	1.338986	0.000158
  93	9.1540e+00	3.6577	14.228885	0.000486	4.864046	1.647983	0.000195
  94	9.2535e+00	3.7010	14.402482	0.000436	4.357374	1.476318	0.000174
  95	9.3530e+00	3.7427	14.555893	0.000385	3.850703	1.304654	0.000154
  96	9.4525e+00	3.7764	14.765824	0.000527	5.269383	1.785315	0.000211
  97	9.5520e+00	3.8165	14.895012	0.000324	3.242697	1.098656	0.000130
  98	9.6515e+00	3.8630	15.092832	0.000497	4.965380	1.682316	0.000199
  99	9.7510e+00	3.8903	15.274503	0.000456	4.560043	1.544984	0.000183
 100	9.8505e+00	3.9352	15.440026	0.000415	4.154706	1.407652	0.000166
 101	9.9500e+00	3.9817	15.629771	0.000476	4.762712	1.613650	0.000191
 102	1.0050e+01	4.0218	15.807405	0.000446	4.458709	1.510651	0.000179
 103	1.0149e+01	4.0571	15.972928	0.000415	4.154706	1.407652	0.000166
 104	1.0248e+01	4.0988	16.138450	0.000415	4.154706	1.407652	0.000166
 105	1.0348e+01	4.1309	16.320121	0.000456	4.560043	1.544984	0.000183
 106	1.0447e+01	4.1726	16.469495	0.000375	3.749369	1.270321	0.000150
 107	1.0547e+01	4.2207	16.626944	0.000395	3.952037	1.338986	0.000158
 108	1.0646e+01	4.2528	16.844949	0.000547	5.472052	1.853981	0.000219
 109	1.0746e+01	4.2977	17.014509	0.000426	4.256040	1.441985	0.000170
 110	1.0845e+01	4.3394	17.167920	0.000385	3.850703	1.304654	0.000154
 111	1.0945e+01	4.3892	17.353628	0.000466	4.661377	1.579317	0.000187
 112	1.1044e+01	4.4100	17.543373	0.000476	4.762712	1.613650	0.000191
 113	1.1144e+01	4.4534	17.676599	0.000334	3.344032	1.132989	0.000134
 114	1.1243e+01	4.5015	17.874418	0.000497	4.965380	1.682316	0.000199
 115	1.1343e+01	4.5352	18.072238	0.000497	4.965380	1.682316	0.000199
 116	1.1443e+01	4.5769	18.197389	0.000314	3.141363	1.064323	0.000126
 117	1.1542e+01	4.6202	18.379060	0.000456	4.560043	1.544984	0.000183
 118	1.1642e+01	4.6587	18.552657	0.000436	4.357374	1.476318	0.000174
 119	1.1741e+01	4.6956	18.718180	0.000415	4.154706	1.407652	0.000166
 120	1.1841e+01	4.7357	18.867554	0.000375	3.749369	1.270321	0.000150
 121	1.1940e+01	4.7774	19.045188	0.000446	4.458709	1.510651	0.000179
 122	1.2040e+01	4.8127	19.206673	0.000405	4.053372	1.373319	0.000162
 123	1.2139e+01	4.8448	19.376233	0.000426	4.256040	1.441985	0.000170
 124	1.2239e+01	4.8881	19.565978	0.000476	4.762712	1.613650	0.000191
 125	1.2338e+01	4.9234	19.739575	0.000436	4.357374	1.476318	0.000174
 126	1.2438e+01	4.9699	19.848578	0.000274	2.736026	0.926991	0.000110
 127	1.2537e+01	5.0212	20.026212	0.000446	4.458709	1.510651	0.000179
 128	1.2636e+01	5.0614	20.236143	0.000527	5.269383	1.785315	0.000211
 129	1.2736e+01	5.0918	20.405703	0.000426	4.256040	1.441985	0.000170
 130	1.2835e+01	5.1384	20.542965	0.000345	3.445366	1.167322	0.000138
 131	1.2935e+01	5.1704	20.777119	0.000588	5.877389	1.991313	0.000235
 132	1.3034e+01	5.2170	20.890159	0.000284	2.837360	0.961324	0.000114
 133	1.3134e+01	5.2555	21.083941	0.000486	4.864046	1.647983	0.000195
 134	1.3233e+01	5.2924	21.196981	0.000284	2.837360	0.961324	0.000114
 135	1.3333e+01	5.3341	21.406912	0.000527	5.269383	1.785315	0.000211
 136	1.3432e+01	5.3726	21.564361	0.000395	3.952037	1.338986	0.000158
 137	1.3532e+01	5.4095	21.737957	0.000436	4.357374	1.476318	0.000174
 138	1.3632e+01	5.4496	21.895406	0.000395	3.952037	1.338986	0.000158
 139	1.3731e+01	5.4881	22.060928	0.000415	4.154706	1.407652	0.000166
 140	1.3831e+01	5.5298	22.214339	0.000385	3.850703	1.304654	0.000154
 141	1.3930e+01	5.5619	22.428308	0.000537	5.370717	1.819648	0.000215
 142	1.4030e+01	5.6068	22.529236	0.000253	2.533357	0.858325	0.000101
 143	1.4129e+01	5.6565	22.698796	0.000426	4.256040	1.441985	0.000170
 144	1.4229e+01	5.6854	22.880467	0.000456	4.560043	1.544984	0.000183
 145	1.4328e+01	5.7287	23.070212	0.000476	4.762712	1.613650	0.000191
 146	1.4428e+01	5.7720	23.207475	0.000345	3.445366	1.167322	0.000138
 147	1.4527e+01	5.8057	23.381072	0.000436	4.357374	1.476318	0.000174
 148	1.4627e+01	5.8522	23.534483	0.000385	3.850703	1.304654	0.000154
 149	1.4726e+01	5.8875	23.728265	0.000486	4.864046	1.647983	0.000195
 150	1.4825e+01	5.9260	23.861491	0.000334	3.344032	1.132989	0.000134
 151	1.4925e+01	5.9726	23.986642	0.000314	3.141363	1.064323	0.000126
 152	1.5024e+01	6.0030	24.196573	0.000527	5.269383	1.785315	0.000211
 153	1.5124e+01	6.0512	24.321724	0.000314	3.141363	1.064323	0.000126
 154	1.5223e+01	6.0849	24.507432	0.000466	4.661377	1.579317	0.000187
 155	1.5323e+01	6.1201	24.681029	0.000436	4.357374	1.476318	0.000174
 156	1.5422e+01	6.1619	24.846552	0.000415	4.154706	1.407652	0.000166
 157	1.5522e+01	6.2116	24.979777	0.000334	3.344032	1.132989	0.000134
 158	1.5621e+01	6.2501	25.173560	0.000486	4.864046	1.647983	0.000195
 159	1.5721e+01	6.2886	25.306785	0.000334	3.344032	1.132989	0.000134
 160	1.5820e+01	6.3351	25.468271	0.000405	4.053372	1.373319	0.000162
 161	1.5920e+01	6.3656	25.617645	0.000375	3.749369	1.270321	0.000150
 162	1.6020e+01	6.4137	25.819502	0.000507	5.066715	1.716649	0.000203
 163	1.6119e+01	6.4490	25.956764	0.000345	3.445366	1.167322	0.000138
 164	1.6218e+01	6.4843	26.130361	0.000436	4.357374	1.476318	0.000174
 165	1.6318e+01	6.5228	26.255512	0.000314	3.141363	1.064323	0.000126
 166	1.6418e+01	6.5661	26.453332	0.000497	4.965380	1.682316	0.000199
 167	1.6517e+01	6.6062	26.598669	0.000365	3.648034	1.235988	0.000146
 168	1.6616e+01	6.6447	26.788414	0.000476	4.762712	1.613650	0.000191
 169	1.6716e+01	6.6864	26.941825	0.000385	3.850703	1.304654	0.000154
 170	1.6816e+01	6.7265	27.095237	0.000385	3.850703	1.304654	0.000154
 171	1.6915e+01	6.7618	27.236536	0.000355	3.546700	1.201655	0.000142
 172	1.7015e+01	6.8052	27.422245	0.000466	4.661377	1.579317	0.000187
 173	1.7114e+01	6.8453	27.551433	0.000324	3.242697	1.098656	0.000130
 174	1.7213e+01	6.8886	27.729067	0.000446	4.458709	1.510651	0.000179
 175	1.7313e+01	6.9255	27.850181	0.000304	3.040029	1.029990	0.000122
 176	1.7413e+01	6.9624	28.023778	0.000436	4.357374	1.476318	0.000174
 177	1.7512e+01	7.0105	28.209486	0.000466	4.661377	1.579317	0.000187
 178	1.7611e+01	7.0378	28.358860	0.000375	3.749369	1.270321	0.000150
 179	1.7711e+01	7.0843	28.496123	0.000345	3.445366	1.167322	0.000138
 180	1.7811e+01	7.1292	28.665682	0.000426	4.256040	1.441985	0.000170
 181	1.7910e+01	7.1709	28.831205	0.000415	4.154706	1.407652	0.000166
 182	1.8009e+01	7.1998	28.980579	0.000375	3.749369	1.270321	0.000150
 183	1.8109e+01	7.2527	29.154176	0.000436	4.357374	1.476318	0.000174
 184	1.8209e+01	7.2784	29.303550	0.000375	3.749369	1.270321	0.000150
 185	1.8308e+01	7.3217	29.420627	0.000294	2.938694	0.995657	0.000118
 186	1.8407e+01	7.3602	29.626521	0.000517	5.168049	1.750982	0.000207
 187	1.8507e+01	7.4019	29.775895	0.000375	3.749369	1.270321	0.000150
 188	1.8607e+01	7.4388	29.905083	0.000324	3.242697	1.098656	0.000130
 189	1.8706e+01	7.4821	30.070606	0.000415	4.154706	1.407652	0.000166
 190	1.8805e+01	7.5271	30.179608	0.000274	2.736026	0.926991	0.000110
 191	1.8905e+01	7.5688	30.357242	0.000446	4.458709	1.510651	0.000179
 192	1.9005e+01	7.6009	30.490468	0.000334	3.344032	1.132989	0.000134
 193	1.9104e+01	7.6490	30.651953	0.000405	4.053372	1.373319	0.000162
 194	1.9203e+01	7.6698	30.849773	0.000497	4.965380	1.682316	0.000199
 195	1.9303e+01	7.7244	30.954738	0.000263	2.634692	0.892658	0.000105
 196	1.9402e+01	7.7629	31.124298	0.000426	4.256040	1.441985	0.000170
 197	1.9502e+01	7.7950	31.269635	0.000365	3.648034	1.235988	0.000146
 198	1.9602e+01	7.8383	31.386712	0.000294	2.938694	0.995657	0.000118
 199	1.9701e+01	7.8832	31.564346	0.000446	4.458709	1.510651	0.000179
 200	1.9800e+01	7.9201	31.717757	0.000385	3.850703	1.304654	0.000154
 201	1.9900e+01	7.9554	31.875205	0.000395	3.952037	1.338986	0.000158
 202	2.0000e+01	8.0003	32.024579	0.000375	3.749369	1.270321	0.000150
 203	2.0099e+01	8.0420	32.190102	0.000415	4.154706	1.407652	0.000166
 204	2.0198e+01	8.0885	32.327364	0.000345	3.445366	1.167322	0.000138
 205	2.0298e+01	8.1142	32.480776	0.000385	3.850703	1.304654	0.000154
 206	2.0398e+01	8.1720	32.634187	0.000385	3.850703	1.304654	0.000154
 207	2.0497e+01	8.1976	32.791635	0.000395	3.952037	1.338986	0.000158
 208	2.0596e+01	8.2361	32.920823	0.000324	3.242697	1.098656	0.000130
 209	2.0696e+01	8.2778	33.066160	0.000365	3.648034	1.235988	0.000146
 210	2.0796e+01	8.3179	33.263980	0.000497	4.965380	1.682316	0.000199
 211	2.0895e+01	8.3581	33.377020	0.000284	2.837360	0.961324	0.000114
 212	2.0994e+01	8.3966	33.522357	0.000365	3.648034	1.235988	0.000146
 213	2.1094e+01	8.4335	33.691916	0.000426	4.256040	1.441985	0.000170
 214	2.1194e+01	8.4832	33.817068	0.000314	3.141363	1.064323	0.000126
 215	2.1293e+01	8.5249	34.006813	0.000476	4.762712	1.613650	0.000191
 216	2.1392e+01	8.5618	34.140038	0.000334	3.344032	1.132989	0.000134
 217	2.1492e+01	8.5987	34.220781	0.000203	2.026686	0.686660	0.000081
 218	2.1591e+01	8.6340	34.422638	0.000507	5.066715	1.716649	0.000203
 219	2.1691e+01	8.6789	34.567975	0.000365	3.648034	1.235988	0.000146
 220	2.1791e+01	8.7206	34.701200	0.000334	3.344032	1.132989	0.000134
 221	2.1890e+01	8.7495	34.886908	0.000466	4.661377	1.579317	0.000187
 222	2.1989e+01	8.7976	35.076654	0.000476	4.762712	1.613650	0.000191
 223	2.2089e+01	8.8393	35.133174	0.000142	1.418680	0.480662	0.000057
 224	2.2189e+01	8.8746	35.343105	0.000527	5.269383	1.785315	0.000211
 225	2.2288e+01	8.9211	35.472293	0.000324	3.242697	1.098656	0.000130
 226	2.2387e+01	8.9677	35.629741	0.000395	3.952037	1.338986	0.000158
 227	2.2487e+01	9.0030	35.730670	0.000253	2.533357	0.858325	0.000101
 228	2.2587e+01	9.0382	35.916378	0.000466	4.661377	1.579317	0.000187
 229	2.2686e+01	9.0735	36.053641	0.000345	3.445366	1.167322	0.000138
 230	2.2785e+01	9.1185	36.186866	0.000334	3.344032	1.132989	0.000134
 231	2.2885e+01	9.1554	36.328166	0.000355	3.546700	1.201655	0.000142
 232	2.2985e+01	9.1987	36.465429	0.000345	3.445366	1.167322	0.000138
 233	2.3084e+01	9.2404	36.643063	0.000446	4.458709	1.510651	0.000179
 234	2.3183e+01	9.2677	36.780325	0.000345	3.445366	1.167322	0.000138
 235	2.3283e+01	9.3238	36.913551	0.000334	3.344032	1.132989	0.000134
 236	2.3383e+01	9.3527	37.054850	0.000355	3.546700	1.201655	0.000142
 237	2.3482e+01	9.4040	37.244596	0.000476	4.762712	1.613650	0.000191
 238	2.3581e+01	9.4457	37.369747	0.000314	3.141363	1.064323	0.000126
 239	2.3681e+01	9.4778	37.482787	0.000284	2.837360	0.961324	0.000114
 240	2.3780e+01	9.5227	37.632161	0.000375	3.749369	1.270321	0.000150
 241	2.3880e+01	9.5580	37.781535	0.000375	3.749369	1.270321	0.000150
 242	2.3980e+01	9.5933	37.951095	0.000426	4.256040	1.441985	0.000170
 243	2.4079e+01	9.6382	38.096431	0.000365	3.648034	1.235988	0.000146
 244	2.4178e+01	9.6799	38.233694	0.000345	3.445366	1.167322	0.000138
 245	2.4278e+01	9.7088	38.346734	0.000284	2.837360	0.961324	0.000114
 246	2.4378e+01	9.7393	38.500145	0.000385	3.850703	1.304654	0.000154
 247	2.4477e+01	9.7922	38.629333	0.000324	3.242697	1.098656	0.000130
 248	2.4576e+01	9.8372	38.802930	0.000436	4.357374	1.476318	0.000174
 249	2.4676e+01	9.8724	38.952304	0.000375	3.749369	1.270321	0.000150
 250	2.4776e+01	9.9174	39.057270	0.000263	2.634692	0.892658	0.000105
 251	2.4875e+01	9.9495	39.230867	0.000436	4.357374	1.476318	0.000174
 252	2.4974e+01	9.9960	39.351981	0.000304	3.040029	1.029990	0.000122
 253	2.5074e+01	10.0377	39.529615	0.000446	4.458709	1.510651	0.000179
 254	2.5174e+01	10.0714	39.630543	0.000253	2.533357	0.858325	0.000101
 255	2.5273e+01	10.1163	39.759731	0.000324	3.242697	1.098656	0.000130
 256	2.5372e+01	10.1452	39.901031	0.000355	3.546700	1.201655	0.000142
 257	2.5472e+01	10.1949	40.030219	0.000324	3.242697	1.098656	0.000130
 258	2.5572e+01	10.2366	40.175556	0.000365	3.648034	1.235988	0.000146
 259	2.5671e+01	10.2799	40.333005	0.000395	3.952037	1.338986	0.000158
 260	2.5770e+01	10.3088	40.486416	0.000385	3.850703	1.304654	0.000154
 261	2.5870e+01	10.3537	40.587344	0.000253	2.533357	0.858325	0.000101
 262	2.5970e+01	10.3890	40.764978	0.000446	4.458709	1.510651	0.000179
 263	2.6069e+01	10.4259	40.890129	0.000314	3.141363	1.064323	0.000126
 264	2.6169e+01	10.4740	41.043540	0.000385	3.850703	1.304654	0.000154
 265	2.6268e+01	10.5093	41.237323	0.000486	4.864046	1.647983	0.000195
 266	2.6367e+01	10.5430	41.322103	0.000213	2.128020	0.720993	0.000085
