»»»»»»»»»»»»»»»»»»»»»»»»»»»»»»»»»»»» Hysteresis ««««««««««««««««««««««««««««««««««««
»»»  Executed Version:	5.48.1
»»»  Vision Version:	5.48.4 (R)
»»»  Vision Compiled:	9/18/24
»»»  Driver Version:	5.47.0
»»»  Windows Version:	Windows 8 or 8.1
»»»  Processor Information:	x86 (AMD or Intel) - 32 Processors
»»»  Tester Name:	PMF21124-494 (100V)
»»»  Tester S/N:	PMF21124-494
»»»  Internal Amp Type:	100V RevK 270k
»»»  Internal Amp S/N:	iAB2-596/K     
»»»  Execution Count:	1
»»»»»»»»»»»»»»»»»»»»»»»»»»»»»»»»»»»»»»»»»»««««««««««««««««««««««««««««««««««««««««««

Stored:	6/13/2025 - 17:44:42
Configured:	06/13/25 05:21:47 PM
Executed:	06/13/25 05:44:01 PM

»»»»»»»»»»»»»»»»»»»»»»»»»»»»»»»»»»» Sample Info ««««««««««««««««««««««««««««««««««««
Sample Name:	
Lot Name:	
Wafer Name:	
Die Row/Column:	0/0
Capacitor Number:	0
Sample Area (cm2):	1.00e-04
Sample Thickness (microns):	3.00e-01

Amplifier:	Internal

»»»»»»»»»»»»»»»»»»»»»»»»»»»»»»»»»»» Tester Info «««««««««««««««««««««««««««««««««««
Tester Name:	PMF21124-494 (100V)
Tester Serial Number:	PMF21124-494
Return Signal Amp. Level:	0.19 [Index: 3]

»»»»»»»»»»»»»»»»»»»»»»»»»»»»»»»» Hysteresis Info ««««««««««««««««««««««««««««««««««
Task Name:	Hyst-2150
Volts:	20.00
Field:	666.67 (kV/cm)
DCBias:	0.00
DCField:	0.00 (kV/cm)
Hysteresis Period (ms):	2.00e+02
Preset:	Enabled
Preset Delay (ms):	1.00e+03
Profile:	Standard Bipolar

»»»»»»»»»»»»»»»»»»»»»»»»»»»»»»»»»»»»»» Data «««««««««««««««««««««««««««««««««««««««
Points:	2009

Valid Data

Point	Time (ms)	Drive Voltage	Measured Polarization (uC/cm2)	Capacitance (uF)	Normalized Capacitance (uF/cm2)	Dielectric Constant	Instantaneous Current (mA)
   1	0.0000e+00	0.0000	-8.011696	0.000304	3.041065	1.030341	0.000122
   2	9.9500e-02	0.0225	-7.890582	0.000304	3.041065	1.030341	0.000122
   3	1.9900e-01	0.0738	-7.757356	0.000335	3.345172	1.133375	0.000134
   4	2.9850e-01	0.1059	-7.616057	0.000355	3.547910	1.202064	0.000142
   5	3.9800e-01	0.1492	-7.426311	0.000476	4.764336	1.614201	0.000191
   6	4.9750e-01	0.1845	-7.337494	0.000223	2.230115	0.755583	0.000089
   7	5.9700e-01	0.2278	-7.163897	0.000436	4.358860	1.476822	0.000174
   8	6.9650e-01	0.2695	-7.010486	0.000385	3.852016	1.305098	0.000154
   9	7.9600e-01	0.3128	-6.804592	0.000517	5.169811	1.751579	0.000207
  10	8.9550e-01	0.3561	-6.687515	0.000294	2.939697	0.995996	0.000118
  11	9.9500e-01	0.3898	-6.513919	0.000436	4.358860	1.476822	0.000174
  12	1.0945e+00	0.4315	-6.344359	0.000426	4.257492	1.442477	0.000170
  13	1.1940e+00	0.4572	-6.194985	0.000375	3.750647	1.270754	0.000150
  14	1.2935e+00	0.5037	-6.037536	0.000395	3.953385	1.339443	0.000158
  15	1.3930e+00	0.5454	-5.880088	0.000395	3.953385	1.339443	0.000158
  16	1.4925e+00	0.5888	-5.682269	0.000497	4.967074	1.682890	0.000199
  17	1.5920e+00	0.6289	-5.565192	0.000294	2.939697	0.995996	0.000118
  18	1.6915e+00	0.6577	-5.419855	0.000365	3.649279	1.236409	0.000146
  19	1.7910e+00	0.6994	-5.226072	0.000487	4.865705	1.648545	0.000195
  20	1.8905e+00	0.7444	-5.080735	0.000365	3.649279	1.236409	0.000146
  21	1.9900e+00	0.7893	-4.935398	0.000365	3.649279	1.236409	0.000146
  22	2.0895e+00	0.8246	-4.777950	0.000395	3.953385	1.339443	0.000158
  23	2.1890e+00	0.8583	-4.620502	0.000395	3.953385	1.339443	0.000158
  24	2.2885e+00	0.9080	-4.438831	0.000456	4.561598	1.545511	0.000183
  25	2.3880e+00	0.9481	-4.321754	0.000294	2.939697	0.995996	0.000118
  26	2.4875e+00	0.9850	-4.123934	0.000497	4.967074	1.682890	0.000199
  27	2.5870e+00	1.0267	-3.930152	0.000487	4.865705	1.648545	0.000195
  28	2.6865e+00	1.0652	-3.805000	0.000314	3.142434	1.064686	0.000126
  29	2.7860e+00	1.1101	-3.659664	0.000365	3.649279	1.236409	0.000146
  30	2.8855e+00	1.1438	-3.502215	0.000395	3.953385	1.339443	0.000158
  31	2.9850e+00	1.1871	-3.308433	0.000487	4.865705	1.648545	0.000195
  32	3.0845e+00	1.2256	-3.163096	0.000365	3.649279	1.236409	0.000146
  33	3.1840e+00	1.2641	-3.005648	0.000395	3.953385	1.339443	0.000158
  34	3.2835e+00	1.3058	-2.860311	0.000365	3.649279	1.236409	0.000146
  35	3.3830e+00	1.3443	-2.658454	0.000507	5.068442	1.717235	0.000203
  36	3.4825e+00	1.3828	-2.488894	0.000426	4.257492	1.442477	0.000170
  37	3.5820e+00	1.4181	-2.327409	0.000405	4.054754	1.373788	0.000162
  38	3.6815e+00	1.4631	-2.145738	0.000456	4.561598	1.545511	0.000183
  39	3.7810e+00	1.4984	-2.032698	0.000284	2.838328	0.961651	0.000114
  40	3.8805e+00	1.5401	-1.863138	0.000426	4.257492	1.442477	0.000170
  41	3.9800e+00	1.5850	-1.705690	0.000395	3.953385	1.339443	0.000158
  42	4.0795e+00	1.6203	-1.524019	0.000456	4.561598	1.545511	0.000183
  43	4.1790e+00	1.6604	-1.390793	0.000335	3.345172	1.133375	0.000134
  44	4.2785e+00	1.7117	-1.205085	0.000466	4.662967	1.579856	0.000187
  45	4.3780e+00	1.7438	-1.043600	0.000405	4.054754	1.373788	0.000162
  46	4.4775e+00	1.7743	-0.865966	0.000446	4.460229	1.511167	0.000179
  47	4.5770e+00	1.8320	-0.724666	0.000355	3.547910	1.202064	0.000142
  48	4.6765e+00	1.8657	-0.559143	0.000416	4.156123	1.408133	0.000166
  49	4.7760e+00	1.8962	-0.413806	0.000365	3.649279	1.236409	0.000146
  50	4.8755e+00	1.9443	-0.240210	0.000436	4.358860	1.476822	0.000174
  51	4.9750e+00	1.9812	-0.074687	0.000416	4.156123	1.408133	0.000166
  52	5.0745e+00	2.0213	0.066613	0.000355	3.547910	1.202064	0.000142
  53	5.1740e+00	2.0614	0.252321	0.000466	4.662967	1.579856	0.000187
  54	5.2735e+00	2.0967	0.405732	0.000385	3.852016	1.305098	0.000154
  55	5.3730e+00	2.1417	0.563180	0.000395	3.953385	1.339443	0.000158
  56	5.4725e+00	2.1802	0.756963	0.000487	4.865705	1.648545	0.000195
  57	5.5720e+00	2.2187	0.890188	0.000335	3.345172	1.133375	0.000134
  58	5.6715e+00	2.2620	1.075897	0.000466	4.662967	1.579856	0.000187
  59	5.7710e+00	2.3037	1.205085	0.000324	3.243803	1.099030	0.000130
  60	5.8705e+00	2.3422	1.338310	0.000335	3.345172	1.133375	0.000134
  61	5.9700e+00	2.3871	1.528056	0.000476	4.764336	1.614201	0.000191
  62	6.0695e+00	2.4288	1.725876	0.000497	4.967074	1.682890	0.000199
  63	6.1690e+00	2.4529	1.838915	0.000284	2.838328	0.961651	0.000114
  64	6.2685e+00	2.5058	2.032698	0.000487	4.865705	1.648545	0.000195
  65	6.3680e+00	2.5427	2.194183	0.000405	4.054754	1.373788	0.000162
  66	6.4675e+00	2.5812	2.351632	0.000395	3.953385	1.339443	0.000158
  67	6.5670e+00	2.6149	2.561563	0.000527	5.271180	1.785924	0.000211
  68	6.6665e+00	2.6614	2.678640	0.000294	2.939697	0.995996	0.000118
  69	6.7660e+00	2.6951	2.856274	0.000446	4.460229	1.511167	0.000179
  70	6.8655e+00	2.7464	3.029870	0.000436	4.358860	1.476822	0.000174
  71	6.9650e+00	2.7801	3.167133	0.000345	3.446541	1.167720	0.000138
  72	7.0645e+00	2.8202	3.340730	0.000436	4.358860	1.476822	0.000174
  73	7.1640e+00	2.8587	3.514327	0.000436	4.358860	1.476822	0.000174
  74	7.2635e+00	2.9021	3.671775	0.000395	3.953385	1.339443	0.000158
  75	7.3630e+00	2.9374	3.861520	0.000476	4.764336	1.614201	0.000191
  76	7.4625e+00	2.9807	3.986672	0.000314	3.142434	1.064686	0.000126
  77	7.5620e+00	3.0192	4.176417	0.000476	4.764336	1.614201	0.000191
  78	7.6615e+00	3.0625	4.325791	0.000375	3.750647	1.270754	0.000150
  79	7.7610e+00	3.1026	4.471128	0.000365	3.649279	1.236409	0.000146
  80	7.8605e+00	3.1379	4.664910	0.000487	4.865705	1.648545	0.000195
  81	7.9600e+00	3.1748	4.826396	0.000405	4.054754	1.373788	0.000162
  82	8.0595e+00	3.2181	4.983844	0.000395	3.953385	1.339443	0.000158
  83	8.1590e+00	3.2486	5.141292	0.000395	3.953385	1.339443	0.000158
  84	8.2585e+00	3.2951	5.318926	0.000446	4.460229	1.511167	0.000179
  85	8.3580e+00	3.3368	5.508672	0.000476	4.764336	1.614201	0.000191
  86	8.4575e+00	3.3801	5.658046	0.000375	3.750647	1.270754	0.000150
  87	8.5570e+00	3.4106	5.787234	0.000324	3.243803	1.099030	0.000130
  88	8.6565e+00	3.4587	5.964868	0.000446	4.460229	1.511167	0.000179
  89	8.7560e+00	3.4956	6.146539	0.000456	4.561598	1.545511	0.000183
  90	8.8555e+00	3.5438	6.308025	0.000405	4.054754	1.373788	0.000162
  91	8.9550e+00	3.5790	6.453361	0.000365	3.649279	1.236409	0.000146
  92	9.0545e+00	3.6159	6.667330	0.000537	5.372549	1.820269	0.000215
  93	9.1540e+00	3.6544	6.808629	0.000355	3.547910	1.202064	0.000142
  94	9.2535e+00	3.7042	6.949929	0.000355	3.547910	1.202064	0.000142
  95	9.3530e+00	3.7363	7.147749	0.000497	4.967074	1.682890	0.000199
  96	9.4525e+00	3.7732	7.297123	0.000375	3.750647	1.270754	0.000150
  97	9.5520e+00	3.8197	7.498980	0.000507	5.068442	1.717235	0.000203
  98	9.6515e+00	3.8582	7.599908	0.000253	2.534221	0.858617	0.000101
  99	9.7510e+00	3.9079	7.813876	0.000537	5.372549	1.820269	0.000215
 100	9.8505e+00	3.9320	7.963250	0.000375	3.750647	1.270754	0.000150
 101	9.9500e+00	3.9817	8.104550	0.000355	3.547910	1.202064	0.000142
 102	1.0050e+01	4.0186	8.266035	0.000405	4.054754	1.373788	0.000162
 103	1.0149e+01	4.0539	8.403298	0.000345	3.446541	1.167720	0.000138
 104	1.0248e+01	4.0924	8.621303	0.000547	5.473918	1.854614	0.000219
 105	1.0348e+01	4.1389	8.758566	0.000345	3.446541	1.167720	0.000138
 106	1.0447e+01	4.1742	8.911977	0.000385	3.852016	1.305098	0.000154
 107	1.0547e+01	4.2159	9.109797	0.000497	4.967074	1.682890	0.000199
 108	1.0646e+01	4.2576	9.234948	0.000314	3.142434	1.064686	0.000126
 109	1.0746e+01	4.2993	9.412582	0.000446	4.460229	1.511167	0.000179
 110	1.0845e+01	4.3378	9.586179	0.000436	4.358860	1.476822	0.000174
 111	1.0945e+01	4.3796	9.719404	0.000335	3.345172	1.133375	0.000134
 112	1.1044e+01	4.4181	9.880890	0.000405	4.054754	1.373788	0.000162
 113	1.1144e+01	4.4550	10.046412	0.000416	4.156123	1.408133	0.000166
 114	1.1243e+01	4.4935	10.232121	0.000466	4.662967	1.579856	0.000187
 115	1.1343e+01	4.5320	10.381495	0.000375	3.750647	1.270754	0.000150
 116	1.1443e+01	4.5737	10.522794	0.000355	3.547910	1.202064	0.000142
 117	1.1542e+01	4.6090	10.708503	0.000466	4.662967	1.579856	0.000187
 118	1.1642e+01	4.6523	10.865951	0.000395	3.953385	1.339443	0.000158
 119	1.1741e+01	4.6924	10.995139	0.000324	3.243803	1.099030	0.000130
 120	1.1841e+01	4.7261	11.160662	0.000416	4.156123	1.408133	0.000166
 121	1.1940e+01	4.7758	11.334259	0.000436	4.358860	1.476822	0.000174
 122	1.2040e+01	4.8175	11.487670	0.000385	3.852016	1.305098	0.000154
 123	1.2139e+01	4.8480	11.624932	0.000345	3.446541	1.167720	0.000138
 124	1.2239e+01	4.8945	11.838901	0.000537	5.372549	1.820269	0.000215
 125	1.2338e+01	4.9426	11.964052	0.000314	3.142434	1.064686	0.000126
 126	1.2438e+01	4.9747	12.137649	0.000436	4.358860	1.476822	0.000174
 127	1.2537e+01	5.0100	12.254726	0.000294	2.939697	0.995996	0.000118
 128	1.2636e+01	5.0646	12.444471	0.000476	4.764336	1.614201	0.000191
 129	1.2736e+01	5.0950	12.618068	0.000436	4.358860	1.476822	0.000174
 130	1.2835e+01	5.1255	12.771479	0.000385	3.852016	1.305098	0.000154
 131	1.2935e+01	5.1640	12.924890	0.000385	3.852016	1.305098	0.000154
 132	1.3034e+01	5.2041	13.078301	0.000385	3.852016	1.305098	0.000154
 133	1.3134e+01	5.2571	13.259972	0.000456	4.561598	1.545511	0.000183
 134	1.3233e+01	5.3004	13.393198	0.000335	3.345172	1.133375	0.000134
 135	1.3333e+01	5.3212	13.570832	0.000446	4.460229	1.511167	0.000179
 136	1.3432e+01	5.3694	13.732317	0.000405	4.054754	1.373788	0.000162
 137	1.3532e+01	5.4175	13.865543	0.000335	3.345172	1.133375	0.000134
 138	1.3632e+01	5.4544	14.039140	0.000436	4.358860	1.476822	0.000174
 139	1.3731e+01	5.4977	14.192551	0.000385	3.852016	1.305098	0.000154
 140	1.3831e+01	5.5378	14.378259	0.000466	4.662967	1.579856	0.000187
 141	1.3930e+01	5.5731	14.551856	0.000436	4.358860	1.476822	0.000174
 142	1.4030e+01	5.6020	14.640673	0.000223	2.230115	0.755583	0.000089
 143	1.4129e+01	5.6437	14.830418	0.000476	4.764336	1.614201	0.000191
 144	1.4229e+01	5.6870	14.951532	0.000304	3.041065	1.030341	0.000122
 145	1.4328e+01	5.7432	15.125129	0.000436	4.358860	1.476822	0.000174
 146	1.4428e+01	5.7704	15.314874	0.000476	4.764336	1.614201	0.000191
 147	1.4527e+01	5.8105	15.464248	0.000375	3.750647	1.270754	0.000150
 148	1.4627e+01	5.8458	15.613622	0.000375	3.750647	1.270754	0.000150
 149	1.4726e+01	5.8923	15.758959	0.000365	3.649279	1.236409	0.000146
 150	1.4825e+01	5.9292	15.896222	0.000345	3.446541	1.167720	0.000138
 151	1.4925e+01	5.9677	16.077893	0.000456	4.561598	1.545511	0.000183
 152	1.5024e+01	6.0079	16.259564	0.000456	4.561598	1.545511	0.000183
 153	1.5124e+01	6.0383	16.388753	0.000324	3.243803	1.099030	0.000130
 154	1.5223e+01	6.0993	16.530052	0.000355	3.547910	1.202064	0.000142
 155	1.5323e+01	6.1362	16.671352	0.000355	3.547910	1.202064	0.000142
 156	1.5422e+01	6.1763	16.881283	0.000527	5.271180	1.785924	0.000211
 157	1.5522e+01	6.2052	16.962026	0.000203	2.027377	0.686894	0.000081
 158	1.5621e+01	6.2485	17.135623	0.000436	4.358860	1.476822	0.000174
 159	1.5721e+01	6.2806	17.309219	0.000436	4.358860	1.476822	0.000174
 160	1.5820e+01	6.3319	17.470705	0.000405	4.054754	1.373788	0.000162
 161	1.5920e+01	6.3672	17.607968	0.000345	3.446541	1.167720	0.000138
 162	1.6020e+01	6.4073	17.733119	0.000314	3.142434	1.064686	0.000126
 163	1.6119e+01	6.4442	17.914790	0.000456	4.561598	1.545511	0.000183
 164	1.6218e+01	6.4795	18.068201	0.000385	3.852016	1.305098	0.000154
 165	1.6318e+01	6.5228	18.209501	0.000355	3.547910	1.202064	0.000142
 166	1.6418e+01	6.5661	18.362912	0.000385	3.852016	1.305098	0.000154
 167	1.6517e+01	6.6094	18.500175	0.000345	3.446541	1.167720	0.000138
 168	1.6616e+01	6.6399	18.617251	0.000294	2.939697	0.995996	0.000118
 169	1.6716e+01	6.6816	18.802960	0.000466	4.662967	1.579856	0.000187
 170	1.6816e+01	6.7330	18.932148	0.000324	3.243803	1.099030	0.000130
 171	1.6915e+01	6.7602	19.085559	0.000385	3.852016	1.305098	0.000154
 172	1.7015e+01	6.8036	19.247045	0.000405	4.054754	1.373788	0.000162
 173	1.7114e+01	6.8501	19.376233	0.000324	3.243803	1.099030	0.000130
 174	1.7213e+01	6.8806	19.570015	0.000487	4.865705	1.648545	0.000195
 175	1.7313e+01	6.9207	19.691130	0.000304	3.041065	1.030341	0.000122
 176	1.7413e+01	6.9656	19.824355	0.000335	3.345172	1.133375	0.000134
 177	1.7512e+01	7.0073	19.997952	0.000436	4.358860	1.476822	0.000174
 178	1.7611e+01	7.0474	20.127140	0.000324	3.243803	1.099030	0.000130
 179	1.7711e+01	7.0875	20.264403	0.000345	3.446541	1.167720	0.000138
 180	1.7811e+01	7.1276	20.429925	0.000416	4.156123	1.408133	0.000166
 181	1.7910e+01	7.1581	20.599485	0.000426	4.257492	1.442477	0.000170
 182	1.8009e+01	7.2014	20.712525	0.000284	2.838328	0.961651	0.000114
 183	1.8109e+01	7.2463	20.914382	0.000507	5.068442	1.717235	0.000203
 184	1.8209e+01	7.2784	21.039533	0.000314	3.142434	1.064686	0.000126
 185	1.8308e+01	7.3281	21.188907	0.000375	3.750647	1.270754	0.000150
 186	1.8407e+01	7.3602	21.322132	0.000335	3.345172	1.133375	0.000134
 187	1.8507e+01	7.3971	21.475544	0.000385	3.852016	1.305098	0.000154
 188	1.8607e+01	7.4404	21.580509	0.000264	2.635590	0.892962	0.000105
 189	1.8706e+01	7.4902	21.790440	0.000527	5.271180	1.785924	0.000211
 190	1.8805e+01	7.5206	21.903480	0.000284	2.838328	0.961651	0.000114
 191	1.8905e+01	7.5543	22.048817	0.000365	3.649279	1.236409	0.000146
 192	1.9005e+01	7.6009	22.173968	0.000314	3.142434	1.064686	0.000126
 193	1.9104e+01	7.6378	22.359676	0.000466	4.662967	1.579856	0.000187
 194	1.9203e+01	7.6843	22.496939	0.000345	3.446541	1.167720	0.000138
 195	1.9303e+01	7.7276	22.646313	0.000375	3.750647	1.270754	0.000150
 196	1.9402e+01	7.7597	22.803761	0.000395	3.953385	1.339443	0.000158
 197	1.9502e+01	7.8110	22.941024	0.000345	3.446541	1.167720	0.000138
 198	1.9602e+01	7.8383	23.070212	0.000324	3.243803	1.099030	0.000130
 199	1.9701e+01	7.8816	23.247846	0.000446	4.460229	1.511167	0.000179
 200	1.9800e+01	7.9105	23.368960	0.000304	3.041065	1.030341	0.000122
 201	1.9900e+01	7.9570	23.534483	0.000416	4.156123	1.408133	0.000166
 202	2.0000e+01	7.9987	23.675783	0.000355	3.547910	1.202064	0.000142
 203	2.0099e+01	8.0340	23.817082	0.000355	3.547910	1.202064	0.000142
 204	2.0198e+01	8.0805	23.897825	0.000203	2.027377	0.686894	0.000081
 205	2.0298e+01	8.1190	24.091608	0.000487	4.865705	1.648545	0.000195
 206	2.0398e+01	8.1575	24.220796	0.000324	3.243803	1.099030	0.000130
 207	2.0497e+01	8.2008	24.418616	0.000497	4.967074	1.682890	0.000199
 208	2.0596e+01	8.2393	24.503395	0.000213	2.128746	0.721239	0.000085
 209	2.0696e+01	8.2778	24.660844	0.000395	3.953385	1.339443	0.000158
 210	2.0796e+01	8.3196	24.834440	0.000436	4.358860	1.476822	0.000174
 211	2.0895e+01	8.3532	24.967666	0.000335	3.345172	1.133375	0.000134
 212	2.0994e+01	8.3966	25.113003	0.000365	3.649279	1.236409	0.000146
 213	2.1094e+01	8.4302	25.254303	0.000355	3.547910	1.202064	0.000142
 214	2.1194e+01	8.4832	25.411751	0.000395	3.953385	1.339443	0.000158
 215	2.1293e+01	8.5217	25.500568	0.000223	2.230115	0.755583	0.000089
 216	2.1392e+01	8.5586	25.653979	0.000385	3.852016	1.305098	0.000154
 217	2.1492e+01	8.5955	25.807390	0.000385	3.852016	1.305098	0.000154
 218	2.1591e+01	8.6324	25.948690	0.000355	3.547910	1.202064	0.000142
 219	2.1691e+01	8.6821	26.085953	0.000345	3.446541	1.167720	0.000138
 220	2.1791e+01	8.7222	26.251475	0.000416	4.156123	1.408133	0.000166
 221	2.1890e+01	8.7479	26.364515	0.000284	2.838328	0.961651	0.000114
 222	2.1989e+01	8.7928	26.509852	0.000365	3.649279	1.236409	0.000146
 223	2.2089e+01	8.8329	26.667300	0.000395	3.953385	1.339443	0.000158
 224	2.2189e+01	8.8810	26.808600	0.000355	3.547910	1.202064	0.000142
 225	2.2288e+01	8.9131	26.970085	0.000405	4.054754	1.373788	0.000162
 226	2.2387e+01	8.9548	27.062939	0.000233	2.331483	0.789928	0.000093
 227	2.2487e+01	8.9933	27.175979	0.000284	2.838328	0.961651	0.000114
 228	2.2587e+01	9.0350	27.381873	0.000517	5.169811	1.751579	0.000207
 229	2.2686e+01	9.0719	27.511061	0.000324	3.243803	1.099030	0.000130
 230	2.2785e+01	9.1217	27.632176	0.000304	3.041065	1.030341	0.000122
 231	2.2885e+01	9.1457	27.781550	0.000375	3.750647	1.270754	0.000150
 232	2.2985e+01	9.2019	27.930924	0.000375	3.750647	1.270754	0.000150
 233	2.3084e+01	9.2356	28.068186	0.000345	3.446541	1.167720	0.000138
 234	2.3183e+01	9.2789	28.229672	0.000405	4.054754	1.373788	0.000162
 235	2.3283e+01	9.3190	28.346749	0.000294	2.939697	0.995996	0.000118
 236	2.3383e+01	9.3495	28.492085	0.000365	3.649279	1.236409	0.000146
 237	2.3482e+01	9.3912	28.629348	0.000345	3.446541	1.167720	0.000138
 238	2.3581e+01	9.4313	28.770648	0.000355	3.547910	1.202064	0.000142
 239	2.3681e+01	9.4746	28.895799	0.000314	3.142434	1.064686	0.000126
 240	2.3780e+01	9.5147	29.008839	0.000284	2.838328	0.961651	0.000114
 241	2.3880e+01	9.5628	29.158213	0.000375	3.750647	1.270754	0.000150
 242	2.3980e+01	9.5981	29.303550	0.000365	3.649279	1.236409	0.000146
 243	2.4079e+01	9.6366	29.465035	0.000405	4.054754	1.373788	0.000162
 244	2.4178e+01	9.6671	29.598261	0.000335	3.345172	1.133375	0.000134
 245	2.4278e+01	9.7152	29.715338	0.000294	2.939697	0.995996	0.000118
 246	2.4378e+01	9.7473	29.852600	0.000345	3.446541	1.167720	0.000138
 247	2.4477e+01	9.8019	30.018123	0.000416	4.156123	1.408133	0.000166
 248	2.4576e+01	9.8388	30.155385	0.000345	3.446541	1.167720	0.000138
 249	2.4676e+01	9.8724	30.264388	0.000274	2.736959	0.927307	0.000110
 250	2.4776e+01	9.9110	30.425873	0.000405	4.054754	1.373788	0.000162
 251	2.4875e+01	9.9559	30.530839	0.000264	2.635590	0.892962	0.000105
 252	2.4974e+01	9.9783	30.720584	0.000476	4.764336	1.614201	0.000191
 253	2.5074e+01	10.0329	30.837661	0.000294	2.939697	0.995996	0.000118
 254	2.5174e+01	10.0682	30.970887	0.000335	3.345172	1.133375	0.000134
 255	2.5273e+01	10.1067	31.112187	0.000355	3.547910	1.202064	0.000142
 256	2.5372e+01	10.1580	31.281746	0.000426	4.257492	1.442477	0.000170
 257	2.5472e+01	10.1965	31.374600	0.000233	2.331483	0.789928	0.000093
 258	2.5572e+01	10.2414	31.548197	0.000436	4.358860	1.476822	0.000174
 259	2.5671e+01	10.2719	31.661237	0.000284	2.838328	0.961651	0.000114
 260	2.5770e+01	10.3088	31.786388	0.000314	3.142434	1.064686	0.000126
 261	2.5870e+01	10.3489	31.951911	0.000416	4.156123	1.408133	0.000166
 262	2.5970e+01	10.3986	32.109359	0.000395	3.953385	1.339443	0.000158
 263	2.6069e+01	10.4323	32.234510	0.000314	3.142434	1.064686	0.000126
 264	2.6169e+01	10.4676	32.335439	0.000253	2.534221	0.858617	0.000101
 265	2.6268e+01	10.5125	32.513073	0.000446	4.460229	1.511167	0.000179
 266	2.6367e+01	10.5559	32.622075	0.000274	2.736959	0.927307	0.000110
