»»»»»»»»»»»»»»»»»»»»»»»»»»»»»»»»»»»» Hysteresis ««««««««««««««««««««««««««««««««««««
»»»  Executed Version:	5.48.1
»»»  Vision Version:	5.48.4 (R)
»»»  Vision Compiled:	9/18/24
»»»  Driver Version:	5.47.0
»»»  Windows Version:	Windows 8 or 8.1
»»»  Processor Information:	x86 (AMD or Intel) - 32 Processors
»»»  Tester Name:	PMF21124-494 (100V)
»»»  Tester S/N:	PMF21124-494
»»»  Internal Amp Type:	100V RevK 270k
»»»  Internal Amp S/N:	iAB2-596/K     
»»»  Execution Count:	1
»»»»»»»»»»»»»»»»»»»»»»»»»»»»»»»»»»»»»»»»»»««««««««««««««««««««««««««««««««««««««««««

Stored:	6/16/2025 - 10:26:1
Configured:	06/16/25 10:13:01 AM
Executed:	06/16/25 10:25:16 AM

»»»»»»»»»»»»»»»»»»»»»»»»»»»»»»»»»»» Sample Info ««««««««««««««««««««««««««««««««««««
Sample Name:	
Lot Name:	
Wafer Name:	
Die Row/Column:	0/0
Capacitor Number:	0
Sample Area (cm2):	1.00e-04
Sample Thickness (microns):	3.00e-01

Amplifier:	Internal

»»»»»»»»»»»»»»»»»»»»»»»»»»»»»»»»»»» Tester Info «««««««««««««««««««««««««««««««««««
Tester Name:	PMF21124-494 (100V)
Tester Serial Number:	PMF21124-494
Return Signal Amp. Level:	0.19 [Index: 3]

»»»»»»»»»»»»»»»»»»»»»»»»»»»»»»»» Hysteresis Info ««««««««««««««««««««««««««««««««««
Task Name:	Hyst-2190
Volts:	20.00
Field:	666.67 (kV/cm)
DCBias:	0.00
DCField:	0.00 (kV/cm)
Hysteresis Period (ms):	2.00e+02
Preset:	Enabled
Preset Delay (ms):	1.00e+03
Profile:	Standard Bipolar

»»»»»»»»»»»»»»»»»»»»»»»»»»»»»»»»»»»»»» Data «««««««««««««««««««««««««««««««««««««««
Points:	2009

Valid Data

Point	Time (ms)	Drive Voltage	Measured Polarization (uC/cm2)	Capacitance (uF)	Normalized Capacitance (uF/cm2)	Dielectric Constant	Instantaneous Current (mA)
   1	0.0000e+00	-0.0160	-0.143318	0.000253	2.533154	0.858256	0.000101
   2	9.9500e-02	0.0160	-0.042390	0.000253	2.533154	0.858256	0.000101
   3	1.9900e-01	0.0545	0.070650	0.000284	2.837133	0.961247	0.000114
   4	2.9850e-01	0.0979	0.248284	0.000446	4.458351	1.510530	0.000179
   5	3.9800e-01	0.1364	0.405732	0.000395	3.951720	1.338879	0.000158
   6	4.9750e-01	0.1749	0.591440	0.000466	4.661003	1.579191	0.000187
   7	5.9700e-01	0.2198	0.696406	0.000263	2.634480	0.892586	0.000105
   8	6.9650e-01	0.2599	0.886151	0.000476	4.762330	1.613521	0.000191
   9	7.9600e-01	0.3032	1.023414	0.000345	3.445090	1.167228	0.000138
  10	8.9550e-01	0.3385	1.144528	0.000304	3.039785	1.029907	0.000122
  11	9.9500e-01	0.3706	1.342348	0.000496	4.964982	1.682181	0.000199
  12	1.0945e+00	0.4219	1.471536	0.000324	3.242437	1.098567	0.000130
  13	1.1940e+00	0.4540	1.604761	0.000334	3.343763	1.132898	0.000134
  14	1.2935e+00	0.4989	1.822767	0.000547	5.471613	1.853833	0.000219
  15	1.3930e+00	0.5326	1.923695	0.000253	2.533154	0.858256	0.000101
  16	1.4925e+00	0.5775	2.125552	0.000507	5.066308	1.716512	0.000203
  17	1.5920e+00	0.6224	2.246666	0.000304	3.039785	1.029907	0.000122
  18	1.6915e+00	0.6545	2.383929	0.000345	3.445090	1.167228	0.000138
  19	1.7910e+00	0.6978	2.545414	0.000405	4.053047	1.373209	0.000162
  20	1.8905e+00	0.7347	2.686714	0.000355	3.546416	1.201558	0.000142
  21	1.9900e+00	0.7716	2.848199	0.000405	4.053047	1.373209	0.000162
  22	2.0895e+00	0.8069	2.997573	0.000375	3.749068	1.270219	0.000150
  23	2.1890e+00	0.8535	3.171170	0.000436	4.357025	1.476200	0.000174
  24	2.2885e+00	0.8887	3.336693	0.000415	4.154373	1.407540	0.000166
  25	2.3880e+00	0.9449	3.494141	0.000395	3.951720	1.338879	0.000158
  26	2.4875e+00	0.9770	3.643515	0.000375	3.749068	1.270219	0.000150
  27	2.5870e+00	1.0171	3.776740	0.000334	3.343763	1.132898	0.000134
  28	2.6865e+00	1.0524	3.938226	0.000405	4.053047	1.373209	0.000162
  29	2.7860e+00	1.0973	4.027043	0.000223	2.229176	0.755265	0.000089
  30	2.8855e+00	1.1278	4.313680	0.000719	7.194158	2.437447	0.000288
  31	2.9850e+00	1.1743	4.442868	0.000324	3.242437	1.098567	0.000130
  32	3.0845e+00	1.2144	4.580130	0.000345	3.445090	1.167228	0.000138
  33	3.1840e+00	1.2497	4.749690	0.000426	4.255699	1.441870	0.000170
  34	3.2835e+00	1.2962	4.878879	0.000324	3.242437	1.098567	0.000130
  35	3.3830e+00	1.3363	5.040364	0.000405	4.053047	1.373209	0.000162
  36	3.4825e+00	1.3748	5.181664	0.000355	3.546416	1.201558	0.000142
  37	3.5820e+00	1.4085	5.331038	0.000375	3.749068	1.270219	0.000150
  38	3.6815e+00	1.4470	5.524820	0.000486	4.863656	1.647851	0.000195
  39	3.7810e+00	1.4935	5.726677	0.000507	5.066308	1.716512	0.000203
  40	3.8805e+00	1.5336	5.880088	0.000385	3.850394	1.304549	0.000154
  41	3.9800e+00	1.5721	5.985054	0.000263	2.634480	0.892586	0.000105
  42	4.0795e+00	1.6155	6.166725	0.000456	4.559677	1.544860	0.000183
  43	4.1790e+00	1.6508	6.308025	0.000355	3.546416	1.201558	0.000142
  44	4.2785e+00	1.6860	6.477584	0.000426	4.255699	1.441870	0.000170
  45	4.3780e+00	1.7390	6.622921	0.000365	3.647742	1.235888	0.000146
  46	4.4775e+00	1.7711	6.760184	0.000345	3.445090	1.167228	0.000138
  47	4.5770e+00	1.8112	6.933781	0.000436	4.357025	1.476200	0.000174
  48	4.6765e+00	1.8465	7.119489	0.000466	4.661003	1.579191	0.000187
  49	4.7760e+00	1.8978	7.256751	0.000345	3.445090	1.167228	0.000138
  50	4.8755e+00	1.9299	7.450534	0.000486	4.863656	1.647851	0.000195
  51	4.9750e+00	1.9684	7.579722	0.000324	3.242437	1.098567	0.000130
  52	5.0745e+00	2.0197	7.753319	0.000436	4.357025	1.476200	0.000174
  53	5.1740e+00	2.0502	7.930953	0.000446	4.458351	1.510530	0.000179
  54	5.2735e+00	2.0791	8.076290	0.000365	3.647742	1.235888	0.000146
  55	5.3730e+00	2.1256	8.225664	0.000375	3.749068	1.270219	0.000150
  56	5.4725e+00	2.1689	8.395224	0.000426	4.255699	1.441870	0.000170
  57	5.5720e+00	2.2138	8.500189	0.000263	2.634480	0.892586	0.000105
  58	5.6715e+00	2.2491	8.762603	0.000659	6.586201	2.231465	0.000264
  59	5.7710e+00	2.2844	8.871606	0.000274	2.735806	0.926916	0.000110
  60	5.8705e+00	2.3261	9.049240	0.000446	4.458351	1.510530	0.000179
  61	5.9700e+00	2.3646	9.206688	0.000395	3.951720	1.338879	0.000158
  62	6.0695e+00	2.4112	9.392396	0.000466	4.661003	1.579191	0.000187
  63	6.1690e+00	2.4577	9.517548	0.000314	3.141111	1.064237	0.000126
  64	6.2685e+00	2.4898	9.715367	0.000496	4.964982	1.682181	0.000199
  65	6.3680e+00	2.5363	9.856667	0.000355	3.546416	1.201558	0.000142
  66	6.4675e+00	2.5716	10.014115	0.000395	3.951720	1.338879	0.000158
  67	6.5670e+00	2.6165	10.171563	0.000395	3.951720	1.338879	0.000158
  68	6.6665e+00	2.6502	10.341123	0.000426	4.255699	1.441870	0.000170
  69	6.7660e+00	2.6951	10.502609	0.000405	4.053047	1.373209	0.000162
  70	6.8655e+00	2.7288	10.664094	0.000405	4.053047	1.373209	0.000162
  71	6.9650e+00	2.7769	10.829617	0.000415	4.154373	1.407540	0.000166
  72	7.0645e+00	2.8074	10.974954	0.000365	3.647742	1.235888	0.000146
  73	7.1640e+00	2.8491	11.152587	0.000446	4.458351	1.510530	0.000179
  74	7.2635e+00	2.8908	11.318110	0.000415	4.154373	1.407540	0.000166
  75	7.3630e+00	2.9213	11.439224	0.000304	3.039785	1.029907	0.000122
  76	7.4625e+00	2.9630	11.612821	0.000436	4.357025	1.476200	0.000174
  77	7.5620e+00	3.0111	11.754121	0.000355	3.546416	1.201558	0.000142
  78	7.6615e+00	3.0448	11.935792	0.000456	4.559677	1.544860	0.000183
  79	7.7610e+00	3.0801	12.105352	0.000426	4.255699	1.441870	0.000170
  80	7.8605e+00	3.1331	12.287023	0.000456	4.559677	1.544860	0.000183
  81	7.9600e+00	3.1587	12.391988	0.000263	2.634480	0.892586	0.000105
  82	8.0595e+00	3.2020	12.589808	0.000496	4.964982	1.682181	0.000199
  83	8.1590e+00	3.2470	12.763405	0.000436	4.357025	1.476200	0.000174
  84	8.2585e+00	3.2919	12.904704	0.000355	3.546416	1.201558	0.000142
  85	8.3580e+00	3.3208	13.090413	0.000466	4.661003	1.579191	0.000187
  86	8.4575e+00	3.3721	13.239787	0.000375	3.749068	1.270219	0.000150
  87	8.5570e+00	3.4106	13.381086	0.000355	3.546416	1.201558	0.000142
  88	8.6565e+00	3.4491	13.526423	0.000365	3.647742	1.235888	0.000146
  89	8.7560e+00	3.4908	13.716169	0.000476	4.762330	1.613521	0.000191
  90	8.8555e+00	3.5149	13.901877	0.000466	4.661003	1.579191	0.000187
  91	8.9550e+00	3.5678	14.031065	0.000324	3.242437	1.098567	0.000130
  92	9.0545e+00	3.6079	14.208699	0.000446	4.458351	1.510530	0.000179
  93	9.1540e+00	3.6560	14.366148	0.000395	3.951720	1.338879	0.000158
  94	9.2535e+00	3.6865	14.535707	0.000426	4.255699	1.441870	0.000170
  95	9.3530e+00	3.7250	14.672970	0.000345	3.445090	1.167228	0.000138
  96	9.4525e+00	3.7699	14.870789	0.000496	4.964982	1.682181	0.000199
  97	9.5520e+00	3.8084	15.032275	0.000405	4.053047	1.373209	0.000162
  98	9.6515e+00	3.8421	15.217983	0.000466	4.661003	1.579191	0.000187
  99	9.7510e+00	3.8887	15.343134	0.000314	3.141111	1.064237	0.000126
 100	9.8505e+00	3.9304	15.532880	0.000476	4.762330	1.613521	0.000191
 101	9.9500e+00	3.9576	15.702439	0.000426	4.255699	1.441870	0.000170
 102	1.0050e+01	4.0042	15.851813	0.000375	3.749068	1.270219	0.000150
 103	1.0149e+01	4.0523	16.009262	0.000395	3.951720	1.338879	0.000158
 104	1.0248e+01	4.0796	16.215156	0.000517	5.167634	1.750842	0.000207
 105	1.0348e+01	4.1277	16.356455	0.000355	3.546416	1.201558	0.000142
 106	1.0447e+01	4.1678	16.501792	0.000365	3.647742	1.235888	0.000146
 107	1.0547e+01	4.2095	16.683463	0.000456	4.559677	1.544860	0.000183
 108	1.0646e+01	4.2432	16.853023	0.000426	4.255699	1.441870	0.000170
 109	1.0746e+01	4.2753	16.994323	0.000355	3.546416	1.201558	0.000142
 110	1.0845e+01	4.3186	17.212328	0.000547	5.471613	1.853833	0.000219
 111	1.0945e+01	4.3667	17.369777	0.000395	3.951720	1.338879	0.000158
 112	1.1044e+01	4.4004	17.503002	0.000334	3.343763	1.132898	0.000134
 113	1.1144e+01	4.4325	17.688710	0.000466	4.661003	1.579191	0.000187
 114	1.1243e+01	4.4758	17.825973	0.000345	3.445090	1.167228	0.000138
 115	1.1343e+01	4.5159	17.959198	0.000334	3.343763	1.132898	0.000134
 116	1.1443e+01	4.5640	18.157018	0.000496	4.964982	1.682181	0.000199
 117	1.1542e+01	4.6074	18.334652	0.000446	4.458351	1.510530	0.000179
 118	1.1642e+01	4.6491	18.520360	0.000466	4.661003	1.579191	0.000187
 119	1.1741e+01	4.6795	18.685883	0.000415	4.154373	1.407540	0.000166
 120	1.1841e+01	4.7277	18.827183	0.000355	3.546416	1.201558	0.000142
 121	1.1940e+01	4.7566	19.020965	0.000486	4.863656	1.647851	0.000195
 122	1.2040e+01	4.8063	19.166302	0.000365	3.647742	1.235888	0.000146
 123	1.2139e+01	4.8352	19.303565	0.000345	3.445090	1.167228	0.000138
 124	1.2239e+01	4.8801	19.501384	0.000496	4.964982	1.682181	0.000199
 125	1.2338e+01	4.9170	19.646721	0.000365	3.647742	1.235888	0.000146
 126	1.2438e+01	4.9523	19.836466	0.000476	4.762330	1.613521	0.000191
 127	1.2537e+01	4.9876	19.997952	0.000405	4.053047	1.373209	0.000162
 128	1.2636e+01	5.0325	20.191734	0.000486	4.863656	1.647851	0.000195
 129	1.2736e+01	5.0822	20.361294	0.000426	4.255699	1.441870	0.000170
 130	1.2835e+01	5.1223	20.462222	0.000253	2.533154	0.858256	0.000101
 131	1.2935e+01	5.1656	20.668116	0.000517	5.167634	1.750842	0.000207
 132	1.3034e+01	5.1993	20.805379	0.000345	3.445090	1.167228	0.000138
 133	1.3134e+01	5.2507	20.987050	0.000456	4.559677	1.544860	0.000183
 134	1.3233e+01	5.2779	21.188907	0.000507	5.066308	1.716512	0.000203
 135	1.3333e+01	5.3196	21.314058	0.000314	3.141111	1.064237	0.000126
 136	1.3432e+01	5.3678	21.483618	0.000426	4.255699	1.441870	0.000170
 137	1.3532e+01	5.3950	21.653178	0.000426	4.255699	1.441870	0.000170
 138	1.3632e+01	5.4351	21.802552	0.000375	3.749068	1.270219	0.000150
 139	1.3731e+01	5.4801	21.951926	0.000375	3.749068	1.270219	0.000150
 140	1.3831e+01	5.5121	22.169931	0.000547	5.471613	1.853833	0.000219
 141	1.3930e+01	5.5619	22.295082	0.000314	3.141111	1.064237	0.000126
 142	1.4030e+01	5.5988	22.472716	0.000446	4.458351	1.510530	0.000179
 143	1.4129e+01	5.6357	22.618053	0.000365	3.647742	1.235888	0.000146
 144	1.4229e+01	5.6854	22.803761	0.000466	4.661003	1.579191	0.000187
 145	1.4328e+01	5.7159	22.977358	0.000436	4.357025	1.476200	0.000174
 146	1.4428e+01	5.7528	23.134806	0.000395	3.951720	1.338879	0.000158
 147	1.4527e+01	5.7945	23.304366	0.000426	4.255699	1.441870	0.000170
 148	1.4627e+01	5.8362	23.437592	0.000334	3.343763	1.132898	0.000134
 149	1.4726e+01	5.8811	23.627337	0.000476	4.762330	1.613521	0.000191
 150	1.4825e+01	5.9276	23.796897	0.000426	4.255699	1.441870	0.000170
 151	1.4925e+01	5.9645	23.946271	0.000375	3.749068	1.270219	0.000150
 152	1.5024e+01	5.9982	24.119867	0.000436	4.357025	1.476200	0.000174
 153	1.5124e+01	6.0447	24.261167	0.000355	3.546416	1.201558	0.000142
 154	1.5223e+01	6.0720	24.398430	0.000345	3.445090	1.167228	0.000138
 155	1.5323e+01	6.1234	24.600287	0.000507	5.066308	1.716512	0.000203
 156	1.5422e+01	6.1458	24.749661	0.000375	3.749068	1.270219	0.000150
 157	1.5522e+01	6.1955	24.935369	0.000466	4.661003	1.579191	0.000187
 158	1.5621e+01	6.2357	25.113003	0.000446	4.458351	1.510530	0.000179
 159	1.5721e+01	6.2742	25.262377	0.000375	3.749068	1.270219	0.000150
 160	1.5820e+01	6.3143	25.423862	0.000405	4.053047	1.373209	0.000162
 161	1.5920e+01	6.3560	25.549014	0.000314	3.141111	1.064237	0.000126
 162	1.6020e+01	6.4041	25.779130	0.000578	5.775591	1.956823	0.000231
 163	1.6119e+01	6.4426	25.952727	0.000436	4.357025	1.476200	0.000174
 164	1.6218e+01	6.4699	26.061730	0.000274	2.735806	0.926916	0.000110
 165	1.6318e+01	6.5196	26.227252	0.000415	4.154373	1.407540	0.000166
 166	1.6418e+01	6.5597	26.396812	0.000426	4.255699	1.441870	0.000170
 167	1.6517e+01	6.5918	26.586557	0.000476	4.762330	1.613521	0.000191
 168	1.6616e+01	6.6319	26.707671	0.000304	3.039785	1.029907	0.000122
 169	1.6716e+01	6.6704	26.897417	0.000476	4.762330	1.613521	0.000191
 170	1.6816e+01	6.7169	27.034679	0.000345	3.445090	1.167228	0.000138
 171	1.6915e+01	6.7378	27.212313	0.000446	4.458351	1.510530	0.000179
 172	1.7015e+01	6.7923	27.385910	0.000436	4.357025	1.476200	0.000174
 173	1.7114e+01	6.8276	27.511061	0.000314	3.141111	1.064237	0.000126
 174	1.7213e+01	6.8838	27.680621	0.000426	4.255699	1.441870	0.000170
 175	1.7313e+01	6.9046	27.854218	0.000436	4.357025	1.476200	0.000174
 176	1.7413e+01	6.9543	28.056075	0.000507	5.066308	1.716512	0.000203
 177	1.7512e+01	6.9929	28.201412	0.000365	3.647742	1.235888	0.000146
 178	1.7611e+01	7.0233	28.330600	0.000324	3.242437	1.098567	0.000130
 179	1.7711e+01	7.0763	28.479974	0.000375	3.749068	1.270219	0.000150
 180	1.7811e+01	7.1116	28.637422	0.000395	3.951720	1.338879	0.000158
 181	1.7910e+01	7.1517	28.823131	0.000466	4.661003	1.579191	0.000187
 182	1.8009e+01	7.1870	28.944245	0.000304	3.039785	1.029907	0.000122
 183	1.8109e+01	7.2367	29.162250	0.000547	5.471613	1.853833	0.000219
 184	1.8209e+01	7.2736	29.303550	0.000355	3.546416	1.201558	0.000142
 185	1.8308e+01	7.3153	29.456961	0.000385	3.850394	1.304549	0.000154
 186	1.8407e+01	7.3490	29.549815	0.000233	2.330502	0.789595	0.000093
 187	1.8507e+01	7.3891	29.747635	0.000496	4.964982	1.682181	0.000199
 188	1.8607e+01	7.4324	29.888934	0.000355	3.546416	1.201558	0.000142
 189	1.8706e+01	7.4709	30.066568	0.000446	4.458351	1.510530	0.000179
 190	1.8805e+01	7.5110	30.203831	0.000345	3.445090	1.167228	0.000138
 191	1.8905e+01	7.5575	30.361279	0.000395	3.951720	1.338879	0.000158
 192	1.9005e+01	7.5800	30.506616	0.000365	3.647742	1.235888	0.000146
 193	1.9104e+01	7.6297	30.660027	0.000385	3.850394	1.304549	0.000154
 194	1.9203e+01	7.6618	30.833624	0.000436	4.357025	1.476200	0.000174
 195	1.9303e+01	7.7099	30.966850	0.000334	3.343763	1.132898	0.000134
 196	1.9402e+01	7.7388	31.092001	0.000314	3.141111	1.064237	0.000126
 197	1.9502e+01	7.7837	31.281746	0.000476	4.762330	1.613521	0.000191
 198	1.9602e+01	7.8319	31.419009	0.000345	3.445090	1.167228	0.000138
 199	1.9701e+01	7.8672	31.616829	0.000496	4.964982	1.682181	0.000199
 200	1.9800e+01	7.9121	31.754091	0.000345	3.445090	1.167228	0.000138
 201	1.9900e+01	7.9442	31.871168	0.000294	2.938459	0.995577	0.000118
 202	2.0000e+01	7.9875	32.032654	0.000405	4.053047	1.373209	0.000162
 203	2.0099e+01	8.0260	32.190102	0.000395	3.951720	1.338879	0.000158
 204	2.0198e+01	8.0709	32.363699	0.000436	4.357025	1.476200	0.000174
 205	2.0298e+01	8.1030	32.500961	0.000345	3.445090	1.167228	0.000138
 206	2.0398e+01	8.1463	32.642261	0.000355	3.546416	1.201558	0.000142
 207	2.0497e+01	8.1944	32.791635	0.000375	3.749068	1.270219	0.000150
 208	2.0596e+01	8.2297	32.953120	0.000405	4.053047	1.373209	0.000162
 209	2.0696e+01	8.2682	33.082309	0.000324	3.242437	1.098567	0.000130
 210	2.0796e+01	8.3051	33.272054	0.000476	4.762330	1.613521	0.000191
 211	2.0895e+01	8.3436	33.417391	0.000365	3.647742	1.235888	0.000146
 212	2.0994e+01	8.3853	33.562728	0.000365	3.647742	1.235888	0.000146
 213	2.1094e+01	8.4254	33.708065	0.000365	3.647742	1.235888	0.000146
 214	2.1194e+01	8.4687	33.877625	0.000426	4.255699	1.441870	0.000170
 215	2.1293e+01	8.5089	33.986627	0.000274	2.735806	0.926916	0.000110
 216	2.1392e+01	8.5409	34.180410	0.000486	4.863656	1.647851	0.000195
 217	2.1492e+01	8.5971	34.253078	0.000182	1.823871	0.617944	0.000073
 218	2.1591e+01	8.6340	34.479158	0.000567	5.674265	1.922493	0.000227
 219	2.1691e+01	8.6645	34.588160	0.000274	2.735806	0.926916	0.000110
 220	2.1791e+01	8.7014	34.725423	0.000345	3.445090	1.167228	0.000138
 221	2.1890e+01	8.7479	34.886908	0.000405	4.053047	1.373209	0.000162
 222	2.1989e+01	8.7800	35.040320	0.000385	3.850394	1.304549	0.000154
 223	2.2089e+01	8.8201	35.201805	0.000405	4.053047	1.373209	0.000162
 224	2.2189e+01	8.8730	35.330993	0.000324	3.242437	1.098567	0.000130
 225	2.2288e+01	8.9035	35.484405	0.000385	3.850394	1.304549	0.000154
 226	2.2387e+01	8.9500	35.617630	0.000334	3.343763	1.132898	0.000134
 227	2.2487e+01	8.9789	35.791227	0.000436	4.357025	1.476200	0.000174
 228	2.2587e+01	9.0350	35.940601	0.000375	3.749068	1.270219	0.000150
 229	2.2686e+01	9.0655	36.081901	0.000355	3.546416	1.201558	0.000142
 230	2.2785e+01	9.1008	36.259535	0.000446	4.458351	1.510530	0.000179
 231	2.2885e+01	9.1441	36.332203	0.000182	1.823871	0.617944	0.000073
 232	2.2985e+01	9.1778	36.534060	0.000507	5.066308	1.716512	0.000203
 233	2.3084e+01	9.2195	36.651137	0.000294	2.938459	0.995577	0.000118
 234	2.3183e+01	9.2677	36.840882	0.000476	4.762330	1.613521	0.000191
 235	2.3283e+01	9.3029	36.953922	0.000284	2.837133	0.961247	0.000114
 236	2.3383e+01	9.3511	37.066962	0.000284	2.837133	0.961247	0.000114
 237	2.3482e+01	9.3816	37.244596	0.000446	4.458351	1.510530	0.000179
 238	2.3581e+01	9.4265	37.389933	0.000365	3.647742	1.235888	0.000146
 239	2.3681e+01	9.4650	37.490861	0.000253	2.533154	0.858256	0.000101
 240	2.3780e+01	9.5051	37.624087	0.000334	3.343763	1.132898	0.000134
 241	2.3880e+01	9.5388	37.813832	0.000476	4.762330	1.613521	0.000191
 242	2.3980e+01	9.5853	37.926872	0.000284	2.837133	0.961247	0.000114
 243	2.4079e+01	9.6222	38.092394	0.000415	4.154373	1.407540	0.000166
 244	2.4178e+01	9.6591	38.197360	0.000263	2.634480	0.892586	0.000105
 245	2.4278e+01	9.7008	38.350771	0.000385	3.850394	1.304549	0.000154
 246	2.4378e+01	9.7361	38.488034	0.000345	3.445090	1.167228	0.000138
 247	2.4477e+01	9.7810	38.629333	0.000355	3.546416	1.201558	0.000142
 248	2.4576e+01	9.8211	38.798893	0.000426	4.255699	1.441870	0.000170
 249	2.4676e+01	9.8644	38.932118	0.000334	3.343763	1.132898	0.000134
 250	2.4776e+01	9.8949	39.065344	0.000334	3.343763	1.132898	0.000134
 251	2.4875e+01	9.9414	39.178384	0.000284	2.837133	0.961247	0.000114
 252	2.4974e+01	9.9880	39.319684	0.000355	3.546416	1.201558	0.000142
 253	2.5074e+01	10.0232	39.481169	0.000405	4.053047	1.373209	0.000162
 254	2.5174e+01	10.0585	39.590172	0.000274	2.735806	0.926916	0.000110
 255	2.5273e+01	10.1035	39.763768	0.000436	4.357025	1.476200	0.000174
 256	2.5372e+01	10.1452	39.901031	0.000345	3.445090	1.167228	0.000138
 257	2.5472e+01	10.1789	40.001959	0.000253	2.533154	0.858256	0.000101
 258	2.5572e+01	10.2125	40.187668	0.000466	4.661003	1.579191	0.000187
 259	2.5671e+01	10.2607	40.284559	0.000243	2.431828	0.823926	0.000097
 260	2.5770e+01	10.2992	40.462193	0.000446	4.458351	1.510530	0.000179
 261	2.5870e+01	10.3329	40.599456	0.000345	3.445090	1.167228	0.000138
 262	2.5970e+01	10.3842	40.728644	0.000324	3.242437	1.098567	0.000130
 263	2.6069e+01	10.4179	40.886092	0.000395	3.951720	1.338879	0.000158
 264	2.6169e+01	10.4548	41.035466	0.000375	3.749068	1.270219	0.000150
 265	2.6268e+01	10.4949	41.180803	0.000365	3.647742	1.235888	0.000146
 266	2.6367e+01	10.5382	41.305954	0.000314	3.141111	1.064237	0.000126
