»»»»»»»»»»»»»»»»»»»»»»»»»»»»»»»»»»»» Hysteresis ««««««««««««««««««««««««««««««««««««
»»»  Executed Version:	5.48.1
»»»  Vision Version:	5.48.4 (R)
»»»  Vision Compiled:	9/18/24
»»»  Driver Version:	5.47.0
»»»  Windows Version:	Windows 8 or 8.1
»»»  Processor Information:	x86 (AMD or Intel) - 32 Processors
»»»  Tester Name:	PMF21124-494 (100V)
»»»  Tester S/N:	PMF21124-494
»»»  Internal Amp Type:	100V RevK 270k
»»»  Internal Amp S/N:	iAB2-596/K     
»»»  Execution Count:	1
»»»»»»»»»»»»»»»»»»»»»»»»»»»»»»»»»»»»»»»»»»««««««««««««««««««««««««««««««««««««««««««

Stored:	6/30/2025 - 11:28:36
Configured:	06/30/25 10:19:58 AM
Executed:	06/30/25 11:28:10 AM

»»»»»»»»»»»»»»»»»»»»»»»»»»»»»»»»»»» Sample Info ««««««««««««««««««««««««««««««««««««
Sample Name:	
Lot Name:	
Wafer Name:	
Die Row/Column:	0/0
Capacitor Number:	0
Sample Area (cm2):	1.00e-04
Sample Thickness (microns):	1.50e-01

Amplifier:	Internal

»»»»»»»»»»»»»»»»»»»»»»»»»»»»»»»»»»» Tester Info «««««««««««««««««««««««««««««««««««
Tester Name:	PMF21124-494 (100V)
Tester Serial Number:	PMF21124-494
Return Signal Amp. Level:	1.79 [Index: 2]

»»»»»»»»»»»»»»»»»»»»»»»»»»»»»»»» Hysteresis Info ««««««««««««««««««««««««««««««««««
Task Name:	Hyst-1804
Volts:	10.00
Field:	666.67 (kV/cm)
DCBias:	0.00
DCField:	0.00 (kV/cm)
Hysteresis Period (ms):	1.00e+00
Preset:	Enabled
Preset Delay (ms):	1.00e+03
Profile:	Standard Monopolar

»»»»»»»»»»»»»»»»»»»»»»»»»»»»»»»»»»»»»» Data «««««««««««««««««««««««««««««««««««««««
Points:	2001

Valid Data

Point	Time (ms)	Drive Voltage	Measured Polarization (uC/cm2)	Capacitance (uF)	Normalized Capacitance (uF/cm2)	Dielectric Constant	Instantaneous Current (mA)
   1	0.0000e+00	-0.0040	-15.792629	0.000534	5.343481	0.905210	0.010691
   2	5.0000e-04	0.0066	-15.739176	0.000534	5.343481	0.905210	0.010691
   3	1.0000e-03	0.0169	-15.716084	0.000231	2.308384	0.391051	0.004618
   4	1.5000e-03	0.0264	-15.639112	0.000769	7.694613	1.303503	0.015395
   5	2.0000e-03	0.0361	-15.621579	0.000175	1.752662	0.296909	0.003507
   6	2.5000e-03	0.0459	-15.543751	0.000778	7.780109	1.317986	0.015566
   7	3.0000e-03	0.0574	-15.518949	0.000248	2.479375	0.420018	0.004960
   8	3.5000e-03	0.0672	-15.489015	0.000299	2.992350	0.506918	0.005987
   9	4.0000e-03	0.0766	-15.468061	0.000209	2.094645	0.354842	0.004191
  10	4.5000e-03	0.0861	-15.411615	0.000564	5.642716	0.955902	0.011289
  11	5.0000e-03	0.1030	-15.374839	0.000368	3.676315	0.622785	0.007355
  12	5.5000e-03	0.1063	-15.335925	0.000389	3.890054	0.658993	0.007783
  13	6.0000e-03	0.1161	-15.305564	0.000304	3.035097	0.514159	0.006072
  14	6.5000e-03	0.1270	-15.264512	0.000410	4.103794	0.695201	0.008210
  15	7.0000e-03	0.1366	-15.204644	0.000598	5.984699	1.013835	0.011974
  16	7.5000e-03	0.1446	-15.186256	0.000184	1.838158	0.311392	0.003678
  17	8.0000e-03	0.1599	-15.142639	0.000436	4.360281	0.738652	0.008724
  18	8.5000e-03	0.1686	-15.083199	0.000594	5.941951	1.006594	0.011888
  19	9.0000e-03	0.1760	-15.060107	0.000231	2.308384	0.391051	0.004618
  20	9.5000e-03	0.1878	-15.009647	0.000504	5.044246	0.854518	0.010092
  21	1.0000e-02	0.1963	-14.989976	0.000197	1.966401	0.333117	0.003934
  22	1.0500e-02	0.2071	-14.948069	0.000419	4.189289	0.709685	0.008381
  23	1.1000e-02	0.2170	-14.905734	0.000423	4.232037	0.716927	0.008467
  24	1.1500e-02	0.2262	-14.856985	0.000487	4.873255	0.825552	0.009750
  25	1.2000e-02	0.2371	-14.820209	0.000368	3.676315	0.622785	0.007355
  26	1.2500e-02	0.2452	-14.772315	0.000479	4.787759	0.811068	0.009579
  27	1.3000e-02	0.2553	-14.741526	0.000308	3.077845	0.521401	0.006158
  28	1.3500e-02	0.2657	-14.709027	0.000325	3.248837	0.550368	0.006500
  29	1.4000e-02	0.2765	-14.658994	0.000500	5.001499	0.847277	0.010006
  30	1.4500e-02	0.2844	-14.615377	0.000436	4.360281	0.738652	0.008724
  31	1.5000e-02	0.2959	-14.583305	0.000321	3.206089	0.543126	0.006414
  32	1.5500e-02	0.3070	-14.554226	0.000291	2.906854	0.492434	0.005816
  33	1.6000e-02	0.3164	-14.514457	0.000398	3.975550	0.673476	0.007954
  34	1.6500e-02	0.3241	-14.433636	0.000808	8.079344	1.368678	0.016164
  35	1.7000e-02	0.3382	-14.428932	0.000047	0.470226	0.079659	0.000941
  36	1.7500e-02	0.3456	-14.384459	0.000445	4.445777	0.753135	0.008895
  37	1.8000e-02	0.3578	-14.342979	0.000415	4.146542	0.702443	0.008296
  38	1.8500e-02	0.3671	-14.305776	0.000372	3.719063	0.630026	0.007441
  39	1.9000e-02	0.3733	-14.258310	0.000475	4.745011	0.803827	0.009493
  40	1.9500e-02	0.3877	-14.215975	0.000423	4.232037	0.716927	0.008467
  41	2.0000e-02	0.3989	-14.159956	0.000560	5.599969	0.948660	0.011204
  42	2.0500e-02	0.4079	-14.136864	0.000231	2.308384	0.391051	0.004618
  43	2.1000e-02	0.4177	-14.111634	0.000252	2.522123	0.427259	0.005046
  44	2.1500e-02	0.4242	-14.050056	0.000616	6.155691	1.042802	0.012316
  45	2.2000e-02	0.4389	-14.017984	0.000321	3.206089	0.543126	0.006414
  46	2.2500e-02	0.4468	-13.989761	0.000282	2.821358	0.477951	0.005645
  47	2.3000e-02	0.4604	-13.938873	0.000509	5.086994	0.861760	0.010177
  48	2.3500e-02	0.4640	-13.903808	0.000351	3.505324	0.593818	0.007013
  49	2.4000e-02	0.4750	-13.887986	0.000158	1.581670	0.267942	0.003164
  50	2.4500e-02	0.4859	-13.837526	0.000504	5.044246	0.854518	0.010092
  51	2.5000e-02	0.4951	-13.805027	0.000325	3.248837	0.550368	0.006500
  52	2.5500e-02	0.5059	-13.749435	0.000556	5.557221	0.941419	0.011118
  53	2.6000e-02	0.5168	-13.699831	0.000496	4.958751	0.840035	0.009921
  54	2.6500e-02	0.5281	-13.668187	0.000316	3.163341	0.535884	0.006329
  55	2.7000e-02	0.5382	-13.642102	0.000261	2.607619	0.441743	0.005217
  56	2.7500e-02	0.5461	-13.587793	0.000543	5.428977	0.919694	0.010862
  57	2.8000e-02	0.5563	-13.539899	0.000479	4.787759	0.811068	0.009579
  58	2.8500e-02	0.5676	-13.503123	0.000368	3.676315	0.622785	0.007355
  59	2.9000e-02	0.5781	-13.451381	0.000517	5.172490	0.876244	0.010349
  60	2.9500e-02	0.5885	-13.436414	0.000150	1.496175	0.253459	0.002993
  61	3.0000e-02	0.5997	-13.385954	0.000504	5.044246	0.854518	0.010092
  62	3.0500e-02	0.6068	-13.347895	0.000380	3.804559	0.644510	0.007612
  63	3.1000e-02	0.6156	-13.317534	0.000304	3.035097	0.514159	0.006072
  64	3.1500e-02	0.6251	-13.264508	0.000530	5.300734	0.897969	0.010605
  65	3.2000e-02	0.6374	-13.243127	0.000214	2.137393	0.362084	0.004276
  66	3.2500e-02	0.6459	-13.199509	0.000436	4.360281	0.738652	0.008724
  67	3.3000e-02	0.6531	-13.153326	0.000462	4.616768	0.782102	0.009237
  68	3.3500e-02	0.6681	-13.125103	0.000282	2.821358	0.477951	0.005645
  69	3.4000e-02	0.6793	-13.080202	0.000449	4.488524	0.760377	0.008980
  70	3.4500e-02	0.6838	-13.028887	0.000513	5.129742	0.869002	0.010263
  71	3.5000e-02	0.6975	-12.997243	0.000316	3.163341	0.535884	0.006329
  72	3.5500e-02	0.7061	-12.967309	0.000299	2.992350	0.506918	0.005987
  73	3.6000e-02	0.7139	-12.916849	0.000504	5.044246	0.854518	0.010092
  74	3.6500e-02	0.7308	-12.895468	0.000214	2.137393	0.362084	0.004276
  75	3.7000e-02	0.7383	-12.827903	0.000675	6.754160	1.144186	0.013513
  76	3.7500e-02	0.7462	-12.811226	0.000167	1.667166	0.282426	0.003335
  77	3.8000e-02	0.7550	-12.769318	0.000419	4.189289	0.709685	0.008381
  78	3.8500e-02	0.7652	-12.733398	0.000359	3.590819	0.608301	0.007184
  79	3.9000e-02	0.7785	-12.694484	0.000389	3.890054	0.658993	0.007783
  80	3.9500e-02	0.7873	-12.653432	0.000410	4.103794	0.695201	0.008210
  81	4.0000e-02	0.7961	-12.606393	0.000470	4.702264	0.796585	0.009408
  82	4.0500e-02	0.8051	-12.556789	0.000496	4.958751	0.840035	0.009921
  83	4.1000e-02	0.8170	-12.523861	0.000329	3.291585	0.557610	0.006585
  84	4.1500e-02	0.8282	-12.482809	0.000410	4.103794	0.695201	0.008210
  85	4.2000e-02	0.8374	-12.450737	0.000321	3.206089	0.543126	0.006414
  86	4.2500e-02	0.8461	-12.427218	0.000235	2.351132	0.398293	0.004704
  87	4.3000e-02	0.8599	-12.385311	0.000419	4.189289	0.709685	0.008381
  88	4.3500e-02	0.8681	-12.328437	0.000569	5.685464	0.963144	0.011375
  89	4.4000e-02	0.8755	-12.286529	0.000419	4.189289	0.709685	0.008381
  90	4.4500e-02	0.8878	-12.244622	0.000419	4.189289	0.709685	0.008381
  91	4.5000e-02	0.8960	-12.219820	0.000248	2.479375	0.420018	0.004960
  92	4.5500e-02	0.9096	-12.174919	0.000449	4.488524	0.760377	0.008980
  93	4.6000e-02	0.9170	-12.136005	0.000389	3.890054	0.658993	0.007783
  94	4.6500e-02	0.9277	-12.105644	0.000304	3.035097	0.514159	0.006072
  95	4.7000e-02	0.9371	-12.063737	0.000419	4.189289	0.709685	0.008381
  96	4.7500e-02	0.9449	-12.014987	0.000487	4.873255	0.825552	0.009750
  97	4.8000e-02	0.9567	-12.001731	0.000133	1.325183	0.224492	0.002651
  98	4.8500e-02	0.9699	-11.942719	0.000590	5.899203	0.999352	0.011802
  99	4.9000e-02	0.9773	-11.911930	0.000308	3.077845	0.521401	0.006158
 100	4.9500e-02	0.9858	-11.864891	0.000470	4.702264	0.796585	0.009408
 101	5.0000e-02	0.9980	-11.830253	0.000346	3.462576	0.586576	0.006928
 102	5.0500e-02	1.0072	-11.796898	0.000333	3.334332	0.564851	0.006671
 103	5.1000e-02	1.0178	-11.755419	0.000415	4.146542	0.702443	0.008296
 104	5.1500e-02	1.0272	-11.728051	0.000274	2.735862	0.463468	0.005474
 105	5.2000e-02	1.0378	-11.675880	0.000522	5.215238	0.883485	0.010434
 106	5.2500e-02	1.0461	-11.630125	0.000457	4.574020	0.774860	0.009151
 107	5.3000e-02	1.0568	-11.592921	0.000372	3.719063	0.630026	0.007441
 108	5.3500e-02	1.0687	-11.570257	0.000227	2.265636	0.383809	0.004533
 109	5.4000e-02	1.0785	-11.522363	0.000479	4.787759	0.811068	0.009579
 110	5.4500e-02	1.0882	-11.495423	0.000269	2.693115	0.456226	0.005388
 111	5.5000e-02	1.0989	-11.427858	0.000675	6.754160	1.144186	0.013513
 112	5.5500e-02	1.1064	-11.407759	0.000201	2.009149	0.340359	0.004020
 113	5.6000e-02	1.1192	-11.346181	0.000616	6.155691	1.042802	0.012316
 114	5.6500e-02	1.1269	-11.317958	0.000282	2.821358	0.477951	0.005645
 115	5.7000e-02	1.1365	-11.288452	0.000295	2.949602	0.499676	0.005901
 116	5.7500e-02	1.1465	-11.254670	0.000338	3.377080	0.572093	0.006756
 117	5.8000e-02	1.1565	-11.207631	0.000470	4.702264	0.796585	0.009408
 118	5.8500e-02	1.1671	-11.181973	0.000256	2.564871	0.434501	0.005132
 119	5.9000e-02	1.1778	-11.134507	0.000475	4.745011	0.803827	0.009493
 120	5.9500e-02	1.1861	-11.078488	0.000560	5.599969	0.948660	0.011204
 121	6.0000e-02	1.1969	-11.063093	0.000154	1.538923	0.260701	0.003079
 122	6.0500e-02	1.2070	-11.037864	0.000252	2.522123	0.427259	0.005046
 123	6.1000e-02	1.2209	-10.979279	0.000586	5.856456	0.992110	0.011717
 124	6.1500e-02	1.2273	-10.937372	0.000419	4.189289	0.709685	0.008381
 125	6.2000e-02	1.2390	-10.910004	0.000274	2.735862	0.463468	0.005474
 126	6.2500e-02	1.2447	-10.871517	0.000385	3.847307	0.651751	0.007697
 127	6.3000e-02	1.2583	-10.816781	0.000547	5.471725	0.926935	0.010947
 128	6.3500e-02	1.2695	-10.794545	0.000222	2.222888	0.376567	0.004447
 129	6.4000e-02	1.2744	-10.754348	0.000402	4.018298	0.680718	0.008039
 130	6.4500e-02	1.2869	-10.710730	0.000436	4.360281	0.738652	0.008724
 131	6.5000e-02	1.2950	-10.665402	0.000453	4.531272	0.767618	0.009066
 132	6.5500e-02	1.3080	-10.633758	0.000316	3.163341	0.535884	0.006329
 133	6.6000e-02	1.3169	-10.598692	0.000351	3.505324	0.593818	0.007013
 134	6.6500e-02	1.3248	-10.554647	0.000440	4.403029	0.745893	0.008809
 135	6.7000e-02	1.3354	-10.518299	0.000363	3.633567	0.615543	0.007270
 136	6.7500e-02	1.3471	-10.488365	0.000299	2.992350	0.506918	0.005987
 137	6.8000e-02	1.3579	-10.439616	0.000487	4.873255	0.825552	0.009750
 138	6.8500e-02	1.3666	-10.407544	0.000321	3.206089	0.543126	0.006414
 139	6.9000e-02	1.3783	-10.375044	0.000325	3.248837	0.550368	0.006500
 140	6.9500e-02	1.3849	-10.321164	0.000539	5.386229	0.912452	0.010776
 141	7.0000e-02	1.3961	-10.318170	0.000030	0.299235	0.050692	0.000599
 142	7.0500e-02	1.4064	-10.254454	0.000637	6.369430	1.079011	0.012743
 143	7.1000e-02	1.4162	-10.201001	0.000534	5.343481	0.905210	0.010691
 144	7.1500e-02	1.4301	-10.178764	0.000222	2.222888	0.376567	0.004447
 145	7.2000e-02	1.4375	-10.137712	0.000410	4.103794	0.695201	0.008210
 146	7.2500e-02	1.4445	-10.096233	0.000415	4.146542	0.702443	0.008296
 147	7.3000e-02	1.4560	-10.069720	0.000265	2.650367	0.448984	0.005303
 148	7.3500e-02	1.4647	-10.011563	0.000581	5.813708	0.984869	0.011631
 149	7.4000e-02	1.4763	-9.976498	0.000351	3.505324	0.593818	0.007013
 150	7.4500e-02	1.4852	-9.952978	0.000235	2.351132	0.398293	0.004704
 151	7.5000e-02	1.4961	-9.920051	0.000329	3.291585	0.557610	0.006585
 152	7.5500e-02	1.5051	-9.878571	0.000415	4.146542	0.702443	0.008296
 153	7.6000e-02	1.5181	-9.826829	0.000517	5.172490	0.876244	0.010349
 154	7.6500e-02	1.5247	-9.797750	0.000291	2.906854	0.492434	0.005816
 155	7.7000e-02	1.5350	-9.753705	0.000440	4.403029	0.745893	0.008809
 156	7.7500e-02	1.5475	-9.733179	0.000205	2.051897	0.347601	0.004105
 157	7.8000e-02	1.5548	-9.689561	0.000436	4.360281	0.738652	0.008724
 158	7.8500e-02	1.5660	-9.639957	0.000496	4.958751	0.840035	0.009921
 159	7.9000e-02	1.5789	-9.596339	0.000436	4.360281	0.738652	0.008724
 160	7.9500e-02	1.5881	-9.574958	0.000214	2.137393	0.362084	0.004276
 161	8.0000e-02	1.5959	-9.520649	0.000543	5.428977	0.919694	0.010862
 162	8.0500e-02	1.6054	-9.481735	0.000389	3.890054	0.658993	0.007783
 163	8.1000e-02	1.6162	-9.477459	0.000043	0.427479	0.072417	0.000855
 164	8.1500e-02	1.6248	-9.429137	0.000483	4.830507	0.818310	0.009664
 165	8.2000e-02	1.6379	-9.377395	0.000517	5.172490	0.876244	0.010349
 166	8.2500e-02	1.6463	-9.345750	0.000316	3.163341	0.535884	0.006329
 167	8.3000e-02	1.6544	-9.317099	0.000286	2.864106	0.485193	0.005730
 168	8.3500e-02	1.6632	-9.255521	0.000616	6.155691	1.042802	0.012316
 169	8.4000e-02	1.6772	-9.253811	0.000017	0.170991	0.028967	0.000342
 170	8.4500e-02	1.6886	-9.182825	0.000710	7.096143	1.202119	0.014197
 171	8.5000e-02	1.6962	-9.162299	0.000205	2.051897	0.347601	0.004105
 172	8.5500e-02	1.7065	-9.124240	0.000380	3.804559	0.644510	0.007612
 173	8.6000e-02	1.7149	-9.065656	0.000586	5.856456	0.992110	0.011717
 174	8.6500e-02	1.7257	-9.036150	0.000295	2.949602	0.499676	0.005901
 175	8.7000e-02	1.7384	-9.010920	0.000252	2.522123	0.427259	0.005046
 176	8.7500e-02	1.7465	-8.975855	0.000351	3.505324	0.593818	0.007013
 177	8.8000e-02	1.7560	-8.920263	0.000556	5.557221	0.941419	0.011118
 178	8.8500e-02	1.7690	-8.901875	0.000184	1.838158	0.311392	0.003678
 179	8.9000e-02	1.7773	-8.856119	0.000457	4.574020	0.774860	0.009151
 180	8.9500e-02	1.7841	-8.823192	0.000329	3.291585	0.557610	0.006585
 181	9.0000e-02	1.7958	-8.776154	0.000470	4.702264	0.796585	0.009408
 182	9.0500e-02	1.8051	-8.723556	0.000526	5.257986	0.890727	0.010520
 183	9.1000e-02	1.8180	-8.712865	0.000107	1.068696	0.181042	0.002138
 184	9.1500e-02	1.8250	-8.674806	0.000380	3.804559	0.644510	0.007612
 185	9.2000e-02	1.8385	-8.630761	0.000440	4.403029	0.745893	0.008809
 186	9.2500e-02	1.8480	-8.585005	0.000457	4.574020	0.774860	0.009151
 187	9.3000e-02	1.8564	-8.562341	0.000227	2.265636	0.383809	0.004533
 188	9.3500e-02	1.8660	-8.512309	0.000500	5.001499	0.847277	0.010006
 189	9.4000e-02	1.8756	-8.482803	0.000295	2.949602	0.499676	0.005901
 190	9.4500e-02	1.8860	-8.451586	0.000312	3.120593	0.528643	0.006243
 191	9.5000e-02	1.8982	-8.393429	0.000581	5.813708	0.984869	0.011631
 192	9.5500e-02	1.9067	-8.364778	0.000286	2.864106	0.485193	0.005730
 193	9.6000e-02	1.9171	-8.342541	0.000222	2.222888	0.376567	0.004447
 194	9.6500e-02	1.9263	-8.283102	0.000594	5.941951	1.006594	0.011888
 195	9.7000e-02	1.9376	-8.262576	0.000205	2.051897	0.347601	0.004105
 196	9.7500e-02	1.9447	-8.226655	0.000359	3.590819	0.608301	0.007184
 197	9.8000e-02	1.9560	-8.168498	0.000581	5.813708	0.984869	0.011631
 198	9.8500e-02	1.9688	-8.159945	0.000085	0.854957	0.144834	0.001711
 199	9.9000e-02	1.9778	-8.116755	0.000432	4.317533	0.731410	0.008638
 200	9.9500e-02	1.9847	-8.064157	0.000526	5.257986	0.890727	0.010520
 201	1.0000e-01	1.9962	-8.030803	0.000333	3.334332	0.564851	0.006671
 202	1.0050e-01	2.0105	-7.993172	0.000376	3.761811	0.637268	0.007526
 203	1.0100e-01	2.0160	-7.963665	0.000295	2.949602	0.499676	0.005901
 204	1.0150e-01	2.0287	-7.926034	0.000376	3.761811	0.637268	0.007526
 205	1.0200e-01	2.0366	-7.886265	0.000398	3.975550	0.673476	0.007954
 206	1.0250e-01	2.0480	-7.852055	0.000342	3.419828	0.579335	0.006842
 207	1.0300e-01	2.0588	-7.805444	0.000466	4.659516	0.789343	0.009322
 208	1.0350e-01	2.0699	-7.784063	0.000214	2.137393	0.362084	0.004276
 209	1.0400e-01	2.0758	-7.736596	0.000475	4.745011	0.803827	0.009493
 210	1.0450e-01	2.0876	-7.704952	0.000316	3.163341	0.535884	0.006329
 211	1.0500e-01	2.0973	-7.681005	0.000239	2.393880	0.405534	0.004789
 212	1.0550e-01	2.1062	-7.617289	0.000637	6.369430	1.079011	0.012743
 213	1.0600e-01	2.1156	-7.576665	0.000406	4.061046	0.687960	0.008125
 214	1.0650e-01	2.1247	-7.547586	0.000291	2.906854	0.492434	0.005816
 215	1.0700e-01	2.1364	-7.508245	0.000393	3.932802	0.666235	0.007868
 216	1.0750e-01	2.1442	-7.476600	0.000316	3.163341	0.535884	0.006329
 217	1.0800e-01	2.1555	-7.425285	0.000513	5.129742	0.869002	0.010263
 218	1.0850e-01	2.1681	-7.407753	0.000175	1.752662	0.296909	0.003507
 219	1.0900e-01	2.1753	-7.377819	0.000299	2.992350	0.506918	0.005987
 220	1.0950e-01	2.1860	-7.337194	0.000406	4.061046	0.687960	0.008125
 221	1.1000e-01	2.1948	-7.307688	0.000295	2.949602	0.499676	0.005901
 222	1.1050e-01	2.2073	-7.262788	0.000449	4.488524	0.760377	0.008980
 223	1.1100e-01	2.2171	-7.215321	0.000475	4.745011	0.803827	0.009493
 224	1.1150e-01	2.2248	-7.182822	0.000325	3.248837	0.550368	0.006500
 225	1.1200e-01	2.2403	-7.148612	0.000342	3.419828	0.579335	0.006842
 226	1.1250e-01	2.2491	-7.105849	0.000427	4.274785	0.724168	0.008553
 227	1.1300e-01	2.2562	-7.069073	0.000368	3.676315	0.622785	0.007355
 228	1.1350e-01	2.2666	-7.029732	0.000393	3.932802	0.666235	0.007868
 229	1.1400e-01	2.2766	-7.005357	0.000244	2.436628	0.412776	0.004875
 230	1.1450e-01	2.2884	-6.963878	0.000415	4.146542	0.702443	0.008296
 231	1.1500e-01	2.2966	-6.942496	0.000214	2.137393	0.362084	0.004276
 232	1.1550e-01	2.3053	-6.880918	0.000616	6.155691	1.042802	0.012316
 233	1.1600e-01	2.3170	-6.843715	0.000372	3.719063	0.630026	0.007441
 234	1.1650e-01	2.3264	-6.835162	0.000085	0.854957	0.144834	0.001711
 235	1.1700e-01	2.3328	-6.786841	0.000483	4.830507	0.818310	0.009664
 236	1.1750e-01	2.3453	-6.740657	0.000462	4.616768	0.782102	0.009237
 237	1.1800e-01	2.3560	-6.705164	0.000355	3.548072	0.601060	0.007099
 238	1.1850e-01	2.3679	-6.670099	0.000351	3.505324	0.593818	0.007013
 239	1.1900e-01	2.3769	-6.638027	0.000321	3.206089	0.543126	0.006414
 240	1.1950e-01	2.3875	-6.603817	0.000342	3.419828	0.579335	0.006842
 241	1.2000e-01	2.3982	-6.555923	0.000479	4.787759	0.811068	0.009579
 242	1.2050e-01	2.4100	-6.532831	0.000231	2.308384	0.391051	0.004618
 243	1.2100e-01	2.4170	-6.494773	0.000380	3.804559	0.644510	0.007612
 244	1.2150e-01	2.4286	-6.449872	0.000449	4.488524	0.760377	0.008980
 245	1.2200e-01	2.4373	-6.419083	0.000308	3.077845	0.521401	0.006158
 246	1.2250e-01	2.4428	-6.393425	0.000256	2.564871	0.434501	0.005132
 247	1.2300e-01	2.4619	-6.350663	0.000427	4.274785	0.724168	0.008553
 248	1.2350e-01	2.4658	-6.329282	0.000214	2.137393	0.362084	0.004276
 249	1.2400e-01	2.4754	-6.263855	0.000654	6.540421	1.107977	0.013085
 250	1.2450e-01	2.4861	-6.245467	0.000184	1.838158	0.311392	0.003678
 251	1.2500e-01	2.4979	-6.205270	0.000402	4.018298	0.680718	0.008039
 252	1.2550e-01	2.5079	-6.168495	0.000368	3.676315	0.622785	0.007355
 253	1.2600e-01	2.5172	-6.145830	0.000227	2.265636	0.383809	0.004533
 254	1.2650e-01	2.5281	-6.118035	0.000278	2.778610	0.470709	0.005559
 255	1.2700e-01	2.5366	-6.050042	0.000680	6.796908	1.151427	0.013598
 256	1.2750e-01	2.5476	-6.022674	0.000274	2.735862	0.463468	0.005474
 257	1.2800e-01	2.5555	-5.971787	0.000509	5.086994	0.861760	0.010177
 258	1.2850e-01	2.5665	-5.952544	0.000192	1.923653	0.325876	0.003849
 259	1.2900e-01	2.5776	-5.913202	0.000393	3.932802	0.666235	0.007868
