»»»»»»»»»»»»»»»»»»»»»»»»»»»»»»»»»»»» Hysteresis ««««««««««««««««««««««««««««««««««««
»»»  Executed Version:	5.48.1
»»»  Vision Version:	5.48.4 (R)
»»»  Vision Compiled:	9/18/24
»»»  Driver Version:	5.47.0
»»»  Windows Version:	Windows 8 or 8.1
»»»  Processor Information:	x86 (AMD or Intel) - 32 Processors
»»»  Tester Name:	PMF21124-494 (100V)
»»»  Tester S/N:	PMF21124-494
»»»  Internal Amp Type:	100V RevK 270k
»»»  Internal Amp S/N:	iAB2-596/K     
»»»  Execution Count:	1
»»»»»»»»»»»»»»»»»»»»»»»»»»»»»»»»»»»»»»»»»»««««««««««««««««««««««««««««««««««««««««««

Stored:	7/1/2025 - 15:48:21
Configured:	07/01/25 10:49:51 AM
Executed:	07/01/25 03:47:57 PM

»»»»»»»»»»»»»»»»»»»»»»»»»»»»»»»»»»» Sample Info ««««««««««««««««««««««««««««««««««««
Sample Name:	
Lot Name:	
Wafer Name:	
Die Row/Column:	0/0
Capacitor Number:	0
Sample Area (cm2):	1.00e-04
Sample Thickness (microns):	1.50e-01

Amplifier:	Internal

»»»»»»»»»»»»»»»»»»»»»»»»»»»»»»»»»»» Tester Info «««««««««««««««««««««««««««««««««««
Tester Name:	PMF21124-494 (100V)
Tester Serial Number:	PMF21124-494
Return Signal Amp. Level:	0.19 [Index: 3]

»»»»»»»»»»»»»»»»»»»»»»»»»»»»»»»» Hysteresis Info ««««««««««««««««««««««««««««««««««
Task Name:	Hyst-22
Volts:	10.00
Field:	666.67 (kV/cm)
DCBias:	0.00
DCField:	0.00 (kV/cm)
Hysteresis Period (ms):	1.00e+00
Preset:	Enabled
Preset Delay (ms):	1.00e+03
Profile:	Standard Bipolar

»»»»»»»»»»»»»»»»»»»»»»»»»»»»»»»»»»»»»» Data «««««««««««««««««««««««««««««««««««««««
Points:	2001

Valid Data

Point	Time (ms)	Drive Voltage	Measured Polarization (uC/cm2)	Capacitance (uF)	Normalized Capacitance (uF/cm2)	Dielectric Constant	Instantaneous Current (mA)
   1	0.0000e+00	0.0002	2.101244	0.000384	3.836485	0.649918	0.015326
   2	5.0000e-04	0.0103	2.177873	0.000384	3.836485	0.649918	0.015326
   3	1.0000e-03	0.0288	2.290800	0.000565	5.653768	0.957774	0.022585
   4	1.5000e-03	0.0485	2.411793	0.000606	6.057609	1.026187	0.024199
   5	2.0000e-03	0.0680	2.464223	0.000262	2.624964	0.444681	0.010486
   6	2.5000e-03	0.0887	2.593282	0.000646	6.461449	1.094599	0.025812
   7	3.0000e-03	0.1076	2.702176	0.000545	5.451848	0.923568	0.021779
   8	3.5000e-03	0.1283	2.774772	0.000363	3.634565	0.615712	0.014519
   9	4.0000e-03	0.1468	2.895765	0.000606	6.057609	1.026187	0.024199
  10	4.5000e-03	0.1675	2.976427	0.000404	4.038406	0.684124	0.016132
  11	5.0000e-03	0.1884	3.105486	0.000646	6.461449	1.094599	0.025812
  12	5.5000e-03	0.2080	3.210346	0.000525	5.249927	0.889362	0.020972
  13	6.0000e-03	0.2286	3.327306	0.000586	5.855688	0.991980	0.023392
  14	6.5000e-03	0.2473	3.375704	0.000242	2.423043	0.410475	0.009679
  15	7.0000e-03	0.2678	3.480564	0.000525	5.249927	0.889362	0.020972
  16	7.5000e-03	0.2873	3.629789	0.000747	7.471051	1.265630	0.029845
  17	8.0000e-03	0.3085	3.710451	0.000404	4.038406	0.684124	0.016132
  18	8.5000e-03	0.3269	3.827411	0.000586	5.855688	0.991980	0.023392
  19	9.0000e-03	0.3475	3.908073	0.000404	4.038406	0.684124	0.016132
  20	9.5000e-03	0.3677	3.980668	0.000363	3.634565	0.615712	0.014519
  21	1.0000e-02	0.3881	4.077463	0.000485	4.846087	0.820949	0.019359
  22	1.0500e-02	0.4077	4.202489	0.000626	6.259529	1.060393	0.025005
  23	1.1000e-02	0.4272	4.335581	0.000666	6.663369	1.128805	0.026618
  24	1.1500e-02	0.4482	4.436408	0.000505	5.048007	0.855156	0.020165
  25	1.2000e-02	0.4689	4.537236	0.000505	5.048007	0.855156	0.020165
  26	1.2500e-02	0.4875	4.581600	0.000222	2.221123	0.376268	0.008873
  27	1.3000e-02	0.5077	4.682427	0.000505	5.048007	0.855156	0.020165
  28	1.3500e-02	0.5276	4.803420	0.000606	6.057609	1.026187	0.024199
  29	1.4000e-02	0.5479	4.924413	0.000606	6.057609	1.026187	0.024199
  30	1.4500e-02	0.5679	5.009108	0.000424	4.240326	0.718331	0.016939
  31	1.5000e-02	0.5871	5.065572	0.000283	2.826884	0.478887	0.011293
  32	1.5500e-02	0.6070	5.194631	0.000646	6.461449	1.094599	0.025812
  33	1.6000e-02	0.6277	5.311591	0.000586	5.855688	0.991980	0.023392
  34	1.6500e-02	0.6482	5.428551	0.000586	5.855688	0.991980	0.023392
  35	1.7000e-02	0.6680	5.497113	0.000343	3.432645	0.581506	0.013713
  36	1.7500e-02	0.6873	5.658437	0.000808	8.076811	1.368249	0.032265
  37	1.8000e-02	0.7079	5.747166	0.000444	4.442246	0.752537	0.017746
  38	1.8500e-02	0.7281	5.856059	0.000545	5.451848	0.923568	0.021779
  39	1.9000e-02	0.7478	5.900423	0.000222	2.221123	0.376268	0.008873
  40	1.9500e-02	0.7677	5.973019	0.000363	3.634565	0.615712	0.014519
  41	2.0000e-02	0.7878	6.089979	0.000586	5.855688	0.991980	0.023392
  42	2.0500e-02	0.8087	6.271468	0.000909	9.086413	1.539280	0.036298
  43	2.1000e-02	0.8279	6.319866	0.000242	2.423043	0.410475	0.009679
  44	2.1500e-02	0.8479	6.416660	0.000485	4.846087	0.820949	0.019359
  45	2.2000e-02	0.8685	6.545719	0.000646	6.461449	1.094599	0.025812
  46	2.2500e-02	0.8877	6.630414	0.000424	4.240326	0.718331	0.016939
  47	2.3000e-02	0.9077	6.771573	0.000707	7.067210	1.197218	0.028232
  48	2.3500e-02	0.9277	6.872400	0.000505	5.048007	0.855156	0.020165
  49	2.4000e-02	0.9488	6.949029	0.000384	3.836485	0.649918	0.015326
  50	2.4500e-02	0.9679	7.021625	0.000363	3.634565	0.615712	0.014519
  51	2.5000e-02	0.9888	7.215213	0.000969	9.692174	1.641899	0.038718
  52	2.5500e-02	1.0075	7.251511	0.000182	1.817283	0.307856	0.007260
  53	2.6000e-02	1.0280	7.340239	0.000444	4.442246	0.752537	0.017746
  54	2.6500e-02	1.0490	7.461232	0.000606	6.057609	1.026187	0.024199
  55	2.7000e-02	1.0684	7.562060	0.000505	5.048007	0.855156	0.020165
  56	2.7500e-02	1.0881	7.654821	0.000464	4.644167	0.786743	0.018552
  57	2.8000e-02	1.1085	7.804046	0.000747	7.471051	1.265630	0.029845
  58	2.8500e-02	1.1281	7.929072	0.000626	6.259529	1.060393	0.025005
  59	2.9000e-02	1.1478	8.005701	0.000384	3.836485	0.649918	0.015326
  60	2.9500e-02	1.1674	8.138793	0.000666	6.663369	1.128805	0.026618
  61	3.0000e-02	1.1911	8.211389	0.000363	3.634565	0.615712	0.014519
  62	3.0500e-02	1.2091	8.332382	0.000606	6.057609	1.026187	0.024199
  63	3.1000e-02	1.2283	8.368680	0.000182	1.817283	0.307856	0.007260
  64	3.1500e-02	1.2477	8.481606	0.000565	5.653768	0.957774	0.022585
  65	3.2000e-02	1.2686	8.598566	0.000586	5.855688	0.991980	0.023392
  66	3.2500e-02	1.2878	8.707460	0.000545	5.451848	0.923568	0.021779
  67	3.3000e-02	1.3082	8.820387	0.000565	5.653768	0.957774	0.022585
  68	3.3500e-02	1.3258	8.848618	0.000141	1.413442	0.239444	0.005646
  69	3.4000e-02	1.3481	9.046240	0.000989	9.894094	1.676105	0.039524
  70	3.4500e-02	1.3667	9.175299	0.000646	6.461449	1.094599	0.025812
  71	3.5000e-02	1.3885	9.239829	0.000323	3.230725	0.547300	0.012906
  72	3.5500e-02	1.4074	9.332590	0.000464	4.644167	0.786743	0.018552
  73	3.6000e-02	1.4282	9.477782	0.000727	7.269130	1.231424	0.029038
  74	3.6500e-02	1.4476	9.534245	0.000283	2.826884	0.478887	0.011293
  75	3.7000e-02	1.4683	9.679437	0.000727	7.269130	1.231424	0.029038
  76	3.7500e-02	1.4876	9.780264	0.000505	5.048007	0.855156	0.020165
  77	3.8000e-02	1.5076	9.848827	0.000343	3.432645	0.581506	0.013713
  78	3.8500e-02	1.5275	10.030316	0.000909	9.086413	1.539280	0.036298
  79	3.9000e-02	1.5475	10.094846	0.000323	3.230725	0.547300	0.012906
  80	3.9500e-02	1.5681	10.195673	0.000505	5.048007	0.855156	0.020165
  81	4.0000e-02	1.5881	10.344898	0.000747	7.471051	1.265630	0.029845
  82	4.0500e-02	1.6077	10.401361	0.000283	2.826884	0.478887	0.011293
  83	4.1000e-02	1.6278	10.574785	0.000868	8.682572	1.470868	0.034685
  84	4.1500e-02	1.6470	10.619149	0.000222	2.221123	0.376268	0.008873
  85	4.2000e-02	1.6676	10.780473	0.000808	8.076811	1.368249	0.032265
  86	4.2500e-02	1.6878	10.836936	0.000283	2.826884	0.478887	0.011293
  87	4.3000e-02	1.7065	10.901466	0.000323	3.230725	0.547300	0.012906
  88	4.3500e-02	1.7284	11.066823	0.000828	8.278732	1.402455	0.033071
  89	4.4000e-02	1.7480	11.171683	0.000525	5.249927	0.889362	0.020972
  90	4.4500e-02	1.7680	11.316875	0.000727	7.269130	1.231424	0.029038
  91	4.5000e-02	1.7886	11.397537	0.000404	4.038406	0.684124	0.016132
  92	4.5500e-02	1.8079	11.486265	0.000444	4.442246	0.752537	0.017746
  93	4.6000e-02	1.8275	11.603225	0.000586	5.855688	0.991980	0.023392
  94	4.6500e-02	1.8478	11.736317	0.000666	6.663369	1.128805	0.026618
  95	4.7000e-02	1.8677	11.812946	0.000384	3.836485	0.649918	0.015326
  96	4.7500e-02	1.8881	11.950071	0.000687	6.865290	1.163012	0.027425
  97	4.8000e-02	1.9080	12.042832	0.000464	4.644167	0.786743	0.018552
  98	4.8500e-02	1.9272	12.171892	0.000646	6.461449	1.094599	0.025812
  99	4.9000e-02	1.9485	12.264653	0.000464	4.644167	0.786743	0.018552
 100	4.9500e-02	1.9666	12.349348	0.000424	4.240326	0.718331	0.016939
 101	5.0000e-02	1.9868	12.502606	0.000767	7.672971	1.299836	0.030652
 102	5.0500e-02	2.0079	12.611499	0.000545	5.451848	0.923568	0.021779
 103	5.1000e-02	2.0276	12.692161	0.000404	4.038406	0.684124	0.016132
 104	5.1500e-02	2.0471	12.772823	0.000404	4.038406	0.684124	0.016132
 105	5.2000e-02	2.0679	12.901882	0.000646	6.461449	1.094599	0.025812
 106	5.2500e-02	2.0876	13.030942	0.000646	6.461449	1.094599	0.025812
 107	5.3000e-02	2.1075	13.095471	0.000323	3.230725	0.547300	0.012906
 108	5.3500e-02	2.1278	13.240663	0.000727	7.269130	1.231424	0.029038
 109	5.4000e-02	2.1478	13.333424	0.000464	4.644167	0.786743	0.018552
 110	5.4500e-02	2.1687	13.454417	0.000606	6.057609	1.026187	0.024199
 111	5.5000e-02	2.1878	13.559278	0.000525	5.249927	0.889362	0.020972
 112	5.5500e-02	2.2087	13.684304	0.000626	6.259529	1.060393	0.025005
 113	5.6000e-02	2.2278	13.833528	0.000747	7.471051	1.265630	0.029845
 114	5.6500e-02	2.2484	13.958554	0.000626	6.259529	1.060393	0.025005
 115	5.7000e-02	2.2681	14.015018	0.000283	2.826884	0.478887	0.011293
 116	5.7500e-02	2.2878	14.148110	0.000666	6.663369	1.128805	0.026618
 117	5.8000e-02	2.3071	14.244904	0.000485	4.846087	0.820949	0.019359
 118	5.8500e-02	2.3276	14.402195	0.000787	7.874891	1.334043	0.031458
 119	5.9000e-02	2.3477	14.450592	0.000242	2.423043	0.410475	0.009679
 120	5.9500e-02	2.3672	14.591751	0.000707	7.067210	1.197218	0.028232
 121	6.0000e-02	2.3877	14.684512	0.000464	4.644167	0.786743	0.018552
 122	6.0500e-02	2.4079	14.789373	0.000525	5.249927	0.889362	0.020972
 123	6.1000e-02	2.4290	14.898266	0.000545	5.451848	0.923568	0.021779
 124	6.1500e-02	2.4484	14.986994	0.000444	4.442246	0.752537	0.017746
 125	6.2000e-02	2.4679	15.148318	0.000808	8.076811	1.368249	0.032265
 126	6.2500e-02	2.4881	15.245113	0.000485	4.846087	0.820949	0.019359
 127	6.3000e-02	2.5074	15.301576	0.000283	2.826884	0.478887	0.011293
 128	6.3500e-02	2.5290	15.450801	0.000747	7.471051	1.265630	0.029845
 129	6.4000e-02	2.5497	15.571794	0.000606	6.057609	1.026187	0.024199
 130	6.4500e-02	2.5676	15.704886	0.000666	6.663369	1.128805	0.026618
 131	6.5000e-02	2.5874	15.809747	0.000525	5.249927	0.889362	0.020972
 132	6.5500e-02	2.6072	15.918640	0.000545	5.451848	0.923568	0.021779
 133	6.6000e-02	2.6270	16.039633	0.000606	6.057609	1.026187	0.024199
 134	6.6500e-02	2.6476	16.124328	0.000424	4.240326	0.718331	0.016939
 135	6.7000e-02	2.6672	16.217089	0.000464	4.644167	0.786743	0.018552
 136	6.7500e-02	2.6881	16.366314	0.000747	7.471051	1.265630	0.029845
 137	6.8000e-02	2.7084	16.438910	0.000363	3.634565	0.615712	0.014519
 138	6.8500e-02	2.7280	16.580068	0.000707	7.067210	1.197218	0.028232
 139	6.9000e-02	2.7479	16.664763	0.000424	4.240326	0.718331	0.016939
 140	6.9500e-02	2.7679	16.777690	0.000565	5.653768	0.957774	0.022585
 141	7.0000e-02	2.7869	16.910782	0.000666	6.663369	1.128805	0.026618
 142	7.0500e-02	2.8076	16.967246	0.000283	2.826884	0.478887	0.011293
 143	7.1000e-02	2.8281	17.152768	0.000929	9.288333	1.573486	0.037105
 144	7.1500e-02	2.8473	17.237463	0.000424	4.240326	0.718331	0.016939
 145	7.2000e-02	2.8671	17.346357	0.000545	5.451848	0.923568	0.021779
 146	7.2500e-02	2.8877	17.467350	0.000606	6.057609	1.026187	0.024199
 147	7.3000e-02	2.9078	17.560111	0.000464	4.644167	0.786743	0.018552
 148	7.3500e-02	2.9279	17.721435	0.000808	8.076811	1.368249	0.032265
 149	7.4000e-02	2.9475	17.798064	0.000384	3.836485	0.649918	0.015326
 150	7.4500e-02	2.9675	17.915024	0.000586	5.855688	0.991980	0.023392
 151	7.5000e-02	2.9880	18.015851	0.000505	5.048007	0.855156	0.020165
 152	7.5500e-02	3.0081	18.096513	0.000404	4.038406	0.684124	0.016132
 153	7.6000e-02	3.0286	18.225573	0.000646	6.461449	1.094599	0.025812
 154	7.6500e-02	3.0481	18.374797	0.000747	7.471051	1.265630	0.029845
 155	7.7000e-02	3.0679	18.495790	0.000606	6.057609	1.026187	0.024199
 156	7.7500e-02	3.0882	18.580485	0.000424	4.240326	0.718331	0.016939
 157	7.8000e-02	3.1076	18.705511	0.000626	6.259529	1.060393	0.025005
 158	7.8500e-02	3.1274	18.814405	0.000545	5.451848	0.923568	0.021779
 159	7.9000e-02	3.1483	18.927332	0.000565	5.653768	0.957774	0.022585
 160	7.9500e-02	3.1677	19.056391	0.000646	6.461449	1.094599	0.025812
 161	8.0000e-02	3.1873	19.092689	0.000182	1.817283	0.307856	0.007260
 162	8.0500e-02	3.2068	19.266112	0.000868	8.682572	1.470868	0.034685
 163	8.1000e-02	3.2272	19.395171	0.000646	6.461449	1.094599	0.025812
 164	8.1500e-02	3.2477	19.467767	0.000363	3.634565	0.615712	0.014519
 165	8.2000e-02	3.2684	19.596826	0.000646	6.461449	1.094599	0.025812
 166	8.2500e-02	3.2881	19.661356	0.000323	3.230725	0.547300	0.012906
 167	8.3000e-02	3.3075	19.746051	0.000424	4.240326	0.718331	0.016939
 168	8.3500e-02	3.3290	19.935606	0.000949	9.490253	1.607692	0.037911
 169	8.4000e-02	3.3478	19.984004	0.000242	2.423043	0.410475	0.009679
 170	8.4500e-02	3.3691	20.137261	0.000767	7.672971	1.299836	0.030652
 171	8.5000e-02	3.3875	20.262287	0.000626	6.259529	1.060393	0.025005
 172	8.5500e-02	3.4082	20.484108	0.001111	11.105616	1.881342	0.044364
 173	8.6000e-02	3.4280	20.443777	-0.000202	-2.019203	-0.342062	-0.008066
 174	8.6500e-02	3.4488	20.576869	0.000666	6.663369	1.128805	0.026618
 175	8.7000e-02	3.4686	20.669630	0.000464	4.644167	0.786743	0.018552
 176	8.7500e-02	3.4874	20.818855	0.000747	7.471051	1.265630	0.029845
 177	8.8000e-02	3.5085	20.915649	0.000485	4.846087	0.820949	0.019359
 178	8.8500e-02	3.5275	21.032609	0.000586	5.855688	0.991980	0.023392
 179	8.9000e-02	3.5518	21.302827	0.001353	13.528659	2.291817	0.054044
 180	8.9500e-02	3.5677	21.250397	-0.000262	-2.624964	-0.444681	-0.010486
 181	9.0000e-02	3.5883	21.387522	0.000687	6.865290	1.163012	0.027425
 182	9.0500e-02	3.6081	21.411720	0.000121	1.211522	0.205237	0.004840
 183	9.1000e-02	3.6288	21.544813	0.000666	6.663369	1.128805	0.026618
 184	9.1500e-02	3.6494	21.677905	0.000666	6.663369	1.128805	0.026618
 185	9.2000e-02	3.6682	21.831163	0.000767	7.672971	1.299836	0.030652
 186	9.2500e-02	3.6871	21.948123	0.000586	5.855688	0.991980	0.023392
 187	9.3000e-02	3.7090	21.980387	0.000162	1.615362	0.273650	0.006453
 188	9.3500e-02	3.7282	22.069116	0.000444	4.442246	0.752537	0.017746
 189	9.4000e-02	3.7489	22.222373	0.000767	7.672971	1.299836	0.030652
 190	9.4500e-02	3.7689	22.339333	0.000586	5.855688	0.991980	0.023392
 191	9.5000e-02	3.7885	22.415962	0.000384	3.836485	0.649918	0.015326
 192	9.5500e-02	3.8086	22.524856	0.000545	5.451848	0.923568	0.021779
 193	9.6000e-02	3.8290	22.661981	0.000687	6.865290	1.163012	0.027425
 194	9.6500e-02	3.8486	22.766842	0.000525	5.249927	0.889362	0.020972
 195	9.7000e-02	3.8684	22.908000	0.000707	7.067210	1.197218	0.028232
 196	9.7500e-02	3.8885	23.028993	0.000606	6.057609	1.026187	0.024199
 197	9.8000e-02	3.9087	23.113688	0.000424	4.240326	0.718331	0.016939
 198	9.8500e-02	3.9285	23.202416	0.000444	4.442246	0.752537	0.017746
 199	9.9000e-02	3.9490	23.355674	0.000767	7.672971	1.299836	0.030652
 200	9.9500e-02	3.9682	23.416170	0.000303	3.028804	0.513093	0.012099
 201	1.0000e-01	3.9886	23.557329	0.000707	7.067210	1.197218	0.028232
 202	1.0050e-01	4.0088	23.650090	0.000464	4.644167	0.786743	0.018552
 203	1.0100e-01	4.0284	23.763017	0.000565	5.653768	0.957774	0.022585
 204	1.0150e-01	4.0486	23.851745	0.000444	4.442246	0.752537	0.017746
 205	1.0200e-01	4.0686	23.952573	0.000505	5.048007	0.855156	0.020165
 206	1.0250e-01	4.0887	24.081632	0.000646	6.461449	1.094599	0.025812
 207	1.0300e-01	4.1077	24.190525	0.000545	5.451848	0.923568	0.021779
 208	1.0350e-01	4.1284	24.283287	0.000464	4.644167	0.786743	0.018552
 209	1.0400e-01	4.1487	24.376048	0.000464	4.644167	0.786743	0.018552
 210	1.0450e-01	4.1687	24.517206	0.000707	7.067210	1.197218	0.028232
 211	1.0500e-01	4.1893	24.690630	0.000868	8.682572	1.470868	0.034685
 212	1.0550e-01	4.2084	24.730961	0.000202	2.019203	0.342062	0.008066
 213	1.0600e-01	4.2288	24.811623	0.000404	4.038406	0.684124	0.016132
 214	1.0650e-01	4.2493	24.916483	0.000525	5.249927	0.889362	0.020972
 215	1.0700e-01	4.2694	25.053609	0.000687	6.865290	1.163012	0.027425
 216	1.0750e-01	4.2891	25.150403	0.000485	4.846087	0.820949	0.019359
 217	1.0800e-01	4.3091	25.287528	0.000687	6.865290	1.163012	0.027425
 218	1.0850e-01	4.3298	25.384323	0.000485	4.846087	0.820949	0.019359
 219	1.0900e-01	4.3488	25.448852	0.000323	3.230725	0.547300	0.012906
 220	1.0950e-01	4.3686	25.533547	0.000424	4.240326	0.718331	0.016939
 221	1.1000e-01	4.3896	25.662606	0.000646	6.461449	1.094599	0.025812
 222	1.1050e-01	4.4092	25.771500	0.000545	5.451848	0.923568	0.021779
 223	1.1100e-01	4.4299	25.948956	0.000888	8.884493	1.505074	0.035491
 224	1.1150e-01	4.4495	26.017519	0.000343	3.432645	0.581506	0.013713
 225	1.1200e-01	4.4693	26.082049	0.000323	3.230725	0.547300	0.012906
 226	1.1250e-01	4.4885	26.223207	0.000707	7.067210	1.197218	0.028232
 227	1.1300e-01	4.5093	26.324035	0.000505	5.048007	0.855156	0.020165
 228	1.1350e-01	4.5276	26.396630	0.000363	3.634565	0.615712	0.014519
 229	1.1400e-01	4.5486	26.493425	0.000485	4.846087	0.820949	0.019359
 230	1.1450e-01	4.5685	26.630550	0.000687	6.865290	1.163012	0.027425
 231	1.1500e-01	4.5895	26.723311	0.000464	4.644167	0.786743	0.018552
 232	1.1550e-01	4.6091	26.852370	0.000646	6.461449	1.094599	0.025812
 233	1.1600e-01	4.6295	26.949165	0.000485	4.846087	0.820949	0.019359
 234	1.1650e-01	4.6494	27.118555	0.000848	8.480652	1.436661	0.033878
 235	1.1700e-01	4.6692	27.122588	0.000020	0.201920	0.034206	0.000807
 236	1.1750e-01	4.6899	27.243581	0.000606	6.057609	1.026187	0.024199
 237	1.1800e-01	4.7101	27.340375	0.000485	4.846087	0.820949	0.019359
 238	1.1850e-01	4.7339	27.493633	0.000767	7.672971	1.299836	0.030652
 239	1.1900e-01	4.7498	27.574295	0.000404	4.038406	0.684124	0.016132
 240	1.1950e-01	4.7693	27.630759	0.000283	2.826884	0.478887	0.011293
 241	1.2000e-01	4.7891	27.779983	0.000747	7.471051	1.265630	0.029845
 242	1.2050e-01	4.8083	27.868711	0.000444	4.442246	0.752537	0.017746
 243	1.2100e-01	4.8291	28.021969	0.000767	7.672971	1.299836	0.030652
 244	1.2150e-01	4.8492	28.146995	0.000626	6.259529	1.060393	0.025005
 245	1.2200e-01	4.8694	28.179260	0.000162	1.615362	0.273650	0.006453
 246	1.2250e-01	4.8885	28.316385	0.000687	6.865290	1.163012	0.027425
 247	1.2300e-01	4.9097	28.388981	0.000363	3.634565	0.615712	0.014519
 248	1.2350e-01	4.9286	28.522073	0.000666	6.663369	1.128805	0.026618
 249	1.2400e-01	4.9496	28.622901	0.000505	5.048007	0.855156	0.020165
 250	1.2450e-01	4.9701	28.699530	0.000384	3.836485	0.649918	0.015326
 251	1.2500e-01	4.9895	28.812456	0.000565	5.653768	0.957774	0.022585
 252	1.2550e-01	5.0098	28.897151	0.000424	4.240326	0.718331	0.016939
 253	1.2600e-01	5.0293	28.997979	0.000505	5.048007	0.855156	0.020165
 254	1.2650e-01	5.0494	29.114939	0.000586	5.855688	0.991980	0.023392
 255	1.2700e-01	5.0691	29.211733	0.000485	4.846087	0.820949	0.019359
 256	1.2750e-01	5.0891	29.324660	0.000565	5.653768	0.957774	0.022585
 257	1.2800e-01	5.1093	29.413388	0.000444	4.442246	0.752537	0.017746
 258	1.2850e-01	5.1291	29.494050	0.000404	4.038406	0.684124	0.016132
 259	1.2900e-01	5.1486	29.627142	0.000666	6.663369	1.128805	0.026618
 260	1.2950e-01	5.1691	29.719904	0.000464	4.644167	0.786743	0.018552
 261	1.3000e-01	5.1886	29.865095	0.000727	7.269130	1.231424	0.029038
 262	1.3050e-01	5.2084	29.909459	0.000222	2.221123	0.376268	0.008873
 263	1.3100e-01	5.2286	29.998187	0.000444	4.442246	0.752537	0.017746
 264	1.3150e-01	5.2490	30.151445	0.000767	7.672971	1.299836	0.030652
 265	1.3200e-01	5.2695	30.191776	0.000202	2.019203	0.342062	0.008066
 266	1.3250e-01	5.2893	30.341001	0.000747	7.471051	1.265630	0.029845
