»»»»»»»»»»»»»»»»»»»»»»»»»»»»»»»»»»»» Hysteresis ««««««««««««««««««««««««««««««««««««
»»»  Executed Version:	5.48.1
»»»  Vision Version:	5.48.4 (R)
»»»  Vision Compiled:	9/18/24
»»»  Driver Version:	5.47.0
»»»  Windows Version:	Windows 8 or 8.1
»»»  Processor Information:	x86 (AMD or Intel) - 32 Processors
»»»  Tester Name:	PMF21124-494 (100V)
»»»  Tester S/N:	PMF21124-494
»»»  Internal Amp Type:	100V RevK 270k
»»»  Internal Amp S/N:	iAB2-596/K     
»»»  Execution Count:	1
»»»»»»»»»»»»»»»»»»»»»»»»»»»»»»»»»»»»»»»»»»««««««««««««««««««««««««««««««««««««««««««

Stored:	7/1/2025 - 16:6:36
Configured:	07/01/25 10:49:51 AM
Executed:	07/01/25 04:06:07 PM

»»»»»»»»»»»»»»»»»»»»»»»»»»»»»»»»»»» Sample Info ««««««««««««««««««««««««««««««««««««
Sample Name:	
Lot Name:	
Wafer Name:	
Die Row/Column:	0/0
Capacitor Number:	0
Sample Area (cm2):	1.00e-04
Sample Thickness (microns):	1.50e-01

Amplifier:	Internal

»»»»»»»»»»»»»»»»»»»»»»»»»»»»»»»»»»» Tester Info «««««««««««««««««««««««««««««««««««
Tester Name:	PMF21124-494 (100V)
Tester Serial Number:	PMF21124-494
Return Signal Amp. Level:	0.19 [Index: 3]

»»»»»»»»»»»»»»»»»»»»»»»»»»»»»»»» Hysteresis Info ««««««««««««««««««««««««««««««««««
Task Name:	Hyst-22
Volts:	10.00
Field:	666.67 (kV/cm)
DCBias:	0.00
DCField:	0.00 (kV/cm)
Hysteresis Period (ms):	2.00e+02
Preset:	Enabled
Preset Delay (ms):	1.00e+03
Profile:	Standard Bipolar

»»»»»»»»»»»»»»»»»»»»»»»»»»»»»»»»»»»»»» Data «««««««««««««««««««««««««««««««««««««««
Points:	2009

Valid Data

Point	Time (ms)	Drive Voltage	Measured Polarization (uC/cm2)	Capacitance (uF)	Normalized Capacitance (uF/cm2)	Dielectric Constant	Instantaneous Current (mA)
   1	0.0000e+00	-0.0005	-12.442452	0.000872	8.716407	1.476599	0.000174
   2	9.9500e-02	0.0197	-12.268856	0.000872	8.716407	1.476599	0.000174
   3	1.9900e-01	0.0388	-12.079110	0.000953	9.527235	1.613957	0.000191
   4	2.9850e-01	0.0577	-11.881290	0.000993	9.932649	1.682636	0.000199
   5	3.9800e-01	0.0784	-11.699619	0.000912	9.121821	1.545278	0.000183
   6	4.9750e-01	0.0994	-11.497763	0.001014	10.135357	1.716976	0.000203
   7	5.9700e-01	0.1186	-11.275720	0.001115	11.148892	1.888673	0.000223
   8	6.9650e-01	0.1383	-11.110198	0.000831	8.310992	1.407920	0.000166
   9	7.9600e-01	0.1586	-10.904304	0.001034	10.338064	1.751315	0.000207
  10	8.9550e-01	0.1791	-10.686298	0.001095	10.946185	1.854334	0.000219
  11	9.9500e-01	0.1987	-10.512701	0.000872	8.716407	1.476599	0.000174
  12	1.0945e+00	0.2189	-10.326993	0.000932	9.324528	1.579618	0.000187
  13	1.1940e+00	0.2396	-10.108988	0.001095	10.946185	1.854334	0.000219
  14	1.2935e+00	0.2592	-9.931354	0.000892	8.919114	1.510939	0.000179
  15	1.3930e+00	0.2781	-9.713349	0.001095	10.946185	1.854334	0.000219
  16	1.4925e+00	0.2979	-9.515529	0.000993	9.932649	1.682636	0.000199
  17	1.5920e+00	0.3186	-9.301561	0.001074	10.743478	1.819994	0.000215
  18	1.6915e+00	0.3386	-9.115852	0.000932	9.324528	1.579618	0.000187
  19	1.7910e+00	0.3569	-8.909959	0.001034	10.338064	1.751315	0.000207
  20	1.8905e+00	0.3783	-8.732325	0.000892	8.919114	1.510939	0.000179
  21	1.9900e+00	0.3982	-8.522394	0.001054	10.540771	1.785655	0.000211
  22	2.0895e+00	0.4168	-8.320537	0.001014	10.135357	1.716976	0.000203
  23	2.1890e+00	0.4372	-8.126754	0.000973	9.729942	1.648297	0.000195
  24	2.2885e+00	0.4585	-7.900675	0.001135	11.351599	1.923013	0.000227
  25	2.3880e+00	0.4776	-7.710929	0.000953	9.527235	1.613957	0.000191
  26	2.4875e+00	0.4972	-7.529258	0.000912	9.121821	1.545278	0.000183
  27	2.5870e+00	0.5162	-7.299141	0.001155	11.554306	1.957352	0.000231
  28	2.6865e+00	0.5372	-7.089210	0.001054	10.540771	1.785655	0.000211
  29	2.7860e+00	0.5569	-6.891391	0.000993	9.932649	1.682636	0.000199
  30	2.8855e+00	0.5782	-6.709720	0.000912	9.121821	1.545278	0.000183
  31	2.9850e+00	0.5971	-6.495751	0.001074	10.743478	1.819994	0.000215
  32	3.0845e+00	0.6173	-6.273709	0.001115	11.148892	1.888673	0.000223
  33	3.1840e+00	0.6371	-6.079926	0.000973	9.729942	1.648297	0.000195
  34	3.2835e+00	0.6568	-5.874032	0.001034	10.338064	1.751315	0.000207
  35	3.3830e+00	0.6772	-5.639879	0.001176	11.757014	1.991692	0.000235
  36	3.4825e+00	0.6973	-5.446096	0.000973	9.729942	1.648297	0.000195
  37	3.5820e+00	0.7169	-5.228091	0.001095	10.946185	1.854334	0.000219
  38	3.6815e+00	0.7368	-5.034308	0.000973	9.729942	1.648297	0.000195
  39	3.7810e+00	0.7560	-4.820340	0.001074	10.743478	1.819994	0.000215
  40	3.8805e+00	0.7768	-4.610409	0.001054	10.540771	1.785655	0.000211
  41	3.9800e+00	0.7959	-4.384329	0.001135	11.351599	1.923013	0.000227
  42	4.0795e+00	0.8157	-4.166324	0.001095	10.946185	1.854334	0.000219
  43	4.1790e+00	0.8355	-4.004839	0.000811	8.108285	1.373581	0.000162
  44	4.2785e+00	0.8556	-3.770685	0.001176	11.757014	1.991692	0.000235
  45	4.3780e+00	0.8766	-3.536531	0.001176	11.757014	1.991692	0.000235
  46	4.4775e+00	0.8958	-3.322563	0.001074	10.743478	1.819994	0.000215
  47	4.5770e+00	0.9155	-3.088409	0.001176	11.757014	1.991692	0.000235
  48	4.6765e+00	0.9353	-2.902701	0.000932	9.324528	1.579618	0.000187
  49	4.7760e+00	0.9550	-2.708918	0.000973	9.729942	1.648297	0.000195
  50	4.8755e+00	0.9748	-2.470727	0.001196	11.959721	2.026032	0.000239
  51	4.9750e+00	0.9949	-2.244647	0.001135	11.351599	1.923013	0.000227
  52	5.0745e+00	1.0159	-2.054902	0.000953	9.527235	1.613957	0.000191
  53	5.1740e+00	1.0351	-1.820748	0.001176	11.757014	1.991692	0.000235
  54	5.2735e+00	1.0555	-1.566409	0.001277	12.770549	2.163390	0.000256
  55	5.3730e+00	1.0748	-1.384738	0.000912	9.121821	1.545278	0.000183
  56	5.4725e+00	1.0951	-1.110212	0.001378	13.784085	2.335087	0.000276
  57	5.5720e+00	1.1150	-0.916430	0.000973	9.729942	1.648297	0.000195
  58	5.6715e+00	1.1347	-0.706499	0.001054	10.540771	1.785655	0.000211
  59	5.7710e+00	1.1554	-0.508679	0.000993	9.932649	1.682636	0.000199
  60	5.8705e+00	1.1744	-0.234154	0.001378	13.784085	2.335087	0.000276
  61	5.9700e+00	1.1948	-0.084780	0.000750	7.500164	1.270562	0.000150
  62	6.0695e+00	1.2141	0.177634	0.001318	13.175963	2.232069	0.000264
  63	6.1690e+00	1.2347	0.383528	0.001034	10.338064	1.751315	0.000207
  64	6.2685e+00	1.2551	0.641905	0.001297	12.973256	2.197729	0.000260
  65	6.3680e+00	1.2739	0.835687	0.000973	9.729942	1.648297	0.000195
  66	6.4675e+00	1.2933	1.090027	0.001277	12.770549	2.163390	0.000256
  67	6.5670e+00	1.3136	1.291883	0.001014	10.135357	1.716976	0.000203
  68	6.6665e+00	1.3330	1.513926	0.001115	11.148892	1.888673	0.000223
  69	6.7660e+00	1.3537	1.735968	0.001115	11.148892	1.888673	0.000223
  70	6.8655e+00	1.3729	1.986271	0.001257	12.567842	2.129050	0.000252
  71	6.9650e+00	1.3933	2.200239	0.001074	10.743478	1.819994	0.000215
  72	7.0645e+00	1.4132	2.422281	0.001115	11.148892	1.888673	0.000223
  73	7.1640e+00	1.4333	2.616064	0.000973	9.729942	1.648297	0.000195
  74	7.2635e+00	1.4530	2.878478	0.001318	13.175963	2.232069	0.000264
  75	7.3630e+00	1.4734	3.116669	0.001196	11.959721	2.026032	0.000239
  76	7.4625e+00	1.4931	3.334674	0.001095	10.946185	1.854334	0.000219
  77	7.5620e+00	1.5133	3.556717	0.001115	11.148892	1.888673	0.000223
  78	7.6615e+00	1.5319	3.774722	0.001095	10.946185	1.854334	0.000219
  79	7.7610e+00	1.5536	4.037136	0.001318	13.175963	2.232069	0.000264
  80	7.8605e+00	1.5736	4.247067	0.001054	10.540771	1.785655	0.000211
  81	7.9600e+00	1.5922	4.456998	0.001054	10.540771	1.785655	0.000211
  82	8.0595e+00	1.6122	4.679040	0.001115	11.148892	1.888673	0.000223
  83	8.1590e+00	1.6329	4.901083	0.001115	11.148892	1.888673	0.000223
  84	8.2585e+00	1.6521	5.131200	0.001155	11.554306	1.957352	0.000231
  85	8.3580e+00	1.6720	5.401688	0.001358	13.581378	2.300748	0.000272
  86	8.4575e+00	1.6911	5.603544	0.001014	10.135357	1.716976	0.000203
  87	8.5570e+00	1.7125	5.865958	0.001318	13.175963	2.232069	0.000264
  88	8.6565e+00	1.7312	6.100112	0.001176	11.757014	1.991692	0.000235
  89	8.7560e+00	1.7519	6.297932	0.000993	9.932649	1.682636	0.000199
  90	8.8555e+00	1.7722	6.528048	0.001155	11.554306	1.957352	0.000231
  91	8.9550e+00	1.7912	6.746054	0.001095	10.946185	1.854334	0.000219
  92	9.0545e+00	1.8129	6.992319	0.001237	12.365135	2.094711	0.000248
  93	9.1540e+00	1.8326	7.226473	0.001176	11.757014	1.991692	0.000235
  94	9.2535e+00	1.8507	7.391996	0.000831	8.310992	1.407920	0.000166
  95	9.3530e+00	1.8721	7.706892	0.001581	15.811156	2.678482	0.000316
  96	9.4525e+00	1.8922	7.896638	0.000953	9.527235	1.613957	0.000191
  97	9.5520e+00	1.9113	8.114643	0.001095	10.946185	1.854334	0.000219
  98	9.6515e+00	1.9312	8.344760	0.001155	11.554306	1.957352	0.000231
  99	9.7510e+00	1.9521	8.586988	0.001216	12.162428	2.060371	0.000243
 100	9.8505e+00	1.9714	8.804993	0.001095	10.946185	1.854334	0.000219
 101	9.9500e+00	1.9904	9.039147	0.001176	11.757014	1.991692	0.000235
 102	1.0050e+01	2.0104	9.253115	0.001074	10.743478	1.819994	0.000215
 103	1.0149e+01	2.0309	9.503418	0.001257	12.567842	2.129050	0.000252
 104	1.0248e+01	2.0514	9.733534	0.001155	11.554306	1.957352	0.000231
 105	1.0348e+01	2.0705	9.963651	0.001155	11.554306	1.957352	0.000231
 106	1.0447e+01	2.0905	10.189731	0.001135	11.351599	1.923013	0.000227
 107	1.0547e+01	2.1113	10.403699	0.001074	10.743478	1.819994	0.000215
 108	1.0646e+01	2.1301	10.601518	0.000993	9.932649	1.682636	0.000199
 109	1.0746e+01	2.1504	10.851821	0.001257	12.567842	2.129050	0.000252
 110	1.0845e+01	2.1713	11.057715	0.001034	10.338064	1.751315	0.000207
 111	1.0945e+01	2.1909	11.344351	0.001439	14.392206	2.438106	0.000288
 112	1.1044e+01	2.2112	11.538134	0.000973	9.729942	1.648297	0.000195
 113	1.1144e+01	2.2306	11.756139	0.001095	10.946185	1.854334	0.000219
 114	1.1243e+01	2.2501	12.022590	0.001338	13.378671	2.266408	0.000268
 115	1.1343e+01	2.2695	12.272893	0.001257	12.567842	2.129050	0.000252
 116	1.1443e+01	2.2901	12.486861	0.001074	10.743478	1.819994	0.000215
 117	1.1542e+01	2.3098	12.712940	0.001135	11.351599	1.923013	0.000227
 118	1.1642e+01	2.3302	12.914797	0.001014	10.135357	1.716976	0.000203
 119	1.1741e+01	2.3500	13.173174	0.001297	12.973256	2.197729	0.000260
 120	1.1841e+01	2.3692	13.358882	0.000932	9.324528	1.579618	0.000187
 121	1.1940e+01	2.3895	13.601110	0.001216	12.162428	2.060371	0.000243
 122	1.2040e+01	2.4101	13.835264	0.001176	11.757014	1.991692	0.000235
 123	1.2139e+01	2.4291	14.065381	0.001155	11.554306	1.957352	0.000231
 124	1.2239e+01	2.4488	14.295498	0.001155	11.554306	1.957352	0.000231
 125	1.2338e+01	2.4697	14.541763	0.001237	12.365135	2.094711	0.000248
 126	1.2438e+01	2.4887	14.723434	0.000912	9.121821	1.545278	0.000183
 127	1.2537e+01	2.5097	14.981811	0.001297	12.973256	2.197729	0.000260
 128	1.2636e+01	2.5288	15.199816	0.001095	10.946185	1.854334	0.000219
 129	1.2736e+01	2.5499	15.421859	0.001115	11.148892	1.888673	0.000223
 130	1.2835e+01	2.5674	15.660050	0.001196	11.959721	2.026032	0.000239
 131	1.2935e+01	2.5886	15.874018	0.001074	10.743478	1.819994	0.000215
 132	1.3034e+01	2.6083	16.144506	0.001358	13.581378	2.300748	0.000272
 133	1.3134e+01	2.6283	16.334251	0.000953	9.527235	1.613957	0.000191
 134	1.3233e+01	2.6481	16.552257	0.001095	10.946185	1.854334	0.000219
 135	1.3333e+01	2.6681	16.750076	0.000993	9.932649	1.682636	0.000199
 136	1.3432e+01	2.6882	17.000379	0.001257	12.567842	2.129050	0.000252
 137	1.3532e+01	2.7084	17.222421	0.001115	11.148892	1.888673	0.000223
 138	1.3632e+01	2.7275	17.476761	0.001277	12.770549	2.163390	0.000256
 139	1.3731e+01	2.7485	17.674580	0.000993	9.932649	1.682636	0.000199
 140	1.3831e+01	2.7686	17.888548	0.001074	10.743478	1.819994	0.000215
 141	1.3930e+01	2.7888	18.082331	0.000973	9.729942	1.648297	0.000195
 142	1.4030e+01	2.8080	18.328596	0.001237	12.365135	2.094711	0.000248
 143	1.4129e+01	2.8275	18.574862	0.001237	12.365135	2.094711	0.000248
 144	1.4229e+01	2.8481	18.776718	0.001014	10.135357	1.716976	0.000203
 145	1.4328e+01	2.8675	19.039132	0.001318	13.175963	2.232069	0.000264
 146	1.4428e+01	2.8874	19.208692	0.000851	8.513699	1.442260	0.000170
 147	1.4527e+01	2.9082	19.446883	0.001196	11.959721	2.026032	0.000239
 148	1.4627e+01	2.9278	19.656814	0.001054	10.540771	1.785655	0.000211
 149	1.4726e+01	2.9484	19.862708	0.001034	10.338064	1.751315	0.000207
 150	1.4825e+01	2.9661	20.072639	0.001054	10.540771	1.785655	0.000211
 151	1.4925e+01	2.9869	20.306793	0.001176	11.757014	1.991692	0.000235
 152	1.5024e+01	3.0077	20.557095	0.001257	12.567842	2.129050	0.000252
 153	1.5124e+01	3.0270	20.815472	0.001297	12.973256	2.197729	0.000260
 154	1.5223e+01	3.0479	20.936586	0.000608	6.081214	1.030186	0.000122
 155	1.5323e+01	3.0669	21.223223	0.001439	14.392206	2.438106	0.000288
 156	1.5422e+01	3.0867	21.429116	0.001034	10.338064	1.751315	0.000207
 157	1.5522e+01	3.1068	21.630973	0.001014	10.135357	1.716976	0.000203
 158	1.5621e+01	3.1268	21.816682	0.000932	9.324528	1.579618	0.000187
 159	1.5721e+01	3.1469	22.030650	0.001074	10.743478	1.819994	0.000215
 160	1.5820e+01	3.1667	22.301138	0.001358	13.581378	2.300748	0.000272
 161	1.5920e+01	3.1867	22.458586	0.000791	7.905578	1.339241	0.000158
 162	1.6020e+01	3.2069	22.692740	0.001176	11.757014	1.991692	0.000235
 163	1.6119e+01	3.2265	22.926894	0.001176	11.757014	1.991692	0.000235
 164	1.6218e+01	3.2459	23.108565	0.000912	9.121821	1.545278	0.000183
 165	1.6318e+01	3.2665	23.338682	0.001155	11.554306	1.957352	0.000231
 166	1.6418e+01	3.2863	23.597058	0.001297	12.973256	2.197729	0.000260
 167	1.6517e+01	3.3054	23.766618	0.000851	8.513699	1.442260	0.000170
 168	1.6616e+01	3.3254	23.956363	0.000953	9.527235	1.613957	0.000191
 169	1.6716e+01	3.3458	24.154183	0.000993	9.932649	1.682636	0.000199
 170	1.6816e+01	3.3652	24.400448	0.001237	12.365135	2.094711	0.000248
 171	1.6915e+01	3.3862	24.614417	0.001074	10.743478	1.819994	0.000215
 172	1.7015e+01	3.4061	24.824348	0.001054	10.540771	1.785655	0.000211
 173	1.7114e+01	3.4254	25.074650	0.001257	12.567842	2.129050	0.000252
 174	1.7213e+01	3.4461	25.207876	0.000669	6.689335	1.133204	0.000134
 175	1.7313e+01	3.4660	25.446067	0.001196	11.959721	2.026032	0.000239
 176	1.7413e+01	3.4850	25.660035	0.001074	10.743478	1.819994	0.000215
 177	1.7512e+01	3.5052	25.833632	0.000872	8.716407	1.476599	0.000174
 178	1.7611e+01	3.5255	26.092008	0.001297	12.973256	2.197729	0.000260
 179	1.7711e+01	3.5444	26.261568	0.000851	8.513699	1.442260	0.000170
 180	1.7811e+01	3.5650	26.503796	0.001216	12.162428	2.060371	0.000243
 181	1.7910e+01	3.5851	26.705653	0.001014	10.135357	1.716976	0.000203
 182	1.8009e+01	3.6047	26.903473	0.000993	9.932649	1.682636	0.000199
 183	1.8109e+01	3.6255	27.153775	0.001257	12.567842	2.129050	0.000252
 184	1.8209e+01	3.6451	27.339483	0.000932	9.324528	1.579618	0.000187
 185	1.8308e+01	3.6649	27.513080	0.000872	8.716407	1.476599	0.000174
 186	1.8407e+01	3.6852	27.702825	0.000953	9.527235	1.613957	0.000191
 187	1.8507e+01	3.7045	27.961202	0.001297	12.973256	2.197729	0.000260
 188	1.8607e+01	3.7244	28.150948	0.000953	9.527235	1.613957	0.000191
 189	1.8706e+01	3.7438	28.360879	0.001054	10.540771	1.785655	0.000211
 190	1.8805e+01	3.7643	28.550624	0.000953	9.527235	1.613957	0.000191
 191	1.8905e+01	3.7837	28.736332	0.000932	9.324528	1.579618	0.000187
 192	1.9005e+01	3.8038	28.950300	0.001074	10.743478	1.819994	0.000215
 193	1.9104e+01	3.8237	29.148120	0.000993	9.932649	1.682636	0.000199
 194	1.9203e+01	3.8439	29.341903	0.000973	9.729942	1.648297	0.000195
 195	1.9303e+01	3.8636	29.572019	0.001155	11.554306	1.957352	0.000231
 196	1.9402e+01	3.8833	29.761765	0.000953	9.527235	1.613957	0.000191
 197	1.9502e+01	3.9039	29.959584	0.000993	9.932649	1.682636	0.000199
 198	1.9602e+01	3.9237	30.149330	0.000953	9.527235	1.613957	0.000191
 199	1.9701e+01	3.9429	30.387521	0.001196	11.959721	2.026032	0.000239
 200	1.9800e+01	3.9639	30.561118	0.000872	8.716407	1.476599	0.000174
 201	1.9900e+01	3.9829	30.758937	0.000993	9.932649	1.682636	0.000199
 202	2.0000e+01	4.0036	30.948683	0.000953	9.527235	1.613957	0.000191
 203	2.0099e+01	4.0226	31.178799	0.001155	11.554306	1.957352	0.000231
 204	2.0198e+01	4.0437	31.360470	0.000912	9.121821	1.545278	0.000183
 205	2.0298e+01	4.0632	31.578476	0.001095	10.946185	1.854334	0.000219
 206	2.0398e+01	4.0817	31.727850	0.000750	7.500164	1.270562	0.000150
 207	2.0497e+01	4.1021	31.962004	0.001176	11.757014	1.991692	0.000235
 208	2.0596e+01	4.1225	32.167898	0.001034	10.338064	1.751315	0.000207
 209	2.0696e+01	4.1430	32.329383	0.000811	8.108285	1.373581	0.000162
 210	2.0796e+01	4.1619	32.575648	0.001237	12.365135	2.094711	0.000248
 211	2.0895e+01	4.1827	32.773468	0.000993	9.932649	1.682636	0.000199
 212	2.0994e+01	4.2027	32.943028	0.000851	8.513699	1.442260	0.000170
 213	2.1094e+01	4.2226	33.100476	0.000791	7.905578	1.339241	0.000158
 214	2.1194e+01	4.2424	33.358853	0.001297	12.973256	2.197729	0.000260
 215	2.1293e+01	4.2631	33.540524	0.000912	9.121821	1.545278	0.000183
 216	2.1392e+01	4.2830	33.726232	0.000932	9.324528	1.579618	0.000187
 217	2.1492e+01	4.3023	33.968460	0.001216	12.162428	2.060371	0.000243
 218	2.1591e+01	4.3214	34.093611	0.000628	6.283921	1.064525	0.000126
 219	2.1691e+01	4.3415	34.307580	0.001074	10.743478	1.819994	0.000215
 220	2.1791e+01	4.3616	34.517511	0.001054	10.540771	1.785655	0.000211
 221	2.1890e+01	4.3824	34.695145	0.000892	8.919114	1.510939	0.000179
 222	2.1989e+01	4.4018	34.884890	0.000953	9.527235	1.613957	0.000191
 223	2.2089e+01	4.4221	35.102895	0.001095	10.946185	1.854334	0.000219
 224	2.2189e+01	4.4416	35.324938	0.001115	11.148892	1.888673	0.000223
 225	2.2288e+01	4.4614	35.486423	0.000811	8.108285	1.373581	0.000162
 226	2.2387e+01	4.4820	35.680206	0.000973	9.729942	1.648297	0.000195
 227	2.2487e+01	4.5011	35.829580	0.000750	7.500164	1.270562	0.000150
 228	2.2587e+01	4.5213	36.063734	0.001176	11.757014	1.991692	0.000235
 229	2.2686e+01	4.5406	36.249442	0.000932	9.324528	1.579618	0.000187
 230	2.2785e+01	4.5609	36.479559	0.001155	11.554306	1.957352	0.000231
 231	2.2885e+01	4.5806	36.649118	0.000851	8.513699	1.442260	0.000170
 232	2.2985e+01	4.6009	36.798492	0.000750	7.500164	1.270562	0.000150
 233	2.3084e+01	4.6205	37.024572	0.001135	11.351599	1.923013	0.000227
 234	2.3183e+01	4.6413	37.206243	0.000912	9.121821	1.545278	0.000183
 235	2.3283e+01	4.6615	37.428285	0.001115	11.148892	1.888673	0.000223
 236	2.3383e+01	4.6810	37.581697	0.000770	7.702871	1.304902	0.000154
 237	2.3482e+01	4.7005	37.799702	0.001095	10.946185	1.854334	0.000219
 238	2.3581e+01	4.7211	37.949076	0.000750	7.500164	1.270562	0.000150
 239	2.3681e+01	4.7405	38.183230	0.001176	11.757014	1.991692	0.000235
 240	2.3780e+01	4.7614	38.401235	0.001095	10.946185	1.854334	0.000219
 241	2.3880e+01	4.7805	38.546572	0.000730	7.297457	1.236223	0.000146
 242	2.3980e+01	4.8003	38.748429	0.001014	10.135357	1.716976	0.000203
 243	2.4079e+01	4.8203	38.954323	0.001034	10.338064	1.751315	0.000207
 244	2.4178e+01	4.8385	39.148105	0.000973	9.729942	1.648297	0.000195
 245	2.4278e+01	4.8602	39.329776	0.000912	9.121821	1.545278	0.000183
 246	2.4378e+01	4.8796	39.531633	0.001014	10.135357	1.716976	0.000203
 247	2.4477e+01	4.8988	39.668896	0.000689	6.892042	1.167544	0.000138
 248	2.4576e+01	4.9198	39.882864	0.001074	10.743478	1.819994	0.000215
 249	2.4676e+01	4.9392	40.104906	0.001115	11.148892	1.888673	0.000223
 250	2.4776e+01	4.9584	40.322912	0.001095	10.946185	1.854334	0.000219
 251	2.4875e+01	4.9790	40.472286	0.000750	7.500164	1.270562	0.000150
 252	2.4974e+01	4.9993	40.674143	0.001014	10.135357	1.716976	0.000203
 253	2.5074e+01	5.0191	40.843702	0.000851	8.513699	1.442260	0.000170
 254	2.5174e+01	5.0388	41.009225	0.000831	8.310992	1.407920	0.000166
 255	2.5273e+01	5.0589	41.227230	0.001095	10.946185	1.854334	0.000219
 256	2.5372e+01	5.0786	41.412938	0.000932	9.324528	1.579618	0.000187
 257	2.5472e+01	5.0997	41.598647	0.000932	9.324528	1.579618	0.000187
 258	2.5572e+01	5.1182	41.768206	0.000851	8.513699	1.442260	0.000170
 259	2.5671e+01	5.1380	41.941803	0.000872	8.716407	1.476599	0.000174
 260	2.5770e+01	5.1585	42.184031	0.001216	12.162428	2.060371	0.000243
 261	2.5870e+01	5.1785	42.337442	0.000770	7.702871	1.304902	0.000154
 262	2.5970e+01	5.1983	42.502965	0.000831	8.310992	1.407920	0.000166
 263	2.6069e+01	5.2188	42.733082	0.001155	11.554306	1.957352	0.000231
 264	2.6169e+01	5.2378	42.938976	0.001034	10.338064	1.751315	0.000207
