»»»»»»»»»»»»»»»»»»»»»»»»»»»»»»»»»»»» Hysteresis ««««««««««««««««««««««««««««««««««««
»»»  Executed Version:	5.48.1
»»»  Vision Version:	5.48.4 (R)
»»»  Vision Compiled:	9/18/24
»»»  Driver Version:	5.47.0
»»»  Windows Version:	Windows 8 or 8.1
»»»  Processor Information:	x86 (AMD or Intel) - 32 Processors
»»»  Tester Name:	PMF21124-494 (100V)
»»»  Tester S/N:	PMF21124-494
»»»  Internal Amp Type:	100V RevK 270k
»»»  Internal Amp S/N:	iAB2-596/K     
»»»  Execution Count:	1
»»»»»»»»»»»»»»»»»»»»»»»»»»»»»»»»»»»»»»»»»»««««««««««««««««««««««««««««««««««««««««««

Stored:	6/26/2025 - 17:8:58
Configured:	06/26/25 10:24:47 AM
Executed:	06/26/25 05:08:29 PM

»»»»»»»»»»»»»»»»»»»»»»»»»»»»»»»»»»» Sample Info ««««««««««««««««««««««««««««««««««««
Sample Name:	
Lot Name:	
Wafer Name:	
Die Row/Column:	0/0
Capacitor Number:	0
Sample Area (cm2):	1.00e-04
Sample Thickness (microns):	1.50e-01

Amplifier:	Internal

»»»»»»»»»»»»»»»»»»»»»»»»»»»»»»»»»»» Tester Info «««««««««««««««««««««««««««««««««««
Tester Name:	PMF21124-494 (100V)
Tester Serial Number:	PMF21124-494
Return Signal Amp. Level:	1.79 [Index: 2]

»»»»»»»»»»»»»»»»»»»»»»»»»»»»»»»» Hysteresis Info ««««««««««««««««««««««««««««««««««
Task Name:	Hyst-562
Volts:	10.00
Field:	666.67 (kV/cm)
DCBias:	0.00
DCField:	0.00 (kV/cm)
Hysteresis Period (ms):	1.00e+00
Preset:	Enabled
Preset Delay (ms):	1.00e+03
Profile:	Standard Monopolar

»»»»»»»»»»»»»»»»»»»»»»»»»»»»»»»»»»»»»» Data «««««««««««««««««««««««««««««««««««««««
Points:	2001

Valid Data

Point	Time (ms)	Drive Voltage	Measured Polarization (uC/cm2)	Capacitance (uF)	Normalized Capacitance (uF/cm2)	Dielectric Constant	Instantaneous Current (mA)
   1	0.0000e+00	-0.0059	-10.872586	0.000252	2.522037	0.427245	0.005046
   2	5.0000e-04	0.0047	-10.847357	0.000252	2.522037	0.427245	0.005046
   3	1.0000e-03	0.0185	-10.830252	0.000171	1.709855	0.289657	0.003421
   4	1.5000e-03	0.0260	-10.797324	0.000329	3.291472	0.557590	0.006585
   5	2.0000e-03	0.0379	-10.772950	0.000244	2.436544	0.412762	0.004875
   6	2.5000e-03	0.0454	-10.760121	0.000128	1.282392	0.217243	0.002566
   7	3.0000e-03	0.0546	-10.719497	0.000406	4.060906	0.687936	0.008125
   8	3.5000e-03	0.0665	-10.702819	0.000167	1.667109	0.282416	0.003335
   9	4.0000e-03	0.0761	-10.670320	0.000325	3.248725	0.550349	0.006500
  10	4.5000e-03	0.0877	-10.652787	0.000175	1.752602	0.296899	0.003507
  11	5.0000e-03	0.0970	-10.626702	0.000261	2.607529	0.441727	0.005217
  12	5.5000e-03	0.1054	-10.602755	0.000239	2.393798	0.405520	0.004789
  13	6.0000e-03	0.1186	-10.569828	0.000329	3.291472	0.557590	0.006585
  14	6.5000e-03	0.1240	-10.545453	0.000244	2.436544	0.412762	0.004875
  15	7.0000e-03	0.1373	-10.521078	0.000244	2.436544	0.412762	0.004875
  16	7.5000e-03	0.1448	-10.497559	0.000235	2.351051	0.398279	0.004704
  17	8.0000e-03	0.1546	-10.463349	0.000342	3.419711	0.579315	0.006842
  18	8.5000e-03	0.1656	-10.446244	0.000171	1.709855	0.289657	0.003421
  19	9.0000e-03	0.1750	-10.409041	0.000372	3.718935	0.630005	0.007441
  20	9.5000e-03	0.1881	-10.391508	0.000175	1.752602	0.296899	0.003507
  21	1.0000e-02	0.1927	-10.364568	0.000269	2.693022	0.456210	0.005388
  22	1.0500e-02	0.2048	-10.341048	0.000235	2.351051	0.398279	0.004704
  23	1.1000e-02	0.2157	-10.318812	0.000222	2.222812	0.376555	0.004447
  24	1.1500e-02	0.2264	-10.290161	0.000286	2.864008	0.485176	0.005730
  25	1.2000e-02	0.2374	-10.274766	0.000154	1.538870	0.260692	0.003079
  26	1.2500e-02	0.2448	-10.237135	0.000376	3.761682	0.637246	0.007526
  27	1.3000e-02	0.2570	-10.214043	0.000231	2.308305	0.391037	0.004618
  28	1.3500e-02	0.2641	-10.196511	0.000175	1.752602	0.296899	0.003507
  29	1.4000e-02	0.2748	-10.168715	0.000278	2.778515	0.470693	0.005559
  30	1.4500e-02	0.2845	-10.134078	0.000346	3.462457	0.586556	0.006928
  31	1.5000e-02	0.2940	-10.119111	0.000150	1.496123	0.253450	0.002993
  32	1.5500e-02	0.3083	-10.084473	0.000346	3.462457	0.586556	0.006928
  33	1.6000e-02	0.3177	-10.068651	0.000158	1.581616	0.267933	0.003164
  34	1.6500e-02	0.3263	-10.040428	0.000282	2.821261	0.477935	0.005645
  35	1.7000e-02	0.3371	-10.009639	0.000308	3.077740	0.521383	0.006158
  36	1.7500e-02	0.3475	-9.997237	0.000124	1.239645	0.210002	0.002480
  37	1.8000e-02	0.3556	-9.971580	0.000256	2.564783	0.434486	0.005132
  38	1.8500e-02	0.3658	-9.933521	0.000380	3.804428	0.644488	0.007612
  39	1.9000e-02	0.3758	-9.909147	0.000244	2.436544	0.412762	0.004875
  40	1.9500e-02	0.3838	-9.889904	0.000192	1.923587	0.325865	0.003849
  41	2.0000e-02	0.3950	-9.856549	0.000333	3.334218	0.564832	0.006671
  42	2.0500e-02	0.4055	-9.837306	0.000192	1.923587	0.325865	0.003849
  43	2.1000e-02	0.4166	-9.811220	0.000261	2.607529	0.441727	0.005217
  44	2.1500e-02	0.4247	-9.783852	0.000274	2.735769	0.463452	0.005474
  45	2.2000e-02	0.4377	-9.765037	0.000188	1.880841	0.318623	0.003763
  46	2.2500e-02	0.4437	-9.739807	0.000252	2.522037	0.427245	0.005046
  47	2.3000e-02	0.4549	-9.709873	0.000299	2.992247	0.506900	0.005987
  48	2.3500e-02	0.4684	-9.679084	0.000308	3.077740	0.521383	0.006158
  49	2.4000e-02	0.4745	-9.664117	0.000150	1.496123	0.253450	0.002993
  50	2.4500e-02	0.4835	-9.627769	0.000363	3.633443	0.615522	0.007270
  51	2.5000e-02	0.4962	-9.614940	0.000128	1.282392	0.217243	0.002566
  52	2.5500e-02	0.5070	-9.581158	0.000338	3.376964	0.572073	0.006756
  53	2.6000e-02	0.5159	-9.558494	0.000227	2.265558	0.383796	0.004533
  54	2.6500e-02	0.5228	-9.524712	0.000338	3.376964	0.572073	0.006756
  55	2.7000e-02	0.5344	-9.508462	0.000162	1.624363	0.275174	0.003250
  56	2.7500e-02	0.5443	-9.482377	0.000261	2.607529	0.441727	0.005217
  57	2.8000e-02	0.5568	-9.455436	0.000269	2.693022	0.456210	0.005388
  58	2.8500e-02	0.5667	-9.432772	0.000227	2.265558	0.383796	0.004533
  59	2.9000e-02	0.5753	-9.402411	0.000303	3.034993	0.514142	0.006072
  60	2.9500e-02	0.5827	-9.381029	0.000214	2.137319	0.362072	0.004276
  61	3.0000e-02	0.5940	-9.362214	0.000188	1.880841	0.318623	0.003763
  62	3.0500e-02	0.6044	-9.338695	0.000235	2.351051	0.398279	0.004704
  63	3.1000e-02	0.6154	-9.310044	0.000286	2.864008	0.485176	0.005730
  64	3.1500e-02	0.6300	-9.286524	0.000235	2.351051	0.398279	0.004704
  65	3.2000e-02	0.6374	-9.268992	0.000175	1.752602	0.296899	0.003507
  66	3.2500e-02	0.6473	-9.237347	0.000316	3.163232	0.535866	0.006329
  67	3.3000e-02	0.6564	-9.206131	0.000312	3.120486	0.528625	0.006243
  68	3.3500e-02	0.6661	-9.184322	0.000218	2.180066	0.369313	0.004362
  69	3.4000e-02	0.6732	-9.156099	0.000282	2.821261	0.477935	0.005645
  70	3.4500e-02	0.6862	-9.131724	0.000244	2.436544	0.412762	0.004875
  71	3.5000e-02	0.6942	-9.108205	0.000235	2.351051	0.398279	0.004704
  72	3.5500e-02	0.7053	-9.082975	0.000252	2.522037	0.427245	0.005046
  73	3.6000e-02	0.7153	-9.053896	0.000291	2.906754	0.492417	0.005816
  74	3.6500e-02	0.7253	-9.033798	0.000201	2.009080	0.340347	0.004020
  75	3.7000e-02	0.7393	-9.003009	0.000308	3.077740	0.521383	0.006158
  76	3.7500e-02	0.7450	-8.972220	0.000308	3.077740	0.521383	0.006158
  77	3.8000e-02	0.7565	-8.951266	0.000209	2.094573	0.354830	0.004191
  78	3.8500e-02	0.7626	-8.930312	0.000209	2.094573	0.354830	0.004191
  79	3.9000e-02	0.7751	-8.899951	0.000303	3.034993	0.514142	0.006072
  80	3.9500e-02	0.7880	-8.877287	0.000227	2.265558	0.383796	0.004533
  81	4.0000e-02	0.7956	-8.861465	0.000158	1.581616	0.267933	0.003164
  82	4.0500e-02	0.8057	-8.834952	0.000265	2.650276	0.448969	0.005303
  83	4.1000e-02	0.8169	-8.808012	0.000269	2.693022	0.456210	0.005388
  84	4.1500e-02	0.8258	-8.780644	0.000274	2.735769	0.463452	0.005474
  85	4.2000e-02	0.8344	-8.751993	0.000286	2.864008	0.485176	0.005730
  86	4.2500e-02	0.8460	-8.730611	0.000214	2.137319	0.362072	0.004276
  87	4.3000e-02	0.8546	-8.700678	0.000299	2.992247	0.506900	0.005987
  88	4.3500e-02	0.8650	-8.679724	0.000209	2.094573	0.354830	0.004191
  89	4.4000e-02	0.8746	-8.658343	0.000214	2.137319	0.362072	0.004276
  90	4.4500e-02	0.8854	-8.630547	0.000278	2.778515	0.470693	0.005559
  91	4.5000e-02	0.8955	-8.608738	0.000218	2.180066	0.369313	0.004362
  92	4.5500e-02	0.9039	-8.576239	0.000325	3.248725	0.550349	0.006500
  93	4.6000e-02	0.9165	-8.548871	0.000274	2.735769	0.463452	0.005474
  94	4.6500e-02	0.9254	-8.536897	0.000120	1.196899	0.202760	0.002395
  95	4.7000e-02	0.9361	-8.501404	0.000355	3.547950	0.601039	0.007099
  96	4.7500e-02	0.9492	-8.480023	0.000214	2.137319	0.362072	0.004276
  97	4.8000e-02	0.9573	-8.462490	0.000175	1.752602	0.296899	0.003507
  98	4.8500e-02	0.9685	-8.435550	0.000269	2.693022	0.456210	0.005388
  99	4.9000e-02	0.9766	-8.414596	0.000209	2.094573	0.354830	0.004191
 100	4.9500e-02	0.9857	-8.389366	0.000252	2.522037	0.427245	0.005046
 101	5.0000e-02	0.9964	-8.358150	0.000312	3.120486	0.528625	0.006243
 102	5.0500e-02	1.0030	-8.339334	0.000188	1.880841	0.318623	0.003763
 103	5.1000e-02	1.0161	-8.306835	0.000325	3.248725	0.550349	0.006500
 104	5.1500e-02	1.0263	-8.287592	0.000192	1.923587	0.325865	0.003849
 105	5.2000e-02	1.0382	-8.262362	0.000252	2.522037	0.427245	0.005046
 106	5.2500e-02	1.0497	-8.234994	0.000274	2.735769	0.463452	0.005474
 107	5.3000e-02	1.0563	-8.207198	0.000278	2.778515	0.470693	0.005559
 108	5.3500e-02	1.0687	-8.187100	0.000201	2.009080	0.340347	0.004020
 109	5.4000e-02	1.0760	-8.155028	0.000321	3.205979	0.543108	0.006414
 110	5.4500e-02	1.0864	-8.126377	0.000286	2.864008	0.485176	0.005730
 111	5.5000e-02	1.0992	-8.119107	0.000073	0.726689	0.123104	0.001454
 112	5.5500e-02	1.1078	-8.084042	0.000351	3.505203	0.593798	0.007013
 113	5.6000e-02	1.1167	-8.059240	0.000248	2.479290	0.420003	0.004960
 114	5.6500e-02	1.1279	-8.035293	0.000239	2.393798	0.405520	0.004789
 115	5.7000e-02	1.1384	-8.013911	0.000214	2.137319	0.362072	0.004276
 116	5.7500e-02	1.1459	-7.988682	0.000252	2.522037	0.427245	0.005046
 117	5.8000e-02	1.1546	-7.958320	0.000303	3.034993	0.514142	0.006072
 118	5.8500e-02	1.1644	-7.942498	0.000158	1.581616	0.267933	0.003164
 119	5.9000e-02	1.1763	-7.918123	0.000244	2.436544	0.412762	0.004875
 120	5.9500e-02	1.1856	-7.884769	0.000333	3.334218	0.564832	0.006671
 121	6.0000e-02	1.1950	-7.859966	0.000248	2.479290	0.420003	0.004960
 122	6.0500e-02	1.2045	-7.833454	0.000265	2.650276	0.448969	0.005303
 123	6.1000e-02	1.2145	-7.813355	0.000201	2.009080	0.340347	0.004020
 124	6.1500e-02	1.2261	-7.789836	0.000235	2.351051	0.398279	0.004704
 125	6.2000e-02	1.2338	-7.762895	0.000269	2.693022	0.456210	0.005388
 126	6.2500e-02	1.2468	-7.749639	0.000133	1.325138	0.224484	0.002651
 127	6.3000e-02	1.2559	-7.718850	0.000308	3.077740	0.521383	0.006158
 128	6.3500e-02	1.2670	-7.697041	0.000218	2.180066	0.369313	0.004362
 129	6.4000e-02	1.2786	-7.671811	0.000252	2.522037	0.427245	0.005046
 130	6.4500e-02	1.2866	-7.639739	0.000321	3.205979	0.543108	0.006414
 131	6.5000e-02	1.2950	-7.615365	0.000244	2.436544	0.412762	0.004875
 132	6.5500e-02	1.3032	-7.590135	0.000252	2.522037	0.427245	0.005046
 133	6.6000e-02	1.3159	-7.575596	0.000145	1.453377	0.246209	0.002908
 134	6.6500e-02	1.3271	-7.542241	0.000333	3.334218	0.564832	0.006671
 135	6.7000e-02	1.3355	-7.517439	0.000248	2.479290	0.420003	0.004960
 136	6.7500e-02	1.3470	-7.496485	0.000209	2.094573	0.354830	0.004191
 137	6.8000e-02	1.3530	-7.475531	0.000209	2.094573	0.354830	0.004191
 138	6.8500e-02	1.3662	-7.447308	0.000282	2.821261	0.477935	0.005645
 139	6.9000e-02	1.3748	-7.420795	0.000265	2.650276	0.448969	0.005303
 140	6.9500e-02	1.3879	-7.391717	0.000291	2.906754	0.492417	0.005816
 141	7.0000e-02	1.3963	-7.375039	0.000167	1.667109	0.282416	0.003335
 142	7.0500e-02	1.4057	-7.350237	0.000248	2.479290	0.420003	0.004960
 143	7.1000e-02	1.4166	-7.322869	0.000274	2.735769	0.463452	0.005474
 144	7.1500e-02	1.4238	-7.291652	0.000312	3.120486	0.528625	0.006243
 145	7.2000e-02	1.4326	-7.271126	0.000205	2.051826	0.347589	0.004105
 146	7.2500e-02	1.4442	-7.246324	0.000248	2.479290	0.420003	0.004960
 147	7.3000e-02	1.4545	-7.230930	0.000154	1.538870	0.260692	0.003079
 148	7.3500e-02	1.4660	-7.200568	0.000303	3.034993	0.514142	0.006072
 149	7.4000e-02	1.4736	-7.180042	0.000205	2.051826	0.347589	0.004105
 150	7.4500e-02	1.4855	-7.155668	0.000244	2.436544	0.412762	0.004875
 151	7.5000e-02	1.4938	-7.125306	0.000303	3.034993	0.514142	0.006072
 152	7.5500e-02	1.5060	-7.103925	0.000214	2.137319	0.362072	0.004276
 153	7.6000e-02	1.5167	-7.084682	0.000192	1.923587	0.325865	0.003849
 154	7.6500e-02	1.5250	-7.059452	0.000252	2.522037	0.427245	0.005046
 155	7.7000e-02	1.5357	-7.029946	0.000295	2.949501	0.499659	0.005901
 156	7.7500e-02	1.5461	-7.012413	0.000175	1.752602	0.296899	0.003507
 157	7.8000e-02	1.5532	-6.984190	0.000282	2.821261	0.477935	0.005645
 158	7.8500e-02	1.5662	-6.966230	0.000180	1.795348	0.304140	0.003592
 159	7.9000e-02	1.5756	-6.933730	0.000325	3.248725	0.550349	0.006500
 160	7.9500e-02	1.5846	-6.905507	0.000282	2.821261	0.477935	0.005645
 161	8.0000e-02	1.5948	-6.876856	0.000286	2.864008	0.485176	0.005730
 162	8.0500e-02	1.6055	-6.858896	0.000180	1.795348	0.304140	0.003592
 163	8.1000e-02	1.6151	-6.832383	0.000265	2.650276	0.448969	0.005303
 164	8.1500e-02	1.6238	-6.808008	0.000244	2.436544	0.412762	0.004875
 165	8.2000e-02	1.6353	-6.790903	0.000171	1.709855	0.289657	0.003421
 166	8.2500e-02	1.6461	-6.765246	0.000256	2.564783	0.434486	0.005132
 167	8.3000e-02	1.6567	-6.742154	0.000231	2.308305	0.391037	0.004618
 168	8.3500e-02	1.6641	-6.708799	0.000333	3.334218	0.564832	0.006671
 169	8.4000e-02	1.6767	-6.689984	0.000188	1.880841	0.318623	0.003763
 170	8.4500e-02	1.6858	-6.663898	0.000261	2.607529	0.441727	0.005217
 171	8.5000e-02	1.6957	-6.649359	0.000145	1.453377	0.246209	0.002908
 172	8.5500e-02	1.7030	-6.613011	0.000363	3.633443	0.615522	0.007270
 173	8.6000e-02	1.7126	-6.587781	0.000252	2.522037	0.427245	0.005046
 174	8.6500e-02	1.7244	-6.572387	0.000154	1.538870	0.260692	0.003079
 175	8.7000e-02	1.7352	-6.548440	0.000239	2.393798	0.405520	0.004789
 176	8.7500e-02	1.7451	-6.521927	0.000265	2.650276	0.448969	0.005303
 177	8.8000e-02	1.7540	-6.496269	0.000256	2.564783	0.434486	0.005132
 178	8.8500e-02	1.7645	-6.466336	0.000299	2.992247	0.506900	0.005987
 179	8.9000e-02	1.7764	-6.447520	0.000188	1.880841	0.318623	0.003763
 180	8.9500e-02	1.7870	-6.428277	0.000192	1.923587	0.325865	0.003849
 181	9.0000e-02	1.7972	-6.400481	0.000278	2.778515	0.470693	0.005559
 182	9.0500e-02	1.8063	-6.385514	0.000150	1.496123	0.253450	0.002993
 183	9.1000e-02	1.8164	-6.350449	0.000351	3.505203	0.593798	0.007013
 184	9.1500e-02	1.8262	-6.329923	0.000205	2.051826	0.347589	0.004105
 185	9.2000e-02	1.8335	-6.295285	0.000346	3.462457	0.586556	0.006928
 186	9.2500e-02	1.8460	-6.277753	0.000175	1.752602	0.296899	0.003507
 187	9.3000e-02	1.8568	-6.257227	0.000205	2.051826	0.347589	0.004105
 188	9.3500e-02	1.8649	-6.225583	0.000316	3.163232	0.535866	0.006329
 189	9.4000e-02	1.8775	-6.209333	0.000162	1.624363	0.275174	0.003250
 190	9.4500e-02	1.8849	-6.186669	0.000227	2.265558	0.383796	0.004533
 191	9.5000e-02	1.8961	-6.160156	0.000265	2.650276	0.448969	0.005303
 192	9.5500e-02	1.9040	-6.136209	0.000239	2.393798	0.405520	0.004789
 193	9.6000e-02	1.9162	-6.114828	0.000214	2.137319	0.362072	0.004276
 194	9.6500e-02	1.9230	-6.088742	0.000261	2.607529	0.441727	0.005217
 195	9.7000e-02	1.9373	-6.067361	0.000214	2.137319	0.362072	0.004276
 196	9.7500e-02	1.9449	-6.036572	0.000308	3.077740	0.521383	0.006158
 197	9.8000e-02	1.9569	-6.023316	0.000133	1.325138	0.224484	0.002651
 198	9.8500e-02	1.9644	-5.987395	0.000359	3.590696	0.608280	0.007184
 199	9.9000e-02	1.9736	-5.965159	0.000222	2.222812	0.376555	0.004447
 200	9.9500e-02	1.9889	-5.939074	0.000261	2.607529	0.441727	0.005217
 201	1.0000e-01	1.9968	-5.923251	0.000158	1.581616	0.267933	0.003164
 202	1.0050e-01	2.0042	-5.892462	0.000308	3.077740	0.521383	0.006158
 203	1.0100e-01	2.0142	-5.869371	0.000231	2.308305	0.391037	0.004618
 204	1.0150e-01	2.0240	-5.843286	0.000261	2.607529	0.441727	0.005217
 205	1.0200e-01	2.0372	-5.824470	0.000188	1.880841	0.318623	0.003763
 206	1.0250e-01	2.0447	-5.799668	0.000248	2.479290	0.420003	0.004960
 207	1.0300e-01	2.0541	-5.774438	0.000252	2.522037	0.427245	0.005046
 208	1.0350e-01	2.0676	-5.750063	0.000244	2.436544	0.412762	0.004875
 209	1.0400e-01	2.0764	-5.731675	0.000184	1.838095	0.311382	0.003678
 210	1.0450e-01	2.0856	-5.705590	0.000261	2.607529	0.441727	0.005217
 211	1.0500e-01	2.0963	-5.676939	0.000286	2.864008	0.485176	0.005730
 212	1.0550e-01	2.1056	-5.661117	0.000158	1.581616	0.267933	0.003164
 213	1.0600e-01	2.1164	-5.630756	0.000303	3.034993	0.514142	0.006072
 214	1.0650e-01	2.1265	-5.606381	0.000244	2.436544	0.412762	0.004875
 215	1.0700e-01	2.1365	-5.584572	0.000218	2.180066	0.369313	0.004362
 216	1.0750e-01	2.1455	-5.556349	0.000282	2.821261	0.477935	0.005645
 217	1.0800e-01	2.1548	-5.535395	0.000209	2.094573	0.354830	0.004191
 218	1.0850e-01	2.1669	-5.511021	0.000244	2.436544	0.412762	0.004875
 219	1.0900e-01	2.1765	-5.494771	0.000162	1.624363	0.275174	0.003250
 220	1.0950e-01	2.1877	-5.463982	0.000308	3.077740	0.521383	0.006158
 221	1.1000e-01	2.1986	-5.443884	0.000201	2.009080	0.340347	0.004020
 222	1.1050e-01	2.2060	-5.420364	0.000235	2.351051	0.398279	0.004704
 223	1.1100e-01	2.2115	-5.385727	0.000346	3.462457	0.586556	0.006928
 224	1.1150e-01	2.2249	-5.372470	0.000133	1.325138	0.224484	0.002651
 225	1.1200e-01	2.2359	-5.342536	0.000299	2.992247	0.506900	0.005987
 226	1.1250e-01	2.2458	-5.323721	0.000188	1.880841	0.318623	0.003763
 227	1.1300e-01	2.2565	-5.298063	0.000256	2.564783	0.434486	0.005132
 228	1.1350e-01	2.2666	-5.278820	0.000192	1.923587	0.325865	0.003849
 229	1.1400e-01	2.2733	-5.244610	0.000342	3.419711	0.579315	0.006842
 230	1.1450e-01	2.2839	-5.228360	0.000162	1.624363	0.275174	0.003250
 231	1.1500e-01	2.2963	-5.205269	0.000231	2.308305	0.391037	0.004618
 232	1.1550e-01	2.3038	-5.177473	0.000278	2.778515	0.470693	0.005559
 233	1.1600e-01	2.3190	-5.157802	0.000197	1.966334	0.333106	0.003934
 234	1.1650e-01	2.3245	-5.131717	0.000261	2.607529	0.441727	0.005217
 235	1.1700e-01	2.3335	-5.110336	0.000214	2.137319	0.362072	0.004276
 236	1.1750e-01	2.3444	-5.070567	0.000398	3.975414	0.673453	0.007954
 237	1.1800e-01	2.3550	-5.057310	0.000133	1.325138	0.224484	0.002651
 238	1.1850e-01	2.3639	-5.030798	0.000265	2.650276	0.448969	0.005303
 239	1.1900e-01	2.3741	-5.014120	0.000167	1.667109	0.282416	0.003335
 240	1.1950e-01	2.3843	-4.979910	0.000342	3.419711	0.579315	0.006842
 241	1.2000e-01	2.3965	-4.962805	0.000171	1.709855	0.289657	0.003421
 242	1.2050e-01	2.4062	-4.940569	0.000222	2.222812	0.376555	0.004447
 243	1.2100e-01	2.4152	-4.917904	0.000227	2.265558	0.383796	0.004533
 244	1.2150e-01	2.4255	-4.895240	0.000227	2.265558	0.383796	0.004533
 245	1.2200e-01	2.4355	-4.875142	0.000201	2.009080	0.340347	0.004020
 246	1.2250e-01	2.4472	-4.835373	0.000398	3.975414	0.673453	0.007954
 247	1.2300e-01	2.4554	-4.832379	0.000030	0.299225	0.050690	0.000599
 248	1.2350e-01	2.4670	-4.802873	0.000295	2.949501	0.499659	0.005901
 249	1.2400e-01	2.4769	-4.778071	0.000248	2.479290	0.420003	0.004960
 250	1.2450e-01	2.4873	-4.753696	0.000244	2.436544	0.412762	0.004875
 251	1.2500e-01	2.4945	-4.730177	0.000235	2.351051	0.398279	0.004704
 252	1.2550e-01	2.5078	-4.704947	0.000252	2.522037	0.427245	0.005046
 253	1.2600e-01	2.5159	-4.681000	0.000239	2.393798	0.405520	0.004789
 254	1.2650e-01	2.5299	-4.660046	0.000209	2.094573	0.354830	0.004191
 255	1.2700e-01	2.5363	-4.639520	0.000205	2.051826	0.347589	0.004105
 256	1.2750e-01	2.5488	-4.618139	0.000214	2.137319	0.362072	0.004276
 257	1.2800e-01	2.5543	-4.591199	0.000269	2.693022	0.456210	0.005388
 258	1.2850e-01	2.5668	-4.558272	0.000329	3.291472	0.557590	0.006585
 259	1.2900e-01	2.5745	-4.541594	0.000167	1.667109	0.282416	0.003335
 260	1.2950e-01	2.5836	-4.518502	0.000231	2.308305	0.391037	0.004618
