»»»»»»»»»»»»»»»»»»»»»»»»»»»»»»»»»»»» Hysteresis ««««««««««««««««««««««««««««««««««««
»»»  Executed Version:	5.48.1
»»»  Vision Version:	5.48.4 (R)
»»»  Vision Compiled:	9/18/24
»»»  Driver Version:	5.47.0
»»»  Windows Version:	Windows 8 or 8.1
»»»  Processor Information:	x86 (AMD or Intel) - 32 Processors
»»»  Tester Name:	PMF21124-494 (100V)
»»»  Tester S/N:	PMF21124-494
»»»  Internal Amp Type:	100V RevK 270k
»»»  Internal Amp S/N:	iAB2-596/K     
»»»  Execution Count:	1
»»»»»»»»»»»»»»»»»»»»»»»»»»»»»»»»»»»»»»»»»»««««««««««««««««««««««««««««««««««««««««««

Stored:	6/26/2025 - 18:41:40
Configured:	06/26/25 10:24:47 AM
Executed:	06/26/25 06:41:20 PM

»»»»»»»»»»»»»»»»»»»»»»»»»»»»»»»»»»» Sample Info ««««««««««««««««««««««««««««««««««««
Sample Name:	
Lot Name:	
Wafer Name:	
Die Row/Column:	0/0
Capacitor Number:	0
Sample Area (cm2):	1.00e-04
Sample Thickness (microns):	1.50e-01

Amplifier:	Internal

»»»»»»»»»»»»»»»»»»»»»»»»»»»»»»»»»»» Tester Info «««««««««««««««««««««««««««««««««««
Tester Name:	PMF21124-494 (100V)
Tester Serial Number:	PMF21124-494
Return Signal Amp. Level:	1.79 [Index: 2]

»»»»»»»»»»»»»»»»»»»»»»»»»»»»»»»» Hysteresis Info ««««««««««««««««««««««««««««««««««
Task Name:	Hyst-562
Volts:	10.00
Field:	666.67 (kV/cm)
DCBias:	0.00
DCField:	0.00 (kV/cm)
Hysteresis Period (ms):	1.00e+00
Preset:	Enabled
Preset Delay (ms):	1.00e+03
Profile:	Standard Monopolar

»»»»»»»»»»»»»»»»»»»»»»»»»»»»»»»»»»»»»» Data «««««««««««««««««««««««««««««««««««««««
Points:	2001

Valid Data

Point	Time (ms)	Drive Voltage	Measured Polarization (uC/cm2)	Capacitance (uF)	Normalized Capacitance (uF/cm2)	Dielectric Constant	Instantaneous Current (mA)
   1	0.0000e+00	-0.0048	-12.357943	0.000214	2.138575	0.362284	0.004276
   2	5.0000e-04	0.0058	-12.336562	0.000214	2.138575	0.362284	0.004276
   3	1.0000e-03	0.0132	-12.294654	0.000419	4.191607	0.710077	0.008381
   4	1.5000e-03	0.0262	-12.276266	0.000184	1.839175	0.311565	0.003678
   5	2.0000e-03	0.0362	-12.228372	0.000479	4.790408	0.811517	0.009579
   6	2.5000e-03	0.0442	-12.214688	0.000137	1.368688	0.231862	0.002737
   7	3.0000e-03	0.0568	-12.190314	0.000244	2.437976	0.413004	0.004875
   8	3.5000e-03	0.0660	-12.146268	0.000441	4.405465	0.746306	0.008809
   9	4.0000e-03	0.0771	-12.121038	0.000252	2.523519	0.427496	0.005046
  10	4.5000e-03	0.0839	-12.090249	0.000308	3.079548	0.521690	0.006158
  11	5.0000e-03	0.0961	-12.059888	0.000304	3.036777	0.514444	0.006072
  12	5.5000e-03	0.1042	-12.034658	0.000252	2.523519	0.427496	0.005046
  13	6.0000e-03	0.1163	-12.016270	0.000184	1.839175	0.311565	0.003678
  14	6.5000e-03	0.1263	-11.998310	0.000180	1.796403	0.304319	0.003592
  15	7.0000e-03	0.1336	-11.962389	0.000359	3.592806	0.608638	0.007184
  16	7.5000e-03	0.1474	-11.924331	0.000381	3.806664	0.644866	0.007612
  17	8.0000e-03	0.1550	-11.899956	0.000244	2.437976	0.413004	0.004875
  18	8.5000e-03	0.1688	-11.859759	0.000402	4.020521	0.681095	0.008039
  19	9.0000e-03	0.1768	-11.824694	0.000351	3.507263	0.594146	0.007013
  20	9.5000e-03	0.1865	-11.805879	0.000188	1.881946	0.318810	0.003763
  21	1.0000e-02	0.1971	-11.768248	0.000376	3.763892	0.637621	0.007526
  22	1.0500e-02	0.2052	-11.738741	0.000295	2.951234	0.499953	0.005901
  23	1.1000e-02	0.2186	-11.723775	0.000150	1.497003	0.253599	0.002993
  24	1.1500e-02	0.2240	-11.692986	0.000308	3.079548	0.521690	0.006158
  25	1.2000e-02	0.2355	-11.671177	0.000218	2.181347	0.369530	0.004362
  26	1.2500e-02	0.2463	-11.653216	0.000180	1.796403	0.304319	0.003592
  27	1.3000e-02	0.2556	-11.599763	0.000535	5.346438	0.905711	0.010691
  28	1.3500e-02	0.2666	-11.570685	0.000291	2.908462	0.492707	0.005816
  29	1.4000e-02	0.2763	-11.547593	0.000231	2.309661	0.391267	0.004618
  30	1.4500e-02	0.2875	-11.513811	0.000338	3.378949	0.572409	0.006756
  31	1.5000e-02	0.2956	-11.474041	0.000398	3.977750	0.673849	0.007954
  32	1.5500e-02	0.3048	-11.446246	0.000278	2.780148	0.470970	0.005559
  33	1.6000e-02	0.3151	-11.411608	0.000346	3.464492	0.586901	0.006928
  34	1.6500e-02	0.3249	-11.387661	0.000240	2.395204	0.405759	0.004789
  35	1.7000e-02	0.3377	-11.370556	0.000171	1.710860	0.289828	0.003421
  36	1.7500e-02	0.3454	-11.336774	0.000338	3.378949	0.572409	0.006756
  37	1.8000e-02	0.3585	-11.321807	0.000150	1.497003	0.253599	0.002993
  38	1.8500e-02	0.3657	-11.262367	0.000595	5.945239	1.007151	0.011888
  39	1.9000e-02	0.3752	-11.245689	0.000167	1.668089	0.282582	0.003335
  40	1.9500e-02	0.3842	-11.208058	0.000376	3.763892	0.637621	0.007526
  41	2.0000e-02	0.3962	-11.194802	0.000133	1.325917	0.224616	0.002651
  42	2.0500e-02	0.4079	-11.159737	0.000351	3.507263	0.594146	0.007013
  43	2.1000e-02	0.4148	-11.130658	0.000291	2.908462	0.492707	0.005816
  44	2.1500e-02	0.4252	-11.085758	0.000449	4.491008	0.760797	0.008980
  45	2.2000e-02	0.4349	-11.059672	0.000261	2.609062	0.441987	0.005217
  46	2.2500e-02	0.4453	-11.041285	0.000184	1.839175	0.311565	0.003678
  47	2.3000e-02	0.4568	-11.016055	0.000252	2.523519	0.427496	0.005046
  48	2.3500e-02	0.4662	-10.975003	0.000411	4.106064	0.695586	0.008210
  49	2.4000e-02	0.4762	-10.944214	0.000308	3.079548	0.521690	0.006158
  50	2.4500e-02	0.4865	-10.915563	0.000287	2.865691	0.485461	0.005730
  51	2.5000e-02	0.4971	-10.883918	0.000317	3.165091	0.536181	0.006329
  52	2.5500e-02	0.5072	-10.850136	0.000338	3.378949	0.572409	0.006756
  53	2.6000e-02	0.5169	-10.842011	0.000081	0.812659	0.137668	0.001625
  54	2.6500e-02	0.5257	-10.809512	0.000325	3.250634	0.550672	0.006500
  55	2.7000e-02	0.5339	-10.772736	0.000368	3.678349	0.623129	0.007355
  56	2.7500e-02	0.5454	-10.737671	0.000351	3.507263	0.594146	0.007013
  57	2.8000e-02	0.5565	-10.706882	0.000308	3.079548	0.521690	0.006158
  58	2.8500e-02	0.5650	-10.681224	0.000257	2.566290	0.434741	0.005132
  59	2.9000e-02	0.5759	-10.645731	0.000355	3.550035	0.601392	0.007099
  60	2.9500e-02	0.5853	-10.621784	0.000240	2.395204	0.405759	0.004789
  61	3.0000e-02	0.5949	-10.590995	0.000308	3.079548	0.521690	0.006158
  62	3.0500e-02	0.6065	-10.559779	0.000312	3.122320	0.528935	0.006243
  63	3.1000e-02	0.6175	-10.540963	0.000188	1.881946	0.318810	0.003763
  64	3.1500e-02	0.6262	-10.502477	0.000385	3.849435	0.652112	0.007697
  65	3.2000e-02	0.6390	-10.490503	0.000120	1.197602	0.202879	0.002395
  66	3.2500e-02	0.6463	-10.437478	0.000530	5.303666	0.898465	0.010605
  67	3.3000e-02	0.6532	-10.424649	0.000128	1.283145	0.217371	0.002566
  68	3.3500e-02	0.6647	-10.400702	0.000240	2.395204	0.405759	0.004789
  69	3.4000e-02	0.6789	-10.360505	0.000402	4.020521	0.681095	0.008039
  70	3.4500e-02	0.6857	-10.339124	0.000214	2.138575	0.362284	0.004276
  71	3.5000e-02	0.6945	-10.291657	0.000475	4.747637	0.804271	0.009493
  72	3.5500e-02	0.7068	-10.286954	0.000047	0.470487	0.079703	0.000941
  73	3.6000e-02	0.7141	-10.247612	0.000393	3.934978	0.666603	0.007868
  74	3.6500e-02	0.7262	-10.227086	0.000205	2.053032	0.347793	0.004105
  75	3.7000e-02	0.7348	-10.189027	0.000381	3.806664	0.644866	0.007612
  76	3.7500e-02	0.7461	-10.151396	0.000376	3.763892	0.637621	0.007526
  77	3.8000e-02	0.7552	-10.126167	0.000252	2.523519	0.427496	0.005046
  78	3.8500e-02	0.7655	-10.094950	0.000312	3.122320	0.528935	0.006243
  79	3.9000e-02	0.7771	-10.080838	0.000141	1.411460	0.239108	0.002822
  80	3.9500e-02	0.7843	-10.047056	0.000338	3.378949	0.572409	0.006756
  81	4.0000e-02	0.7958	-10.014984	0.000321	3.207863	0.543427	0.006414
  82	4.0500e-02	0.8060	-9.976070	0.000389	3.892207	0.659358	0.007783
  83	4.1000e-02	0.8160	-9.963669	0.000124	1.240374	0.210125	0.002480
  84	4.1500e-02	0.8270	-9.942288	0.000214	2.138575	0.362284	0.004276
  85	4.2000e-02	0.8351	-9.912354	0.000299	2.994005	0.507198	0.005987
  86	4.2500e-02	0.8472	-9.874295	0.000381	3.806664	0.644866	0.007612
  87	4.3000e-02	0.8554	-9.842651	0.000317	3.165091	0.536181	0.006329
  88	4.3500e-02	0.8650	-9.819132	0.000235	2.352433	0.398513	0.004704
  89	4.4000e-02	0.8782	-9.786632	0.000325	3.250634	0.550672	0.006500
  90	4.4500e-02	0.8857	-9.762685	0.000240	2.395204	0.405759	0.004789
  91	4.5000e-02	0.8953	-9.726337	0.000364	3.635578	0.615884	0.007270
  92	4.5500e-02	0.9071	-9.704100	0.000222	2.224118	0.376776	0.004447
  93	4.6000e-02	0.9161	-9.658772	0.000453	4.533779	0.768043	0.009066
  94	4.6500e-02	0.9280	-9.648937	0.000098	0.983745	0.166651	0.001967
  95	4.7000e-02	0.9369	-9.616437	0.000325	3.250634	0.550672	0.006500
  96	4.7500e-02	0.9460	-9.580089	0.000364	3.635578	0.615884	0.007270
  97	4.8000e-02	0.9578	-9.549300	0.000308	3.079548	0.521690	0.006158
  98	4.8500e-02	0.9647	-9.513379	0.000359	3.592806	0.608638	0.007184
  99	4.9000e-02	0.9772	-9.491998	0.000214	2.138575	0.362284	0.004276
 100	4.9500e-02	0.9850	-9.481308	0.000107	1.069288	0.181142	0.002138
 101	5.0000e-02	0.9960	-9.432986	0.000483	4.833180	0.818763	0.009664
 102	5.0500e-02	1.0057	-9.399204	0.000338	3.378949	0.572409	0.006756
 103	5.1000e-02	1.0172	-9.373974	0.000252	2.523519	0.427496	0.005046
 104	5.1500e-02	1.0245	-9.332066	0.000419	4.191607	0.710077	0.008381
 105	5.2000e-02	1.0347	-9.329073	0.000030	0.299401	0.050720	0.000599
 106	5.2500e-02	1.0475	-9.301277	0.000278	2.780148	0.470970	0.005559
 107	5.3000e-02	1.0572	-9.267495	0.000338	3.378949	0.572409	0.006756
 108	5.3500e-02	1.0660	-9.235851	0.000317	3.165091	0.536181	0.006329
 109	5.4000e-02	1.0751	-9.203351	0.000325	3.250634	0.550672	0.006500
 110	5.4500e-02	1.0848	-9.177266	0.000261	2.609062	0.441987	0.005217
 111	5.5000e-02	1.0992	-9.156312	0.000210	2.095804	0.355039	0.004191
 112	5.5500e-02	1.1039	-9.125096	0.000312	3.122320	0.528935	0.006243
 113	5.6000e-02	1.1149	-9.075491	0.000496	4.961494	0.840500	0.009921
 114	5.6500e-02	1.1280	-9.069932	0.000056	0.556030	0.094194	0.001112
 115	5.7000e-02	1.1368	-9.034439	0.000355	3.550035	0.601392	0.007099
 116	5.7500e-02	1.1461	-9.017762	0.000167	1.668089	0.282582	0.003335
 117	5.8000e-02	1.1549	-8.977137	0.000406	4.063293	0.688340	0.008125
 118	5.8500e-02	1.1666	-8.959605	0.000175	1.753632	0.297073	0.003507
 119	5.9000e-02	1.1755	-8.916415	0.000432	4.319922	0.731815	0.008638
 120	5.9500e-02	1.1858	-8.891612	0.000248	2.480747	0.420250	0.004960
 121	6.0000e-02	1.1958	-8.860823	0.000308	3.079548	0.521690	0.006158
 122	6.0500e-02	1.2073	-8.841153	0.000197	1.967489	0.333302	0.003934
 123	6.1000e-02	1.2177	-8.806087	0.000351	3.507263	0.594146	0.007013
 124	6.1500e-02	1.2276	-8.774015	0.000321	3.207863	0.543427	0.006414
 125	6.2000e-02	1.2379	-8.748358	0.000257	2.566290	0.434741	0.005132
 126	6.2500e-02	1.2455	-8.719279	0.000291	2.908462	0.492707	0.005816
 127	6.3000e-02	1.2557	-8.698326	0.000210	2.095804	0.355039	0.004191
 128	6.3500e-02	1.2669	-8.683786	0.000145	1.454231	0.246353	0.002908
 129	6.4000e-02	1.2761	-8.630333	0.000535	5.346438	0.905711	0.010691
 130	6.4500e-02	1.2851	-8.621353	0.000090	0.898202	0.152159	0.001796
 131	6.5000e-02	1.2938	-8.583295	0.000381	3.806664	0.644866	0.007612
 132	6.5500e-02	1.3036	-8.546091	0.000372	3.721121	0.630375	0.007441
 133	6.6000e-02	1.3147	-8.536256	0.000098	0.983745	0.166651	0.001967
 134	6.6500e-02	1.3268	-8.493066	0.000432	4.319922	0.731815	0.008638
 135	6.7000e-02	1.3353	-8.476388	0.000167	1.668089	0.282582	0.003335
 136	6.7500e-02	1.3461	-8.428494	0.000479	4.790408	0.811517	0.009579
 137	6.8000e-02	1.3565	-8.409251	0.000192	1.924718	0.326056	0.003849
 138	6.8500e-02	1.3643	-8.376324	0.000329	3.293406	0.557918	0.006585
 139	6.9000e-02	1.3747	-8.361785	0.000145	1.454231	0.246353	0.002908
 140	6.9500e-02	1.3860	-8.329713	0.000321	3.207863	0.543427	0.006414
 141	7.0000e-02	1.3948	-8.303628	0.000261	2.609062	0.441987	0.005217
 142	7.0500e-02	1.4029	-8.253595	0.000500	5.004266	0.847746	0.010006
 143	7.1000e-02	1.4154	-8.237346	0.000163	1.625317	0.275336	0.003250
 144	7.1500e-02	1.4258	-8.203136	0.000342	3.421720	0.579655	0.006842
 145	7.2000e-02	1.4337	-8.180899	0.000222	2.224118	0.376776	0.004447
 146	7.2500e-02	1.4474	-8.164649	0.000163	1.625317	0.275336	0.003250
 147	7.3000e-02	1.4553	-8.109913	0.000547	5.474752	0.927448	0.010947
 148	7.3500e-02	1.4632	-8.098367	0.000115	1.154831	0.195634	0.002309
 149	7.4000e-02	1.4738	-8.074848	0.000235	2.352433	0.398513	0.004704
 150	7.4500e-02	1.4860	-8.044914	0.000299	2.994005	0.507198	0.005987
 151	7.5000e-02	1.4952	-8.034651	0.000103	1.026516	0.173897	0.002053
 152	7.5500e-02	1.5067	-7.994027	0.000406	4.063293	0.688340	0.008125
 153	7.6000e-02	1.5164	-7.962810	0.000312	3.122320	0.528935	0.006243
 154	7.6500e-02	1.5277	-7.925179	0.000376	3.763892	0.637621	0.007526
 155	7.7000e-02	1.5317	-7.914061	0.000111	1.112059	0.188388	0.002224
 156	7.7500e-02	1.5445	-7.886693	0.000274	2.737376	0.463724	0.005474
 157	7.8000e-02	1.5572	-7.846069	0.000406	4.063293	0.688340	0.008125
 158	7.8500e-02	1.5662	-7.816562	0.000295	2.951234	0.499953	0.005901
 159	7.9000e-02	1.5741	-7.781497	0.000351	3.507263	0.594146	0.007013
 160	7.9500e-02	1.5829	-7.762254	0.000192	1.924718	0.326056	0.003849
 161	8.0000e-02	1.5970	-7.740445	0.000218	2.181347	0.369530	0.004362
 162	8.0500e-02	1.6055	-7.694689	0.000458	4.576551	0.775289	0.009151
 163	8.1000e-02	1.6133	-7.693406	0.000013	0.128315	0.021737	0.000257
 164	8.1500e-02	1.6273	-7.661334	0.000321	3.207863	0.543427	0.006414
 165	8.2000e-02	1.6367	-7.595908	0.000654	6.544040	1.108590	0.013085
 166	8.2500e-02	1.6445	-7.587783	0.000081	0.812659	0.137668	0.001625
 167	8.3000e-02	1.6543	-7.561698	0.000261	2.609062	0.441987	0.005217
 168	8.3500e-02	1.6663	-7.530909	0.000308	3.079548	0.521690	0.006158
 169	8.4000e-02	1.6766	-7.522784	0.000081	0.812659	0.137668	0.001625
 170	8.4500e-02	1.6853	-7.483442	0.000393	3.934978	0.666603	0.007868
 171	8.5000e-02	1.6949	-7.433838	0.000496	4.961494	0.840500	0.009921
 172	8.5500e-02	1.7050	-7.435121	-0.000013	-0.128315	-0.021737	-0.000257
 173	8.6000e-02	1.7155	-7.376536	0.000586	5.859696	0.992659	0.011717
 174	8.6500e-02	1.7271	-7.363707	0.000128	1.283145	0.217371	0.002566
 175	8.7000e-02	1.7352	-7.324793	0.000389	3.892207	0.659358	0.007783
 176	8.7500e-02	1.7451	-7.305550	0.000192	1.924718	0.326056	0.003849
 177	8.8000e-02	1.7574	-7.291439	0.000141	1.411460	0.239108	0.002822
 178	8.8500e-02	1.7670	-7.270485	0.000210	2.095804	0.355039	0.004191
 179	8.9000e-02	1.7731	-7.242262	0.000282	2.822919	0.478215	0.005645
 180	8.9500e-02	1.7827	-7.199927	0.000423	4.234379	0.717323	0.008467
 181	9.0000e-02	1.7938	-7.169993	0.000299	2.994005	0.507198	0.005987
 182	9.0500e-02	1.8046	-7.146474	0.000235	2.352433	0.398513	0.004704
 183	9.1000e-02	1.8172	-7.128513	0.000180	1.796403	0.304319	0.003592
 184	9.1500e-02	1.8246	-7.091310	0.000372	3.721121	0.630375	0.007441
 185	9.2000e-02	1.8367	-7.046837	0.000445	4.448236	0.753552	0.008895
 186	9.2500e-02	1.8468	-7.033153	0.000137	1.368688	0.231862	0.002737
 187	9.3000e-02	1.8556	-7.006640	0.000265	2.651833	0.449233	0.005303
 188	9.3500e-02	1.8659	-6.974568	0.000321	3.207863	0.543427	0.006414
 189	9.4000e-02	1.8748	-6.955325	0.000192	1.924718	0.326056	0.003849
 190	9.4500e-02	1.8871	-6.925819	0.000295	2.951234	0.499953	0.005901
 191	9.5000e-02	1.8970	-6.898023	0.000278	2.780148	0.470970	0.005559
 192	9.5500e-02	1.9073	-6.869372	0.000287	2.865691	0.485461	0.005730
 193	9.6000e-02	1.9151	-6.833452	0.000359	3.592806	0.608638	0.007184
 194	9.6500e-02	1.9282	-6.814209	0.000192	1.924718	0.326056	0.003849
 195	9.7000e-02	1.9348	-6.788551	0.000257	2.566290	0.434741	0.005132
 196	9.7500e-02	1.9458	-6.760328	0.000282	2.822919	0.478215	0.005645
 197	9.8000e-02	1.9554	-6.735953	0.000244	2.437976	0.413004	0.004875
 198	9.8500e-02	1.9656	-6.700460	0.000355	3.550035	0.601392	0.007099
 199	9.9000e-02	1.9769	-6.670954	0.000295	2.951234	0.499953	0.005901
 200	9.9500e-02	1.9861	-6.645297	0.000257	2.566290	0.434741	0.005132
 201	1.0000e-01	1.9978	-6.634179	0.000111	1.112059	0.188388	0.002224
 202	1.0050e-01	2.0053	-6.592271	0.000419	4.191607	0.710077	0.008381
 203	1.0100e-01	2.0161	-6.559772	0.000325	3.250634	0.550672	0.006500
 204	1.0150e-01	2.0255	-6.537108	0.000227	2.266890	0.384021	0.004533
 205	1.0200e-01	2.0374	-6.498194	0.000389	3.892207	0.659358	0.007783
 206	1.0250e-01	2.0454	-6.482799	0.000154	1.539774	0.260845	0.003079
 207	1.0300e-01	2.0560	-6.451155	0.000317	3.165091	0.536181	0.006329
 208	1.0350e-01	2.0679	-6.434050	0.000171	1.710860	0.289828	0.003421
 209	1.0400e-01	2.0761	-6.402406	0.000317	3.165091	0.536181	0.006329
 210	1.0450e-01	2.0889	-6.364775	0.000376	3.763892	0.637621	0.007526
 211	1.0500e-01	2.0972	-6.340400	0.000244	2.437976	0.413004	0.004875
 212	1.0550e-01	2.1054	-6.320729	0.000197	1.967489	0.333302	0.003934
 213	1.0600e-01	2.1143	-6.275829	0.000449	4.491008	0.760797	0.008980
 214	1.0650e-01	2.1275	-6.266848	0.000090	0.898202	0.152159	0.001796
 215	1.0700e-01	2.1368	-6.243329	0.000235	2.352433	0.398513	0.004704
 216	1.0750e-01	2.1457	-6.195435	0.000479	4.790408	0.811517	0.009579
 217	1.0800e-01	2.1523	-6.178758	0.000167	1.668089	0.282582	0.003335
 218	1.0850e-01	2.1661	-6.156521	0.000222	2.224118	0.376776	0.004447
 219	1.0900e-01	2.1755	-6.111193	0.000453	4.533779	0.768043	0.009066
 220	1.0950e-01	2.1841	-6.082970	0.000282	2.822919	0.478215	0.005645
 221	1.1000e-01	2.1949	-6.060733	0.000222	2.224118	0.376776	0.004447
 222	1.1050e-01	2.2069	-6.034648	0.000261	2.609062	0.441987	0.005217
 223	1.1100e-01	2.2162	-6.020109	0.000145	1.454231	0.246353	0.002908
 224	1.1150e-01	2.2250	-6.004714	0.000154	1.539774	0.260845	0.003079
 225	1.1200e-01	2.2359	-5.956392	0.000483	4.833180	0.818763	0.009664
 226	1.1250e-01	2.2443	-5.928597	0.000278	2.780148	0.470970	0.005559
 227	1.1300e-01	2.2571	-5.901229	0.000274	2.737376	0.463724	0.005474
 228	1.1350e-01	2.2647	-5.879420	0.000218	2.181347	0.369530	0.004362
 229	1.1400e-01	2.2762	-5.833664	0.000458	4.576551	0.775289	0.009151
 230	1.1450e-01	2.2856	-5.814848	0.000188	1.881946	0.318810	0.003763
 231	1.1500e-01	2.2983	-5.789191	0.000257	2.566290	0.434741	0.005132
 232	1.1550e-01	2.3062	-5.763533	0.000257	2.566290	0.434741	0.005132
 233	1.1600e-01	2.3172	-5.742152	0.000214	2.138575	0.362284	0.004276
 234	1.1650e-01	2.3251	-5.701528	0.000406	4.063293	0.688340	0.008125
 235	1.1700e-01	2.3358	-5.660903	0.000406	4.063293	0.688340	0.008125
 236	1.1750e-01	2.3464	-5.658765	0.000021	0.213858	0.036228	0.000428
 237	1.1800e-01	2.3570	-5.632252	0.000265	2.651833	0.449233	0.005303
 238	1.1850e-01	2.3679	-5.591200	0.000411	4.106064	0.695586	0.008210
 239	1.1900e-01	2.3772	-5.577944	0.000133	1.325917	0.224616	0.002651
 240	1.1950e-01	2.3882	-5.549721	0.000282	2.822919	0.478215	0.005645
 241	1.2000e-01	2.3962	-5.540741	0.000090	0.898202	0.152159	0.001796
 242	1.2050e-01	2.4058	-5.489853	0.000509	5.089809	0.862237	0.010177
 243	1.2100e-01	2.4162	-5.471038	0.000188	1.881946	0.318810	0.003763
 244	1.2150e-01	2.4268	-5.430413	0.000406	4.063293	0.688340	0.008125
 245	1.2200e-01	2.4365	-5.413308	0.000171	1.710860	0.289828	0.003421
 246	1.2250e-01	2.4458	-5.377815	0.000355	3.550035	0.601392	0.007099
 247	1.2300e-01	2.4548	-5.350875	0.000269	2.694605	0.456478	0.005388
 248	1.2350e-01	2.4651	-5.330777	0.000201	2.010261	0.340547	0.004020
 249	1.2400e-01	2.4780	-5.306402	0.000244	2.437976	0.413004	0.004875
 250	1.2450e-01	2.4887	-5.269199	0.000372	3.721121	0.630375	0.007441
 251	1.2500e-01	2.4958	-5.261501	0.000077	0.769887	0.130422	0.001539
 252	1.2550e-01	2.5049	-5.217028	0.000445	4.448236	0.753552	0.008895
 253	1.2600e-01	2.5153	-5.195647	0.000214	2.138575	0.362284	0.004276
 254	1.2650e-01	2.5275	-5.159299	0.000364	3.635578	0.615884	0.007270
 255	1.2700e-01	2.5351	-5.130648	0.000287	2.865691	0.485461	0.005730
 256	1.2750e-01	2.5458	-5.113971	0.000167	1.668089	0.282582	0.003335
 257	1.2800e-01	2.5558	-5.082754	0.000312	3.122320	0.528935	0.006243
 258	1.2850e-01	2.5647	-5.061373	0.000214	2.138575	0.362284	0.004276
 259	1.2900e-01	2.5774	-5.027163	0.000342	3.421720	0.579655	0.006842
 260	1.2950e-01	2.5838	-5.004071	0.000231	2.309661	0.391267	0.004618
