»»»»»»»»»»»»»»»»»»»»»»»»»»»»»»»»»»»» Hysteresis ««««««««««««««««««««««««««««««««««««
»»»  Executed Version:	5.48.1
»»»  Vision Version:	5.48.4 (R)
»»»  Vision Compiled:	9/18/24
»»»  Driver Version:	5.47.0
»»»  Windows Version:	Windows 8 or 8.1
»»»  Processor Information:	x86 (AMD or Intel) - 32 Processors
»»»  Tester Name:	PMF21124-494 (100V)
»»»  Tester S/N:	PMF21124-494
»»»  Internal Amp Type:	100V RevK 270k
»»»  Internal Amp S/N:	iAB2-596/K     
»»»  Execution Count:	1
»»»»»»»»»»»»»»»»»»»»»»»»»»»»»»»»»»»»»»»»»»««««««««««««««««««««««««««««««««««««««««««

Stored:	7/1/2025 - 13:34:56
Configured:	07/01/25 10:49:51 AM
Executed:	07/01/25 01:33:53 PM

»»»»»»»»»»»»»»»»»»»»»»»»»»»»»»»»»»» Sample Info ««««««««««««««««««««««««««««««««««««
Sample Name:	
Lot Name:	
Wafer Name:	
Die Row/Column:	0/0
Capacitor Number:	0
Sample Area (cm2):	1.00e-04
Sample Thickness (microns):	1.50e-01

Amplifier:	Internal

»»»»»»»»»»»»»»»»»»»»»»»»»»»»»»»»»»» Tester Info «««««««««««««««««««««««««««««««««««
Tester Name:	PMF21124-494 (100V)
Tester Serial Number:	PMF21124-494
Return Signal Amp. Level:	0.19 [Index: 3]

»»»»»»»»»»»»»»»»»»»»»»»»»»»»»»»» Hysteresis Info ««««««««««««««««««««««««««««««««««
Task Name:	Hyst-22
Volts:	10.00
Field:	666.67 (kV/cm)
DCBias:	0.00
DCField:	0.00 (kV/cm)
Hysteresis Period (ms):	2.00e+02
Preset:	Enabled
Preset Delay (ms):	1.00e+03
Profile:	Standard Bipolar

»»»»»»»»»»»»»»»»»»»»»»»»»»»»»»»»»»»»»» Data «««««««««««««««««««««««««««««««««««««««
Points:	2009

Valid Data

Point	Time (ms)	Drive Voltage	Measured Polarization (uC/cm2)	Capacitance (uF)	Normalized Capacitance (uF/cm2)	Dielectric Constant	Instantaneous Current (mA)
   1	0.0000e+00	-0.0005	15.859888	0.000547	5.472696	0.927100	0.000110
   2	9.9500e-02	0.0192	15.968890	0.000547	5.472696	0.927100	0.000110
   3	1.9900e-01	0.0397	16.077893	0.000547	5.472696	0.927100	0.000110
   4	2.9850e-01	0.0584	16.190933	0.000568	5.675388	0.961437	0.000114
   5	3.9800e-01	0.0790	16.372604	0.000912	9.121160	1.545166	0.000183
   6	4.9750e-01	0.0977	16.453347	0.000405	4.053849	0.686741	0.000081
   7	5.9700e-01	0.1195	16.546201	0.000466	4.661926	0.789752	0.000093
   8	6.9650e-01	0.1391	16.748058	0.001013	10.134622	1.716851	0.000203
   9	7.9600e-01	0.1582	16.848986	0.000507	5.067311	0.858426	0.000101
  10	8.9550e-01	0.1784	16.986249	0.000689	6.891543	1.167459	0.000138
  11	9.9500e-01	0.1992	17.119474	0.000669	6.688850	1.133122	0.000134
  12	1.0945e+00	0.2171	17.244625	0.000628	6.283466	1.064448	0.000126
  13	1.1940e+00	0.2384	17.349591	0.000527	5.270003	0.892763	0.000105
  14	1.2935e+00	0.2578	17.543373	0.000973	9.729237	1.648177	0.000195
  15	1.3930e+00	0.2784	17.648339	0.000527	5.270003	0.892763	0.000105
  16	1.4925e+00	0.2978	17.805787	0.000791	7.905005	1.339144	0.000158
  17	1.5920e+00	0.3184	17.979384	0.000872	8.715775	1.476492	0.000174
  18	1.6915e+00	0.3380	18.072238	0.000466	4.661926	0.789752	0.000093
  19	1.7910e+00	0.3572	18.225649	0.000770	7.702313	1.304807	0.000154
  20	1.8905e+00	0.3776	18.403283	0.000892	8.918467	1.510829	0.000179
  21	1.9900e+00	0.3979	18.512286	0.000547	5.472696	0.927100	0.000110
  22	2.0895e+00	0.4173	18.669734	0.000791	7.905005	1.339144	0.000158
  23	2.1890e+00	0.4376	18.802960	0.000669	6.688850	1.133122	0.000134
  24	2.2885e+00	0.4571	18.960408	0.000791	7.905005	1.339144	0.000158
  25	2.3880e+00	0.4782	19.085559	0.000628	6.283466	1.064448	0.000126
  26	2.4875e+00	0.4971	19.259156	0.000872	8.715775	1.476492	0.000174
  27	2.5870e+00	0.5177	19.400456	0.000709	7.094235	1.201796	0.000142
  28	2.6865e+00	0.5376	19.582127	0.000912	9.121160	1.545166	0.000183
  29	2.7860e+00	0.5571	19.719390	0.000689	6.891543	1.167459	0.000138
  30	2.8855e+00	0.5779	19.856652	0.000689	6.891543	1.167459	0.000138
  31	2.9850e+00	0.5965	20.010063	0.000770	7.702313	1.304807	0.000154
  32	3.0845e+00	0.6164	20.207883	0.000993	9.931929	1.682514	0.000199
  33	3.1840e+00	0.6377	20.337071	0.000649	6.486158	1.098785	0.000130
  34	3.2835e+00	0.6564	20.502594	0.000831	8.310390	1.407818	0.000166
  35	3.3830e+00	0.6763	20.651968	0.000750	7.499620	1.270470	0.000150
  36	3.4825e+00	0.6966	20.785193	0.000669	6.688850	1.133122	0.000134
  37	3.5820e+00	0.7157	20.999162	0.001074	10.742699	1.819862	0.000215
  38	3.6815e+00	0.7369	21.164684	0.000831	8.310390	1.407818	0.000166
  39	3.7810e+00	0.7565	21.293872	0.000649	6.486158	1.098785	0.000130
  40	3.8805e+00	0.7763	21.495729	0.001013	10.134622	1.716851	0.000203
  41	3.9800e+00	0.7964	21.661252	0.000831	8.310390	1.407818	0.000166
  42	4.0795e+00	0.8158	21.814663	0.000770	7.702313	1.304807	0.000154
  43	4.1790e+00	0.8366	21.935777	0.000608	6.080773	1.030111	0.000122
  44	4.2785e+00	0.8565	22.137634	0.001013	10.134622	1.716851	0.000203
  45	4.3780e+00	0.8749	22.303156	0.000831	8.310390	1.407818	0.000166
  46	4.4775e+00	0.8953	22.500976	0.000993	9.931929	1.682514	0.000199
  47	4.5770e+00	0.9156	22.678610	0.000892	8.918467	1.510829	0.000179
  48	4.6765e+00	0.9357	22.836058	0.000791	7.905005	1.339144	0.000158
  49	4.7760e+00	0.9571	23.017729	0.000912	9.121160	1.545166	0.000183
  50	4.8755e+00	0.9761	23.187289	0.000851	8.513082	1.442155	0.000170
  51	4.9750e+00	0.9958	23.340700	0.000770	7.702313	1.304807	0.000154
  52	5.0745e+00	1.0156	23.522371	0.000912	9.121160	1.545166	0.000183
  53	5.1740e+00	1.0349	23.691931	0.000851	8.513082	1.442155	0.000170
  54	5.2735e+00	1.0556	23.893788	0.001013	10.134622	1.716851	0.000203
  55	5.3730e+00	1.0756	24.067385	0.000872	8.715775	1.476492	0.000174
  56	5.4725e+00	1.0952	24.208684	0.000709	7.094235	1.201796	0.000142
  57	5.5720e+00	1.1149	24.390356	0.000912	9.121160	1.545166	0.000183
  58	5.6715e+00	1.1346	24.580101	0.000953	9.526545	1.613840	0.000191
  59	5.7710e+00	1.1549	24.773883	0.000973	9.729237	1.648177	0.000195
  60	5.8705e+00	1.1751	24.951517	0.000892	8.918467	1.510829	0.000179
  61	5.9700e+00	1.1951	25.145300	0.000973	9.729237	1.648177	0.000195
  62	6.0695e+00	1.2146	25.298711	0.000770	7.702313	1.304807	0.000154
  63	6.1690e+00	1.2347	25.484419	0.000932	9.323852	1.579503	0.000187
  64	6.2685e+00	1.2542	25.645905	0.000811	8.107697	1.373481	0.000162
  65	6.3680e+00	1.2759	25.855836	0.001054	10.540007	1.785525	0.000211
  66	6.4675e+00	1.2937	26.001173	0.000730	7.296928	1.236133	0.000146
  67	6.5670e+00	1.3142	26.227252	0.001135	11.350776	1.922874	0.000227
  68	6.6665e+00	1.3329	26.408923	0.000912	9.121160	1.545166	0.000183
  69	6.7660e+00	1.3542	26.602706	0.000973	9.729237	1.648177	0.000195
  70	6.8655e+00	1.3734	26.744006	0.000709	7.094235	1.201796	0.000142
  71	6.9650e+00	1.3939	26.929714	0.000932	9.323852	1.579503	0.000187
  72	7.0645e+00	1.4133	27.111385	0.000912	9.121160	1.545166	0.000183
  73	7.1640e+00	1.4336	27.293056	0.000912	9.121160	1.545166	0.000183
  74	7.2635e+00	1.4536	27.507024	0.001074	10.742699	1.819862	0.000215
  75	7.3630e+00	1.4729	27.680621	0.000872	8.715775	1.476492	0.000174
  76	7.4625e+00	1.4933	27.886515	0.001034	10.337314	1.751188	0.000207
  77	7.5620e+00	1.5141	28.052038	0.000831	8.310390	1.407818	0.000166
  78	7.6615e+00	1.5319	28.253894	0.001013	10.134622	1.716851	0.000203
  79	7.7610e+00	1.5533	28.463826	0.001054	10.540007	1.785525	0.000211
  80	7.8605e+00	1.5733	28.597051	0.000669	6.688850	1.133122	0.000134
  81	7.9600e+00	1.5922	28.839279	0.001216	12.161546	2.060222	0.000243
  82	8.0595e+00	1.6130	28.992690	0.000770	7.702313	1.304807	0.000154
  83	8.1590e+00	1.6324	29.222807	0.001155	11.553469	1.957211	0.000231
  84	8.2585e+00	1.6525	29.416590	0.000973	9.729237	1.648177	0.000195
  85	8.3580e+00	1.6730	29.594224	0.000892	8.918467	1.510829	0.000179
  86	8.4575e+00	1.6929	29.788006	0.000973	9.729237	1.648177	0.000195
  87	8.5570e+00	1.7121	29.969677	0.000912	9.121160	1.545166	0.000183
  88	8.6565e+00	1.7323	30.187682	0.001095	10.945392	1.854200	0.000219
  89	8.7560e+00	1.7526	30.381465	0.000973	9.729237	1.648177	0.000195
  90	8.8555e+00	1.7717	30.546988	0.000831	8.310390	1.407818	0.000166
  91	8.9550e+00	1.7922	30.744807	0.000993	9.931929	1.682514	0.000199
  92	9.0545e+00	1.8124	30.910330	0.000831	8.310390	1.407818	0.000166
  93	9.1540e+00	1.8328	31.136409	0.001135	11.350776	1.922874	0.000227
  94	9.2535e+00	1.8524	31.346340	0.001054	10.540007	1.785525	0.000211
  95	9.3530e+00	1.8725	31.576457	0.001155	11.553469	1.957211	0.000231
  96	9.4525e+00	1.8920	31.729868	0.000770	7.702313	1.304807	0.000154
  97	9.5520e+00	1.9120	31.911539	0.000912	9.121160	1.545166	0.000183
  98	9.6515e+00	1.9315	32.085136	0.000872	8.715775	1.476492	0.000174
  99	9.7510e+00	1.9511	32.339476	0.001277	12.769623	2.163233	0.000256
 100	9.8505e+00	1.9713	32.517110	0.000892	8.918467	1.510829	0.000179
 101	9.9500e+00	1.9910	32.666484	0.000750	7.499620	1.270470	0.000150
 102	1.0050e+01	2.0118	32.888526	0.001115	11.148084	1.888537	0.000223
 103	1.0149e+01	2.0313	33.074235	0.000932	9.323852	1.579503	0.000187
 104	1.0248e+01	2.0515	33.292240	0.001095	10.945392	1.854200	0.000219
 105	1.0348e+01	2.0711	33.502171	0.001054	10.540007	1.785525	0.000211
 106	1.0447e+01	2.0908	33.655582	0.000770	7.702313	1.304807	0.000154
 107	1.0547e+01	2.1109	33.873587	0.001095	10.945392	1.854200	0.000219
 108	1.0646e+01	2.1313	34.103704	0.001155	11.553469	1.957211	0.000231
 109	1.0746e+01	2.1502	34.249041	0.000730	7.296928	1.236133	0.000146
 110	1.0845e+01	2.1716	34.434749	0.000932	9.323852	1.579503	0.000187
 111	1.0945e+01	2.1908	34.685052	0.001257	12.566931	2.128896	0.000252
 112	1.1044e+01	2.2109	34.858649	0.000872	8.715775	1.476492	0.000174
 113	1.1144e+01	2.2303	35.088765	0.001155	11.553469	1.957211	0.000231
 114	1.1243e+01	2.2498	35.266399	0.000892	8.918467	1.510829	0.000179
 115	1.1343e+01	2.2711	35.460182	0.000973	9.729237	1.648177	0.000195
 116	1.1443e+01	2.2897	35.641853	0.000912	9.121160	1.545166	0.000183
 117	1.1542e+01	2.3093	35.855821	0.001074	10.742699	1.819862	0.000215
 118	1.1642e+01	2.3304	36.037492	0.000912	9.121160	1.545166	0.000183
 119	1.1741e+01	2.3502	36.259535	0.001115	11.148084	1.888537	0.000223
 120	1.1841e+01	2.3696	36.433131	0.000872	8.715775	1.476492	0.000174
 121	1.1940e+01	2.3901	36.675360	0.001216	12.161546	2.060222	0.000243
 122	1.2040e+01	2.4102	36.832808	0.000791	7.905005	1.339144	0.000158
 123	1.2139e+01	2.4303	37.054850	0.001115	11.148084	1.888537	0.000223
 124	1.2239e+01	2.4506	37.244596	0.000953	9.526545	1.613840	0.000191
 125	1.2338e+01	2.4697	37.470675	0.001135	11.350776	1.922874	0.000227
 126	1.2438e+01	2.4895	37.632161	0.000811	8.107697	1.373481	0.000162
 127	1.2537e+01	2.5088	37.866315	0.001176	11.756161	1.991548	0.000235
 128	1.2636e+01	2.5291	38.015689	0.000750	7.499620	1.270470	0.000150
 129	1.2736e+01	2.5503	38.221583	0.001034	10.337314	1.751188	0.000207
 130	1.2835e+01	2.5686	38.403254	0.000912	9.121160	1.545166	0.000183
 131	1.2935e+01	2.5887	38.653556	0.001257	12.566931	2.128896	0.000252
 132	1.3034e+01	2.6093	38.819079	0.000831	8.310390	1.407818	0.000166
 133	1.3134e+01	2.6280	38.984601	0.000831	8.310390	1.407818	0.000166
 134	1.3233e+01	2.6481	39.214718	0.001155	11.553469	1.957211	0.000231
 135	1.3333e+01	2.6678	39.404463	0.000953	9.526545	1.613840	0.000191
 136	1.3432e+01	2.6879	39.626506	0.001115	11.148084	1.888537	0.000223
 137	1.3532e+01	2.7087	39.812214	0.000932	9.323852	1.579503	0.000187
 138	1.3632e+01	2.7289	39.989848	0.000892	8.918467	1.510829	0.000179
 139	1.3731e+01	2.7489	40.183631	0.000973	9.729237	1.648177	0.000195
 140	1.3831e+01	2.7689	40.369339	0.000932	9.323852	1.579503	0.000187
 141	1.3930e+01	2.7891	40.579270	0.001054	10.540007	1.785525	0.000211
 142	1.4030e+01	2.8085	40.809387	0.001155	11.553469	1.957211	0.000231
 143	1.4129e+01	2.8278	40.999132	0.000953	9.526545	1.613840	0.000191
 144	1.4229e+01	2.8483	41.184840	0.000932	9.323852	1.579503	0.000187
 145	1.4328e+01	2.8683	41.382660	0.000993	9.931929	1.682514	0.000199
 146	1.4428e+01	2.8876	41.588554	0.001034	10.337314	1.751188	0.000207
 147	1.4527e+01	2.9073	41.758114	0.000851	8.513082	1.442155	0.000170
 148	1.4627e+01	2.9275	41.988230	0.001155	11.553469	1.957211	0.000231
 149	1.4726e+01	2.9479	42.169901	0.000912	9.121160	1.545166	0.000183
 150	1.4825e+01	2.9668	42.367721	0.000993	9.931929	1.682514	0.000199
 151	1.4925e+01	2.9870	42.577652	0.001054	10.540007	1.785525	0.000211
 152	1.5024e+01	3.0070	42.771435	0.000973	9.729237	1.648177	0.000195
 153	1.5124e+01	3.0276	42.961180	0.000953	9.526545	1.613840	0.000191
 154	1.5223e+01	3.0466	43.207445	0.001236	12.364239	2.094559	0.000248
 155	1.5323e+01	3.0679	43.381042	0.000872	8.715775	1.476492	0.000174
 156	1.5422e+01	3.0876	43.615196	0.001176	11.756161	1.991548	0.000235
 157	1.5522e+01	3.1085	43.792830	0.000892	8.918467	1.510829	0.000179
 158	1.5621e+01	3.1265	43.938167	0.000730	7.296928	1.236133	0.000146
 159	1.5721e+01	3.1473	44.192506	0.001277	12.769623	2.163233	0.000256
 160	1.5820e+01	3.1667	44.349955	0.000791	7.905005	1.339144	0.000158
 161	1.5920e+01	3.1871	44.555849	0.001034	10.337314	1.751188	0.000207
 162	1.6020e+01	3.2064	44.765780	0.001054	10.540007	1.785525	0.000211
 163	1.6119e+01	3.2262	44.987822	0.001115	11.148084	1.888537	0.000223
 164	1.6218e+01	3.2460	45.165456	0.000892	8.918467	1.510829	0.000179
 165	1.6318e+01	3.2671	45.371350	0.001034	10.337314	1.751188	0.000207
 166	1.6418e+01	3.2863	45.528798	0.000791	7.905005	1.339144	0.000158
 167	1.6517e+01	3.3067	45.775064	0.001236	12.364239	2.094559	0.000248
 168	1.6616e+01	3.3264	45.964809	0.000953	9.526545	1.613840	0.000191
 169	1.6716e+01	3.3452	46.138406	0.000872	8.715775	1.476492	0.000174
 170	1.6816e+01	3.3665	46.352374	0.001074	10.742699	1.819862	0.000215
 171	1.6915e+01	3.3862	46.538082	0.000932	9.323852	1.579503	0.000187
 172	1.7015e+01	3.4055	46.703605	0.000831	8.310390	1.407818	0.000166
 173	1.7114e+01	3.4254	46.953907	0.001257	12.566931	2.128896	0.000252
 174	1.7213e+01	3.4461	47.139615	0.000932	9.323852	1.579503	0.000187
 175	1.7313e+01	3.4663	47.337435	0.000993	9.931929	1.682514	0.000199
 176	1.7413e+01	3.4860	47.519106	0.000912	9.121160	1.545166	0.000183
 177	1.7512e+01	3.5052	47.753260	0.001176	11.756161	1.991548	0.000235
 178	1.7611e+01	3.5254	47.914746	0.000811	8.107697	1.373481	0.000162
 179	1.7711e+01	3.5461	48.112565	0.000993	9.931929	1.682514	0.000199
 180	1.7811e+01	3.5654	48.350756	0.001196	11.958854	2.025885	0.000239
 181	1.7910e+01	3.5854	48.564724	0.001074	10.742699	1.819862	0.000215
 182	1.8009e+01	3.6047	48.750433	0.000932	9.323852	1.579503	0.000187
 183	1.8109e+01	3.6251	48.903844	0.000770	7.702313	1.304807	0.000154
 184	1.8209e+01	3.6452	49.125886	0.001115	11.148084	1.888537	0.000223
 185	1.8308e+01	3.6662	49.327743	0.001013	10.134622	1.716851	0.000203
 186	1.8407e+01	3.6854	49.549785	0.001115	11.148084	1.888537	0.000223
 187	1.8507e+01	3.7038	49.739531	0.000953	9.526545	1.613840	0.000191
 188	1.8607e+01	3.7241	49.941388	0.001013	10.134622	1.716851	0.000203
 189	1.8706e+01	3.7452	50.151319	0.001054	10.540007	1.785525	0.000211
 190	1.8805e+01	3.7646	50.345101	0.000973	9.729237	1.648177	0.000195
 191	1.8905e+01	3.7844	50.490438	0.000730	7.296928	1.236133	0.000146
 192	1.9005e+01	3.8044	50.700369	0.001054	10.540007	1.785525	0.000211
 193	1.9104e+01	3.8248	50.914337	0.001074	10.742699	1.819862	0.000215
 194	1.9203e+01	3.8447	51.112157	0.000993	9.931929	1.682514	0.000199
 195	1.9303e+01	3.8634	51.322088	0.001054	10.540007	1.785525	0.000211
 196	1.9402e+01	3.8833	51.483573	0.000811	8.107697	1.373481	0.000162
 197	1.9502e+01	3.9032	51.741950	0.001297	12.972316	2.197570	0.000260
 198	1.9602e+01	3.9236	51.903436	0.000811	8.107697	1.373481	0.000162
 199	1.9701e+01	3.9435	52.141627	0.001196	11.958854	2.025885	0.000239
 200	1.9800e+01	3.9640	52.323298	0.000912	9.121160	1.545166	0.000183
 201	1.9900e+01	3.9835	52.521117	0.000993	9.931929	1.682514	0.000199
 202	2.0000e+01	4.0028	52.710863	0.000953	9.526545	1.613840	0.000191
 203	2.0099e+01	4.0239	52.912720	0.001013	10.134622	1.716851	0.000203
 204	2.0198e+01	4.0445	53.130725	0.001095	10.945392	1.854200	0.000219
 205	2.0298e+01	4.0643	53.296247	0.000831	8.310390	1.407818	0.000166
 206	2.0398e+01	4.0829	53.506179	0.001054	10.540007	1.785525	0.000211
 207	2.0497e+01	4.1039	53.736295	0.001155	11.553469	1.957211	0.000231
 208	2.0596e+01	4.1235	53.889706	0.000770	7.702313	1.304807	0.000154
 209	2.0696e+01	4.1434	54.087526	0.000993	9.931929	1.682514	0.000199
 210	2.0796e+01	4.1624	54.309569	0.001115	11.148084	1.888537	0.000223
 211	2.0895e+01	4.1824	54.519500	0.001054	10.540007	1.785525	0.000211
 212	2.0994e+01	4.2023	54.689059	0.000851	8.513082	1.442155	0.000170
 213	2.1094e+01	4.2228	54.959547	0.001358	13.580393	2.300581	0.000272
 214	2.1194e+01	4.2428	55.076624	0.000588	5.878081	0.995774	0.000118
 215	2.1293e+01	4.2623	55.298667	0.001115	11.148084	1.888537	0.000223
 216	2.1392e+01	4.2824	55.496486	0.000993	9.931929	1.682514	0.000199
 217	2.1492e+01	4.3026	55.722566	0.001135	11.350776	1.922874	0.000227
 218	2.1591e+01	4.3218	55.912311	0.000953	9.526545	1.613840	0.000191
 219	2.1691e+01	4.3428	56.110131	0.000993	9.931929	1.682514	0.000199
 220	2.1791e+01	4.3623	56.303914	0.000973	9.729237	1.648177	0.000195
 221	2.1890e+01	4.3822	56.481548	0.000892	8.918467	1.510829	0.000179
 222	2.1989e+01	4.4015	56.723776	0.001216	12.161546	2.060222	0.000243
 223	2.2089e+01	4.4219	56.905447	0.000912	9.121160	1.545166	0.000183
 224	2.2189e+01	4.4408	57.103266	0.000993	9.931929	1.682514	0.000199
 225	2.2288e+01	4.4609	57.280900	0.000892	8.918467	1.510829	0.000179
 226	2.2387e+01	4.4816	57.470646	0.000953	9.526545	1.613840	0.000191
 227	2.2487e+01	4.5009	57.692688	0.001115	11.148084	1.888537	0.000223
 228	2.2587e+01	4.5211	57.878397	0.000932	9.323852	1.579503	0.000187
 229	2.2686e+01	4.5409	58.056030	0.000892	8.918467	1.510829	0.000179
 230	2.2785e+01	4.5612	58.257887	0.001013	10.134622	1.716851	0.000203
 231	2.2885e+01	4.5809	58.455707	0.000993	9.931929	1.682514	0.000199
 232	2.2985e+01	4.6008	58.681787	0.001135	11.350776	1.922874	0.000227
 233	2.3084e+01	4.6209	58.859420	0.000892	8.918467	1.510829	0.000179
 234	2.3183e+01	4.6404	59.024943	0.000831	8.310390	1.407818	0.000166
 235	2.3283e+01	4.6613	59.206614	0.000912	9.121160	1.545166	0.000183
 236	2.3383e+01	4.6807	59.436731	0.001155	11.553469	1.957211	0.000231
 237	2.3482e+01	4.7009	59.602253	0.000831	8.310390	1.407818	0.000166
 238	2.3581e+01	4.7207	59.832370	0.001155	11.553469	1.957211	0.000231
 239	2.3681e+01	4.7408	60.010004	0.000892	8.918467	1.510829	0.000179
 240	2.3780e+01	4.7604	60.215898	0.001034	10.337314	1.751188	0.000207
 241	2.3880e+01	4.7803	60.417755	0.001013	10.134622	1.716851	0.000203
 242	2.3980e+01	4.8006	60.623649	0.001034	10.337314	1.751188	0.000207
 243	2.4079e+01	4.8206	60.773023	0.000750	7.499620	1.270470	0.000150
 244	2.4178e+01	4.8394	60.966805	0.000973	9.729237	1.648177	0.000195
 245	2.4278e+01	4.8605	61.164625	0.000993	9.931929	1.682514	0.000199
 246	2.4378e+01	4.8806	61.410890	0.001236	12.364239	2.094559	0.000248
 247	2.4477e+01	4.9001	61.576413	0.000831	8.310390	1.407818	0.000166
 248	2.4576e+01	4.9200	61.750010	0.000872	8.715775	1.476492	0.000174
 249	2.4676e+01	4.9395	61.943792	0.000973	9.729237	1.648177	0.000195
 250	2.4776e+01	4.9599	62.173909	0.001155	11.553469	1.957211	0.000231
 251	2.4875e+01	4.9809	62.351543	0.000892	8.918467	1.510829	0.000179
 252	2.4974e+01	4.9992	62.500917	0.000750	7.499620	1.270470	0.000150
 253	2.5074e+01	5.0191	62.706811	0.001034	10.337314	1.751188	0.000207
 254	2.5174e+01	5.0396	62.876371	0.000851	8.513082	1.442155	0.000170
 255	2.5273e+01	5.0591	63.106487	0.001155	11.553469	1.957211	0.000231
 256	2.5372e+01	5.0794	63.308344	0.001013	10.134622	1.716851	0.000203
 257	2.5472e+01	5.0987	63.449644	0.000709	7.094235	1.201796	0.000142
 258	2.5572e+01	5.1185	63.679761	0.001155	11.553469	1.957211	0.000231
 259	2.5671e+01	5.1388	63.877580	0.000993	9.931929	1.682514	0.000199
 260	2.5770e+01	5.1582	64.079437	0.001013	10.134622	1.716851	0.000203
