»»»»»»»»»»»»»»»»»»»»»»»»»»»»»»»»»»»» Hysteresis ««««««««««««««««««««««««««««««««««««
»»»  Executed Version:	5.48.1
»»»  Vision Version:	5.48.4 (R)
»»»  Vision Compiled:	9/18/24
»»»  Driver Version:	5.47.0
»»»  Windows Version:	Windows 8 or 8.1
»»»  Processor Information:	x86 (AMD or Intel) - 32 Processors
»»»  Tester Name:	PMF21124-494 (100V)
»»»  Tester S/N:	PMF21124-494
»»»  Internal Amp Type:	100V RevK 270k
»»»  Internal Amp S/N:	iAB2-596/K     
»»»  Execution Count:	1
»»»»»»»»»»»»»»»»»»»»»»»»»»»»»»»»»»»»»»»»»»««««««««««««««««««««««««««««««««««««««««««

Stored:	7/1/2025 - 14:52:7
Configured:	07/01/25 10:49:51 AM
Executed:	07/01/25 02:51:40 PM

»»»»»»»»»»»»»»»»»»»»»»»»»»»»»»»»»»» Sample Info ««««««««««««««««««««««««««««««««««««
Sample Name:	
Lot Name:	
Wafer Name:	
Die Row/Column:	0/0
Capacitor Number:	0
Sample Area (cm2):	1.00e-04
Sample Thickness (microns):	1.50e-01

Amplifier:	Internal

»»»»»»»»»»»»»»»»»»»»»»»»»»»»»»»»»»» Tester Info «««««««««««««««««««««««««««««««««««
Tester Name:	PMF21124-494 (100V)
Tester Serial Number:	PMF21124-494
Return Signal Amp. Level:	0.19 [Index: 3]

»»»»»»»»»»»»»»»»»»»»»»»»»»»»»»»» Hysteresis Info ««««««««««««««««««««««««««««««««««
Task Name:	Hyst-22
Volts:	10.00
Field:	666.67 (kV/cm)
DCBias:	0.00
DCField:	0.00 (kV/cm)
Hysteresis Period (ms):	2.00e+02
Preset:	Enabled
Preset Delay (ms):	1.00e+03
Profile:	Standard Bipolar

»»»»»»»»»»»»»»»»»»»»»»»»»»»»»»»»»»»»»» Data «««««««««««««««««««««««««««««««««««««««
Points:	2009

Valid Data

Point	Time (ms)	Drive Voltage	Measured Polarization (uC/cm2)	Capacitance (uF)	Normalized Capacitance (uF/cm2)	Dielectric Constant	Instantaneous Current (mA)
   1	0.0000e+00	-0.0006	13.375031	0.000790	7.904824	1.339113	0.000158
   2	9.9500e-02	0.0199	13.532479	0.000790	7.904824	1.339113	0.000158
   3	1.9900e-01	0.0394	13.649556	0.000588	5.877946	0.995751	0.000118
   4	2.9850e-01	0.0596	13.782781	0.000669	6.688697	1.133096	0.000134
   5	3.9800e-01	0.0791	13.924081	0.000709	7.094073	1.201768	0.000142
   6	4.9750e-01	0.0990	14.045195	0.000608	6.080634	1.030087	0.000122
   7	5.9700e-01	0.1185	14.190532	0.000730	7.296761	1.236105	0.000146
   8	6.9650e-01	0.1384	14.315683	0.000628	6.283322	1.064424	0.000126
   9	7.9600e-01	0.1580	14.481206	0.000831	8.310200	1.407786	0.000166
  10	8.9550e-01	0.1783	14.610394	0.000649	6.486009	1.098760	0.000130
  11	9.9500e-01	0.1986	14.739583	0.000649	6.486009	1.098760	0.000130
  12	1.0945e+00	0.2184	14.901068	0.000811	8.107512	1.373450	0.000162
  13	1.1940e+00	0.2387	15.010071	0.000547	5.472571	0.927079	0.000110
  14	1.2935e+00	0.2578	15.171556	0.000811	8.107512	1.373450	0.000162
  15	1.3930e+00	0.2776	15.260373	0.000446	4.459132	0.755397	0.000089
  16	1.4925e+00	0.2984	15.450118	0.000953	9.526326	1.613803	0.000191
  17	1.5920e+00	0.3176	15.595455	0.000730	7.296761	1.236105	0.000146
  18	1.6915e+00	0.3384	15.744829	0.000750	7.499448	1.270441	0.000150
  19	1.7910e+00	0.3579	15.837684	0.000466	4.661819	0.789734	0.000093
  20	1.8905e+00	0.3781	15.999169	0.000811	8.107512	1.373450	0.000162
  21	1.9900e+00	0.3984	16.176803	0.000892	8.918263	1.510795	0.000179
  22	2.0895e+00	0.4169	16.334251	0.000790	7.904824	1.339113	0.000158
  23	2.1890e+00	0.4372	16.459402	0.000628	6.283322	1.064424	0.000126
  24	2.2885e+00	0.4572	16.592628	0.000669	6.688697	1.133096	0.000134
  25	2.3880e+00	0.4775	16.766225	0.000872	8.715575	1.476458	0.000174
  26	2.4875e+00	0.4974	16.903487	0.000689	6.891385	1.167432	0.000138
  27	2.5870e+00	0.5177	17.036713	0.000669	6.688697	1.133096	0.000134
  28	2.6865e+00	0.5372	17.202235	0.000831	8.310200	1.407786	0.000166
  29	2.7860e+00	0.5584	17.359684	0.000790	7.904824	1.339113	0.000158
  30	2.8855e+00	0.5771	17.513095	0.000770	7.702136	1.304777	0.000154
  31	2.9850e+00	0.5967	17.626135	0.000568	5.675258	0.961415	0.000114
  32	3.0845e+00	0.6169	17.815880	0.000953	9.526326	1.613803	0.000191
  33	3.1840e+00	0.6380	17.936994	0.000608	6.080634	1.030087	0.000122
  34	3.2835e+00	0.6571	18.114628	0.000892	8.918263	1.510795	0.000179
  35	3.3830e+00	0.6769	18.251891	0.000689	6.891385	1.167432	0.000138
  36	3.4825e+00	0.6970	18.433562	0.000912	9.120951	1.545131	0.000183
  37	3.5820e+00	0.7162	18.570824	0.000689	6.891385	1.167432	0.000138
  38	3.6815e+00	0.7354	18.724236	0.000770	7.702136	1.304777	0.000154
  39	3.7810e+00	0.7565	18.889758	0.000831	8.310200	1.407786	0.000166
  40	3.8805e+00	0.7745	19.014909	0.000628	6.283322	1.064424	0.000126
  41	3.9800e+00	0.7954	19.172358	0.000790	7.904824	1.339113	0.000158
  42	4.0795e+00	0.8157	19.321732	0.000750	7.499448	1.270441	0.000150
  43	4.1790e+00	0.8371	19.487254	0.000831	8.310200	1.407786	0.000166
  44	4.2785e+00	0.8553	19.612405	0.000628	6.283322	1.064424	0.000126
  45	4.3780e+00	0.8759	19.781965	0.000851	8.512887	1.442122	0.000170
  46	4.4775e+00	0.8959	19.903079	0.000608	6.080634	1.030087	0.000122
  47	4.5770e+00	0.9155	20.056490	0.000770	7.702136	1.304777	0.000154
  48	4.6765e+00	0.9350	20.262384	0.001034	10.337078	1.751148	0.000207
  49	4.7760e+00	0.9556	20.391573	0.000649	6.486009	1.098760	0.000130
  50	4.8755e+00	0.9753	20.561132	0.000851	8.512887	1.442122	0.000170
  51	4.9750e+00	0.9959	20.662061	0.000507	5.067195	0.858406	0.000101
  52	5.0745e+00	1.0147	20.847769	0.000932	9.323639	1.579467	0.000187
  53	5.1740e+00	1.0357	20.968883	0.000608	6.080634	1.030087	0.000122
  54	5.2735e+00	1.0561	21.178814	0.001054	10.539765	1.785485	0.000211
  55	5.3730e+00	1.0751	21.283780	0.000527	5.269883	0.892742	0.000105
  56	5.4725e+00	1.0954	21.453339	0.000851	8.512887	1.442122	0.000170
  57	5.5720e+00	1.1151	21.667308	0.001074	10.742453	1.819821	0.000215
  58	5.6715e+00	1.1348	21.788422	0.000608	6.080634	1.030087	0.000122
  59	5.7710e+00	1.1561	21.941833	0.000770	7.702136	1.304777	0.000154
  60	5.8705e+00	1.1748	22.099281	0.000790	7.904824	1.339113	0.000158
  61	5.9700e+00	1.1956	22.208284	0.000547	5.472571	0.927079	0.000110
  62	6.0695e+00	1.2145	22.385918	0.000892	8.918263	1.510795	0.000179
  63	6.1690e+00	1.2357	22.555477	0.000851	8.512887	1.442122	0.000170
  64	6.2685e+00	1.2547	22.712926	0.000790	7.904824	1.339113	0.000158
  65	6.3680e+00	1.2746	22.878448	0.000831	8.310200	1.407786	0.000166
  66	6.4675e+00	1.2939	23.011674	0.000669	6.688697	1.133096	0.000134
  67	6.5670e+00	1.3134	23.177196	0.000831	8.310200	1.407786	0.000166
  68	6.6665e+00	1.3342	23.322533	0.000730	7.296761	1.236105	0.000146
  69	6.7660e+00	1.3544	23.496130	0.000872	8.715575	1.476458	0.000174
  70	6.8655e+00	1.3734	23.641467	0.000730	7.296761	1.236105	0.000146
  71	6.9650e+00	1.3937	23.782767	0.000709	7.094073	1.201768	0.000142
  72	7.0645e+00	1.4129	23.968475	0.000932	9.323639	1.579467	0.000187
  73	7.1640e+00	1.4326	24.117849	0.000750	7.499448	1.270441	0.000150
  74	7.2635e+00	1.4523	24.299520	0.000912	9.120951	1.545131	0.000183
  75	7.3630e+00	1.4730	24.452931	0.000770	7.702136	1.304777	0.000154
  76	7.4625e+00	1.4920	24.618454	0.000831	8.310200	1.407786	0.000166
  77	7.5620e+00	1.5133	24.767828	0.000750	7.499448	1.270441	0.000150
  78	7.6615e+00	1.5318	24.905090	0.000689	6.891385	1.167432	0.000138
  79	7.7610e+00	1.5520	25.066576	0.000811	8.107512	1.373450	0.000162
  80	7.8605e+00	1.5724	25.215950	0.000750	7.499448	1.270441	0.000150
  81	7.9600e+00	1.5927	25.405695	0.000953	9.526326	1.613803	0.000191
  82	8.0595e+00	1.6129	25.563143	0.000790	7.904824	1.339113	0.000158
  83	8.1590e+00	1.6332	25.672146	0.000547	5.472571	0.927079	0.000110
  84	8.2585e+00	1.6516	25.861892	0.000953	9.526326	1.613803	0.000191
  85	8.3580e+00	1.6724	26.039526	0.000892	8.918263	1.510795	0.000179
  86	8.4575e+00	1.6920	26.192937	0.000770	7.702136	1.304777	0.000154
  87	8.5570e+00	1.7131	26.394793	0.001013	10.134390	1.716812	0.000203
  88	8.6565e+00	1.7315	26.536093	0.000709	7.094073	1.201768	0.000142
  89	8.7560e+00	1.7519	26.689504	0.000770	7.702136	1.304777	0.000154
  90	8.8555e+00	1.7725	26.826767	0.000689	6.891385	1.167432	0.000138
  91	8.9550e+00	1.7927	27.016512	0.000953	9.526326	1.613803	0.000191
  92	9.0545e+00	1.8118	27.137626	0.000608	6.080634	1.030087	0.000122
  93	9.1540e+00	1.8324	27.295075	0.000790	7.904824	1.339113	0.000158
  94	9.2535e+00	1.8517	27.448486	0.000770	7.702136	1.304777	0.000154
  95	9.3530e+00	1.8716	27.646306	0.000993	9.931702	1.682476	0.000199
  96	9.4525e+00	1.8914	27.803754	0.000790	7.904824	1.339113	0.000158
  97	9.5520e+00	1.9124	27.993499	0.000953	9.526326	1.613803	0.000191
  98	9.6515e+00	1.9311	28.102502	0.000547	5.472571	0.927079	0.000110
  99	9.7510e+00	1.9524	28.296284	0.000973	9.729014	1.648140	0.000195
 100	9.8505e+00	1.9720	28.433547	0.000689	6.891385	1.167432	0.000138
 101	9.9500e+00	1.9913	28.611181	0.000892	8.918263	1.510795	0.000179
 102	1.0050e+01	2.0107	28.772666	0.000811	8.107512	1.373450	0.000162
 103	1.0149e+01	2.0306	28.934152	0.000811	8.107512	1.373450	0.000162
 104	1.0248e+01	2.0512	29.059303	0.000628	6.283322	1.064424	0.000126
 105	1.0348e+01	2.0712	29.253086	0.000973	9.729014	1.648140	0.000195
 106	1.0447e+01	2.0901	29.394385	0.000709	7.094073	1.201768	0.000142
 107	1.0547e+01	2.1110	29.555871	0.000811	8.107512	1.373450	0.000162
 108	1.0646e+01	2.1312	29.717356	0.000811	8.107512	1.373450	0.000162
 109	1.0746e+01	2.1510	29.842507	0.000628	6.283322	1.064424	0.000126
 110	1.0845e+01	2.1698	30.020141	0.000892	8.918263	1.510795	0.000179
 111	1.0945e+01	2.1909	30.165478	0.000730	7.296761	1.236105	0.000146
 112	1.1044e+01	2.2101	30.331001	0.000831	8.310200	1.407786	0.000166
 113	1.1144e+01	2.2300	30.492486	0.000811	8.107512	1.373450	0.000162
 114	1.1243e+01	2.2503	30.617637	0.000628	6.283322	1.064424	0.000126
 115	1.1343e+01	2.2698	30.803346	0.000932	9.323639	1.579467	0.000187
 116	1.1443e+01	2.2900	30.952720	0.000750	7.499448	1.270441	0.000150
 117	1.1542e+01	2.3095	31.110168	0.000790	7.904824	1.339113	0.000158
 118	1.1642e+01	2.3301	31.259542	0.000750	7.499448	1.270441	0.000150
 119	1.1741e+01	2.3502	31.445250	0.000932	9.323639	1.579467	0.000187
 120	1.1841e+01	2.3700	31.574439	0.000649	6.486009	1.098760	0.000130
 121	1.1940e+01	2.3899	31.735924	0.000811	8.107512	1.373450	0.000162
 122	1.2040e+01	2.4100	31.877224	0.000709	7.094073	1.201768	0.000142
 123	1.2139e+01	2.4292	32.062932	0.000932	9.323639	1.579467	0.000187
 124	1.2239e+01	2.4493	32.264789	0.001013	10.134390	1.716812	0.000203
 125	1.2338e+01	2.4686	32.369754	0.000527	5.269883	0.892742	0.000105
 126	1.2438e+01	2.4901	32.486831	0.000588	5.877946	0.995751	0.000118
 127	1.2537e+01	2.5100	32.696762	0.001054	10.539765	1.785485	0.000211
 128	1.2636e+01	2.5291	32.838062	0.000709	7.094073	1.201768	0.000142
 129	1.2736e+01	2.5493	32.999548	0.000811	8.107512	1.373450	0.000162
 130	1.2835e+01	2.5695	33.148922	0.000750	7.499448	1.270441	0.000150
 131	1.2935e+01	2.5879	33.282147	0.000669	6.688697	1.133096	0.000134
 132	1.3034e+01	2.6072	33.463818	0.000912	9.120951	1.545131	0.000183
 133	1.3134e+01	2.6288	33.633378	0.000851	8.512887	1.442122	0.000170
 134	1.3233e+01	2.6485	33.798900	0.000831	8.310200	1.407786	0.000166
 135	1.3333e+01	2.6687	33.932126	0.000669	6.688697	1.133096	0.000134
 136	1.3432e+01	2.6879	34.085537	0.000770	7.702136	1.304777	0.000154
 137	1.3532e+01	2.7087	34.255097	0.000851	8.512887	1.442122	0.000170
 138	1.3632e+01	2.7286	34.412545	0.000790	7.904824	1.339113	0.000158
 139	1.3731e+01	2.7470	34.582105	0.000851	8.512887	1.442122	0.000170
 140	1.3831e+01	2.7680	34.711293	0.000649	6.486009	1.098760	0.000130
 141	1.3930e+01	2.7879	34.864704	0.000770	7.702136	1.304777	0.000154
 142	1.4030e+01	2.8085	35.042338	0.000892	8.918263	1.510795	0.000179
 143	1.4129e+01	2.8270	35.215935	0.000872	8.715575	1.476458	0.000174
 144	1.4229e+01	2.8481	35.361272	0.000730	7.296761	1.236105	0.000146
 145	1.4328e+01	2.8681	35.514683	0.000770	7.702136	1.304777	0.000154
 146	1.4428e+01	2.8872	35.635797	0.000608	6.080634	1.030087	0.000122
 147	1.4527e+01	2.9073	35.793245	0.000790	7.904824	1.339113	0.000158
 148	1.4627e+01	2.9285	35.978954	0.000932	9.323639	1.579467	0.000187
 149	1.4726e+01	2.9472	36.120253	0.000709	7.094073	1.201768	0.000142
 150	1.4825e+01	2.9671	36.257516	0.000689	6.891385	1.167432	0.000138
 151	1.4925e+01	2.9850	36.419001	0.000811	8.107512	1.373450	0.000162
 152	1.5024e+01	3.0071	36.564338	0.000730	7.296761	1.236105	0.000146
 153	1.5124e+01	3.0275	36.725824	0.000811	8.107512	1.373450	0.000162
 154	1.5223e+01	3.0475	36.927681	0.001013	10.134390	1.716812	0.000203
 155	1.5323e+01	3.0660	37.032646	0.000527	5.269883	0.892742	0.000105
 156	1.5422e+01	3.0869	37.186057	0.000770	7.702136	1.304777	0.000154
 157	1.5522e+01	3.1070	37.355617	0.000851	8.512887	1.442122	0.000170
 158	1.5621e+01	3.1266	37.537288	0.000912	9.120951	1.545131	0.000183
 159	1.5721e+01	3.1476	37.690699	0.000770	7.702136	1.304777	0.000154
 160	1.5820e+01	3.1670	37.783553	0.000466	4.661819	0.789734	0.000093
 161	1.5920e+01	3.1864	37.961187	0.000892	8.918263	1.510795	0.000179
 162	1.6020e+01	3.2063	38.122673	0.000811	8.107512	1.373450	0.000162
 163	1.6119e+01	3.2266	38.316455	0.000973	9.729014	1.648140	0.000195
 164	1.6218e+01	3.2471	38.445644	0.000649	6.486009	1.098760	0.000130
 165	1.6318e+01	3.2661	38.590981	0.000730	7.296761	1.236105	0.000146
 166	1.6418e+01	3.2859	38.724206	0.000669	6.688697	1.133096	0.000134
 167	1.6517e+01	3.3060	38.905877	0.000912	9.120951	1.545131	0.000183
 168	1.6616e+01	3.3257	39.059288	0.000770	7.702136	1.304777	0.000154
 169	1.6716e+01	3.3463	39.200588	0.000709	7.094073	1.201768	0.000142
 170	1.6816e+01	3.3665	39.325739	0.000628	6.283322	1.064424	0.000126
 171	1.6915e+01	3.3862	39.527596	0.001013	10.134390	1.716812	0.000203
 172	1.7015e+01	3.4051	39.648710	0.000608	6.080634	1.030087	0.000122
 173	1.7114e+01	3.4261	39.777898	0.000649	6.486009	1.098760	0.000130
 174	1.7213e+01	3.4460	39.939384	0.000811	8.107512	1.373450	0.000162
 175	1.7313e+01	3.4649	40.117018	0.000892	8.918263	1.510795	0.000179
 176	1.7413e+01	3.4879	40.274466	0.000790	7.904824	1.339113	0.000158
 177	1.7512e+01	3.5058	40.431914	0.000790	7.904824	1.339113	0.000158
 178	1.7611e+01	3.5257	40.561103	0.000649	6.486009	1.098760	0.000130
 179	1.7711e+01	3.5454	40.698365	0.000689	6.891385	1.167432	0.000138
 180	1.7811e+01	3.5653	40.871962	0.000872	8.715575	1.476458	0.000174
 181	1.7910e+01	3.5854	40.980965	0.000547	5.472571	0.927079	0.000110
 182	1.8009e+01	3.6051	41.146487	0.000831	8.310200	1.407786	0.000166
 183	1.8109e+01	3.6250	41.279713	0.000669	6.688697	1.133096	0.000134
 184	1.8209e+01	3.6445	41.445235	0.000831	8.310200	1.407786	0.000166
 185	1.8308e+01	3.6656	41.574424	0.000649	6.486009	1.098760	0.000130
 186	1.8407e+01	3.6852	41.723798	0.000750	7.499448	1.270441	0.000150
 187	1.8507e+01	3.7041	41.905469	0.000912	9.120951	1.545131	0.000183
 188	1.8607e+01	3.7254	42.050806	0.000730	7.296761	1.236105	0.000146
 189	1.8706e+01	3.7446	42.188068	0.000689	6.891385	1.167432	0.000138
 190	1.8805e+01	3.7657	42.377814	0.000953	9.526326	1.613803	0.000191
 191	1.8905e+01	3.7844	42.515076	0.000689	6.891385	1.167432	0.000138
 192	1.9005e+01	3.8033	42.664450	0.000750	7.499448	1.270441	0.000150
 193	1.9104e+01	3.8238	42.838047	0.000872	8.715575	1.476458	0.000174
 194	1.9203e+01	3.8435	42.934939	0.000486	4.864507	0.824070	0.000097
 195	1.9303e+01	3.8634	43.124684	0.000953	9.526326	1.613803	0.000191
 196	1.9402e+01	3.8831	43.237724	0.000568	5.675258	0.961415	0.000114
 197	1.9502e+01	3.9048	43.383061	0.000730	7.296761	1.236105	0.000146
 198	1.9602e+01	3.9233	43.592992	0.001054	10.539765	1.785485	0.000211
 199	1.9701e+01	3.9430	43.738329	0.000730	7.296761	1.236105	0.000146
 200	1.9800e+01	3.9635	43.839257	0.000507	5.067195	0.858406	0.000101
 201	1.9900e+01	3.9834	44.029002	0.000953	9.526326	1.613803	0.000191
 202	2.0000e+01	4.0029	44.154154	0.000628	6.283322	1.064424	0.000126
 203	2.0099e+01	4.0229	44.295453	0.000709	7.094073	1.201768	0.000142
 204	2.0198e+01	4.0432	44.477124	0.000912	9.120951	1.545131	0.000183
 205	2.0298e+01	4.0636	44.602276	0.000628	6.283322	1.064424	0.000126
 206	2.0398e+01	4.0827	44.743575	0.000709	7.094073	1.201768	0.000142
 207	2.0497e+01	4.1027	44.941395	0.000993	9.931702	1.682476	0.000199
 208	2.0596e+01	4.1219	45.034249	0.000466	4.661819	0.789734	0.000093
 209	2.0696e+01	4.1421	45.183623	0.000750	7.499448	1.270441	0.000150
 210	2.0796e+01	4.1621	45.373369	0.000953	9.526326	1.613803	0.000191
 211	2.0895e+01	4.1821	45.498520	0.000628	6.283322	1.064424	0.000126
 212	2.0994e+01	4.2023	45.655968	0.000790	7.904824	1.339113	0.000158
 213	2.1094e+01	4.2216	45.793231	0.000689	6.891385	1.167432	0.000138
 214	2.1194e+01	4.2426	45.950679	0.000790	7.904824	1.339113	0.000158
 215	2.1293e+01	4.2626	46.075830	0.000628	6.283322	1.064424	0.000126
 216	2.1392e+01	4.2823	46.221167	0.000730	7.296761	1.236105	0.000146
 217	2.1492e+01	4.3024	46.374578	0.000770	7.702136	1.304777	0.000154
 218	2.1591e+01	4.3215	46.479544	0.000527	5.269883	0.892742	0.000105
 219	2.1691e+01	4.3429	46.641029	0.000811	8.107512	1.373450	0.000162
 220	2.1791e+01	4.3615	46.814626	0.000872	8.715575	1.476458	0.000174
 221	2.1890e+01	4.3816	46.943814	0.000649	6.486009	1.098760	0.000130
 222	2.1989e+01	4.4022	47.081077	0.000689	6.891385	1.167432	0.000138
 223	2.2089e+01	4.4215	47.226414	0.000730	7.296761	1.236105	0.000146
 224	2.2189e+01	4.4411	47.387899	0.000811	8.107512	1.373450	0.000162
 225	2.2288e+01	4.4614	47.521125	0.000669	6.688697	1.133096	0.000134
 226	2.2387e+01	4.4897	47.638202	0.000588	5.877946	0.995751	0.000118
 227	2.2487e+01	4.5016	47.775464	0.000689	6.891385	1.167432	0.000138
 228	2.2587e+01	4.5215	47.973284	0.000993	9.931702	1.682476	0.000199
 229	2.2686e+01	4.5409	48.094398	0.000608	6.080634	1.030087	0.000122
 230	2.2785e+01	4.5617	48.235698	0.000709	7.094073	1.201768	0.000142
 231	2.2885e+01	4.5805	48.385072	0.000750	7.499448	1.270441	0.000150
 232	2.2985e+01	4.6006	48.550594	0.000831	8.310200	1.407786	0.000166
 233	2.3084e+01	4.6214	48.667671	0.000588	5.877946	0.995751	0.000118
 234	2.3183e+01	4.6403	48.800897	0.000669	6.688697	1.133096	0.000134
 235	2.3283e+01	4.6597	48.942197	0.000709	7.094073	1.201768	0.000142
 236	2.3383e+01	4.6803	49.079459	0.000689	6.891385	1.167432	0.000138
 237	2.3482e+01	4.7004	49.249019	0.000851	8.512887	1.442122	0.000170
 238	2.3581e+01	4.7213	49.366096	0.000588	5.877946	0.995751	0.000118
 239	2.3681e+01	4.7412	49.511433	0.000730	7.296761	1.236105	0.000146
 240	2.3780e+01	4.7601	49.624472	0.000568	5.675258	0.961415	0.000114
 241	2.3880e+01	4.7807	49.789995	0.000831	8.310200	1.407786	0.000166
 242	2.3980e+01	4.7995	49.939369	0.000750	7.499448	1.270441	0.000150
 243	2.4079e+01	4.8199	50.056446	0.000588	5.877946	0.995751	0.000118
 244	2.4178e+01	4.8403	50.189671	0.000669	6.688697	1.133096	0.000134
 245	2.4278e+01	4.8599	50.318860	0.000649	6.486009	1.098760	0.000130
 246	2.4378e+01	4.8801	50.480345	0.000811	8.107512	1.373450	0.000162
 247	2.4477e+01	4.9010	50.657979	0.000892	8.918263	1.510795	0.000179
 248	2.4576e+01	4.9191	50.734685	0.000385	3.851068	0.652389	0.000077
 249	2.4676e+01	4.9394	50.912319	0.000892	8.918263	1.510795	0.000179
 250	2.4776e+01	4.9596	51.061693	0.000750	7.499448	1.270441	0.000150
 251	2.4875e+01	4.9798	51.207030	0.000730	7.296761	1.236105	0.000146
 252	2.4974e+01	4.9996	51.299884	0.000466	4.661819	0.789734	0.000093
 253	2.5074e+01	5.0185	51.485592	0.000932	9.323639	1.579467	0.000187
 254	2.5174e+01	5.0391	51.634966	0.000750	7.499448	1.270441	0.000150
 255	2.5273e+01	5.0588	51.756080	0.000608	6.080634	1.030087	0.000122
 256	2.5372e+01	5.0793	51.869120	0.000568	5.675258	0.961415	0.000114
 257	2.5472e+01	5.1005	52.050791	0.000912	9.120951	1.545131	0.000183
 258	2.5572e+01	5.1184	52.175942	0.000628	6.283322	1.064424	0.000126
 259	2.5671e+01	5.1402	52.297056	0.000608	6.080634	1.030087	0.000122
 260	2.5770e+01	5.1574	52.426245	0.000649	6.486009	1.098760	0.000130
 261	2.5870e+01	5.1775	52.539284	0.000568	5.675258	0.961415	0.000114
