»»»»»»»»»»»»»»»»»»»»»»»»»»»»»»»»»»»» Hysteresis ««««««««««««««««««««««««««««««««««««
»»»  Executed Version:	5.48.1
»»»  Vision Version:	5.48.4 (R)
»»»  Vision Compiled:	9/18/24
»»»  Driver Version:	5.47.0
»»»  Windows Version:	Windows 8 or 8.1
»»»  Processor Information:	x86 (AMD or Intel) - 32 Processors
»»»  Tester Name:	PMF21124-494 (100V)
»»»  Tester S/N:	PMF21124-494
»»»  Internal Amp Type:	100V RevK 270k
»»»  Internal Amp S/N:	iAB2-596/K     
»»»  Execution Count:	1
»»»»»»»»»»»»»»»»»»»»»»»»»»»»»»»»»»»»»»»»»»««««««««««««««««««««««««««««««««««««««««««

Stored:	7/2/2025 - 13:41:39
Configured:	07/02/25 01:35:59 PM
Executed:	07/02/25 01:40:17 PM

»»»»»»»»»»»»»»»»»»»»»»»»»»»»»»»»»»» Sample Info ««««««««««««««««««««««««««««««««««««
Sample Name:	
Lot Name:	
Wafer Name:	
Die Row/Column:	0/0
Capacitor Number:	0
Sample Area (cm2):	1.00e-04
Sample Thickness (microns):	1.50e-01

Amplifier:	Internal

»»»»»»»»»»»»»»»»»»»»»»»»»»»»»»»»»»» Tester Info «««««««««««««««««««««««««««««««««««
Tester Name:	PMF21124-494 (100V)
Tester Serial Number:	PMF21124-494
Return Signal Amp. Level:	0.2 [Index: 1]

»»»»»»»»»»»»»»»»»»»»»»»»»»»»»»»» Hysteresis Info ««««««««««««««««««««««««««««««««««
Task Name:	Hyst-220
Volts:	10.00
Field:	666.67 (kV/cm)
DCBias:	0.00
DCField:	0.00 (kV/cm)
Hysteresis Period (ms):	1.00e-02
Preset:	Enabled
Preset Delay (ms):	1.00e+03
Profile:	Standard Bipolar

»»»»»»»»»»»»»»»»»»»»»»»»»»»»»»»»»»»»»» Data «««««««««««««««««««««««««««««««««««««««
Points:	101

Valid Data

Point	Time (ms)	Drive Voltage	Measured Polarization (uC/cm2)	Capacitance (uF)	Normalized Capacitance (uF/cm2)	Dielectric Constant	Instantaneous Current (mA)
   1	0.0000e+00	0.3142	-0.080099	0.000540	5.395950	0.914099	2.108057
   2	1.0000e-04	0.6792	2.027958	0.000540	5.395950	0.914099	2.108057
   3	2.0000e-04	1.0118	6.589952	0.001168	11.677247	1.978179	4.561995
   4	3.0000e-04	1.4424	11.333990	0.001214	12.143218	2.057117	4.744038
   5	4.0000e-04	1.8650	15.003975	0.000939	9.393986	1.591384	3.669985
   6	5.0000e-04	2.2870	17.811076	0.000719	7.185281	1.217220	2.807101
   7	6.0000e-04	2.6825	19.813548	0.000513	5.125687	0.868315	2.002472
   8	7.0000e-04	3.0574	22.609726	0.000716	7.157323	1.212483	2.796179
   9	8.0000e-04	3.4472	26.181408	0.000914	9.142362	1.548758	3.571681
  10	9.0000e-04	3.8515	29.935132	0.000961	9.608333	1.627696	3.753724
  11	1.0000e-03	4.2532	34.253189	0.001105	11.052845	1.872403	4.318057
  12	1.1000e-03	4.6712	36.936501	0.000687	6.868420	1.163542	2.683312
  13	1.2000e-03	5.0708	39.674426	0.000701	7.008212	1.187223	2.737925
  14	1.3000e-03	5.4579	42.488809	0.000720	7.203920	1.220377	2.814383
  15	1.4000e-03	5.8679	45.463390	0.000761	7.613975	1.289842	2.974581
  16	1.5000e-03	6.2604	49.559355	0.001048	10.484360	1.776099	4.095965
  17	1.6000e-03	6.6652	51.944117	0.000610	6.104227	1.034084	2.384762
  18	1.7000e-03	7.0723	54.390773	0.000626	6.262657	1.060923	2.446656
  19	1.8000e-03	7.4768	56.819225	0.000622	6.216060	1.053029	2.428452
  20	1.9000e-03	7.8656	59.356903	0.000650	6.495643	1.100392	2.537678
  21	2.0000e-03	8.2782	63.019606	0.000938	9.375347	1.588227	3.662703
  22	2.1000e-03	8.6719	64.850957	0.000469	4.687674	0.794113	1.831351
  23	2.2000e-03	9.0820	67.017268	0.000555	5.545061	0.939359	2.166310
  24	2.3000e-03	9.4716	69.161733	0.000549	5.489145	0.929886	2.144465
  25	2.4000e-03	9.8706	71.338966	0.000557	5.573020	0.944095	2.177233
  26	2.5000e-03	9.6710	74.648505	-0.000847	-8.471363	-1.435088	3.309540
  27	2.6000e-03	9.3329	72.402096	0.000575	5.750089	0.974091	-2.246409
  28	2.7000e-03	8.9815	67.723594	0.001198	11.975469	2.028699	-4.678502
  29	2.8000e-03	8.5260	64.454104	0.000837	8.368849	1.417721	-3.269490
  30	2.9000e-03	8.0829	63.532967	0.000236	2.357816	0.399425	-0.921137
  31	3.0000e-03	7.6910	63.951665	-0.000107	-1.071735	-0.181557	0.418699
  32	3.1000e-03	7.3108	60.933394	0.000773	7.725808	1.308787	-3.018271
  33	3.2000e-03	6.9397	57.409044	0.000902	9.021209	1.528234	-3.524350
  34	3.3000e-03	6.5179	54.678401	0.000699	6.989573	1.184066	-2.730643
  35	3.4000e-03	6.1035	52.665007	0.000515	5.153645	0.873051	-2.013394
  36	3.5000e-03	5.7202	51.882222	0.000200	2.003678	0.339432	-0.782784
  37	3.6000e-03	5.3316	48.740162	0.000804	8.042669	1.362465	-3.142060
  38	3.7000e-03	4.9304	45.572616	0.000811	8.107905	1.373516	-3.167546
  39	3.8000e-03	4.5321	42.510654	0.000784	7.837641	1.327732	-3.061961
  40	3.9000e-03	4.1284	39.696271	0.000720	7.203920	1.220377	-2.814383
  41	4.0000e-03	3.7240	38.039681	0.000424	4.240341	0.718333	-1.656590
  42	4.1000e-03	3.3411	34.631838	0.000872	8.722987	1.477714	-3.407843
  43	4.2000e-03	2.9287	31.333221	0.000844	8.443404	1.430351	-3.298617
  44	4.3000e-03	2.5423	27.969069	0.000861	8.611154	1.458769	-3.364153
  45	4.4000e-03	2.1481	24.648607	0.000850	8.499321	1.439824	-3.320462
  46	4.5000e-03	1.7440	22.307535	0.000599	5.992394	1.015139	-2.341071
  47	4.6000e-03	1.3367	18.502839	0.000974	9.738805	1.649798	-3.804696
  48	4.7000e-03	0.9483	14.887467	0.000925	9.254195	1.567703	-3.615372
  49	4.8000e-03	0.5453	11.246609	0.000932	9.319431	1.578754	-3.640858
  50	4.9000e-03	0.1534	7.700414	0.000908	9.077126	1.537707	-3.546195
  51	5.0000e-03	-0.2577	4.711270	0.000765	7.651253	1.296157	-2.989144
  52	5.1000e-03	-0.6459	0.757298	0.001012	10.120902	1.714527	-3.953971
  53	5.2000e-03	-1.0519	-2.938172	0.000946	9.459222	1.602436	-3.695471
  54	5.3000e-03	-1.4591	-6.513494	0.000915	9.151681	1.550337	-3.575322
  55	5.4000e-03	-1.8468	-10.161634	0.000934	9.338070	1.581912	-3.648139
  56	5.5000e-03	-2.2531	-13.361948	0.000819	8.191780	1.387725	-3.200314
  57	5.6000e-03	-2.6578	-17.042855	0.000942	9.421945	1.596121	-3.680907
  58	5.7000e-03	-3.0484	-20.592691	0.000909	9.086445	1.539285	-3.549836
  59	5.8000e-03	-3.4567	-23.953203	0.000860	8.601835	1.457190	-3.360512
  60	5.9000e-03	-3.8575	-27.233616	0.000840	8.396807	1.422458	-3.280413
  61	6.0000e-03	-4.2520	-30.452134	0.000824	8.238377	1.395619	-3.218518
  62	6.1000e-03	-4.6584	-33.667011	0.000823	8.229057	1.394040	-3.214877
  63	6.2000e-03	-5.0593	-36.834557	0.000811	8.107905	1.373516	-3.167546
  64	6.3000e-03	-5.4536	-39.987540	0.000807	8.070627	1.367201	-3.152983
  65	6.4000e-03	-5.8637	-43.082269	0.000792	7.921516	1.341941	-3.094729
  66	6.5000e-03	-6.2598	-46.271660	0.000816	8.163821	1.382989	-3.189391
  67	6.6000e-03	-6.6566	-49.206192	0.000751	7.511461	1.272476	-2.934531
  68	6.7000e-03	-7.0564	-52.060624	0.000731	7.306434	1.237743	-2.854432
  69	6.8000e-03	-7.4641	-54.984233	0.000748	7.483503	1.267740	-2.923609
  70	6.9000e-03	-7.8535	-57.813179	0.000724	7.241198	1.226692	-2.828946
  71	7.0000e-03	-8.2600	-60.900627	0.000790	7.902877	1.338784	-3.087447
  72	7.1000e-03	-8.6512	-63.540249	0.000676	6.756587	1.144597	-2.639622
  73	7.2000e-03	-9.0626	-66.205356	0.000682	6.821823	1.155648	-2.665108
  74	7.3000e-03	-9.4489	-68.932359	0.000698	6.980254	1.182487	-2.727002
  75	7.4000e-03	-9.8487	-71.615671	0.000687	6.868420	1.163542	-2.683312
  76	7.5000e-03	-9.6894	-74.648505	-0.000776	-7.763086	-1.315102	-3.032834
  77	7.6000e-03	-9.3232	-73.483431	0.000298	2.982218	0.505201	1.165074
  78	7.7000e-03	-8.9869	-69.405670	0.001044	10.437762	1.768205	4.077761
  79	7.8000e-03	-8.5316	-66.391040	0.000772	7.716489	1.307209	3.014630
  80	7.9000e-03	-8.0770	-65.550002	0.000215	2.152789	0.364692	0.841038
  81	8.0000e-03	-7.6972	-65.320628	0.000059	0.587124	0.099462	0.229374
  82	8.1000e-03	-7.3383	-62.826640	0.000638	6.383810	1.081447	2.493988
  83	8.2000e-03	-6.9440	-59.793806	0.000776	7.763086	1.315102	3.032834
  84	8.3000e-03	-6.5241	-57.383558	0.000617	6.169463	1.045135	2.410248
  85	8.4000e-03	-6.1098	-55.581334	0.000461	4.613118	0.781483	1.802225
  86	8.5000e-03	-5.7235	-54.332519	0.000320	3.196565	0.541513	1.248814
  87	8.6000e-03	-5.3329	-51.598235	0.000700	6.998893	1.185644	2.734284
  88	8.7000e-03	-4.9288	-48.853029	0.000703	7.026851	1.190381	2.745207
  89	8.8000e-03	-4.5307	-46.140590	0.000694	6.942976	1.176172	2.712439
  90	8.9000e-03	-4.1285	-43.733983	0.000616	6.160144	1.043557	2.406607
  91	9.0000e-03	-3.7190	-41.906272	0.000468	4.678354	0.792535	1.827711
  92	9.1000e-03	-3.3395	-38.833388	0.000787	7.865600	1.332469	3.072884
  93	9.2000e-03	-2.9292	-36.004442	0.000724	7.241198	1.226692	2.828946
  94	9.3000e-03	-2.5363	-33.048065	0.000757	7.567378	1.281949	2.956376
  95	9.4000e-03	-2.1347	-30.117175	0.000750	7.502142	1.270897	2.930890
  96	9.5000e-03	-1.7337	-27.878047	0.000573	5.731450	0.970934	2.239127
  97	9.6000e-03	-1.3324	-24.459282	0.000875	8.750945	1.482450	3.418765
  98	9.7000e-03	-0.9460	-21.229841	0.000827	8.266335	1.400355	3.229441
  99	9.8000e-03	-0.5373	-17.985837	0.000830	8.303613	1.406670	3.244004
 100	9.9000e-03	-0.1379	-14.774601	0.000822	8.219738	1.392461	3.211236
 101	1.0000e-02	-0.0571	-12.134979	0.000822	8.219738	1.392461	2.639622

PMax (uC/cm2):	7.15e+01
Pr (uC/cm2):	6.71e+00
-Pr (uC/cm2):	-1.20e+01
PLoss (uC/cm2):	-1.21e+01
-Vc:	-7.43e-01
C (Max-Eff) (nF):	7.24e-01
K (Eff):	1.23e+03
Vert. (+/-Pr) Shift (uC/cm2):	-2.65e+00
Offset (uC/cm2):	1.27e-01

A (Loop Area - uC/cm2·Volts):	-3.39e+00



Hysteresis Version: 5.48.1 - Radiant Technologies, Inc., 1999 - 9/12/24

