»»»»»»»»»»»»»»»»»»»»»»»»»»»»»»»»»»»» Hysteresis ««««««««««««««««««««««««««««««««««««
»»»  Executed Version:	5.48.1
»»»  Vision Version:	5.48.4 (R)
»»»  Vision Compiled:	9/18/24
»»»  Driver Version:	5.47.0
»»»  Windows Version:	Windows 8 or 8.1
»»»  Processor Information:	x86 (AMD or Intel) - 32 Processors
»»»  Tester Name:	PMF21124-494 (100V)
»»»  Tester S/N:	PMF21124-494
»»»  Internal Amp Type:	100V RevK 270k
»»»  Internal Amp S/N:	iAB2-596/K     
»»»  Execution Count:	1
»»»»»»»»»»»»»»»»»»»»»»»»»»»»»»»»»»»»»»»»»»««««««««««««««««««««««««««««««««««««««««««

Stored:	7/2/2025 - 14:52:38
Configured:	07/02/25 01:35:59 PM
Executed:	07/02/25 02:52:17 PM

»»»»»»»»»»»»»»»»»»»»»»»»»»»»»»»»»»» Sample Info ««««««««««««««««««««««««««««««««««««
Sample Name:	
Lot Name:	
Wafer Name:	
Die Row/Column:	0/0
Capacitor Number:	0
Sample Area (cm2):	1.00e-04
Sample Thickness (microns):	1.50e-01

Amplifier:	Internal

»»»»»»»»»»»»»»»»»»»»»»»»»»»»»»»»»»» Tester Info «««««««««««««««««««««««««««««««««««
Tester Name:	PMF21124-494 (100V)
Tester Serial Number:	PMF21124-494
Return Signal Amp. Level:	1.79 [Index: 2]

»»»»»»»»»»»»»»»»»»»»»»»»»»»»»»»» Hysteresis Info ««««««««««««««««««««««««««««««««««
Task Name:	Hyst-220
Volts:	10.00
Field:	666.67 (kV/cm)
DCBias:	0.00
DCField:	0.00 (kV/cm)
Hysteresis Period (ms):	1.00e+00
Preset:	Enabled
Preset Delay (ms):	1.00e+03
Profile:	Standard Bipolar

»»»»»»»»»»»»»»»»»»»»»»»»»»»»»»»»»»»»»» Data «««««««««««««««««««««««««««««««««««««««
Points:	2001

Valid Data

Point	Time (ms)	Drive Voltage	Measured Polarization (uC/cm2)	Capacitance (uF)	Normalized Capacitance (uF/cm2)	Dielectric Constant	Instantaneous Current (mA)
   1	0.0000e+00	-0.0056	3.120382	0.000727	7.270268	1.231617	0.029079
   2	5.0000e-04	0.0163	3.265774	0.000727	7.270268	1.231617	0.029079
   3	1.0000e-03	0.0362	3.360279	0.000473	4.725674	0.800551	0.018901
   4	1.5000e-03	0.0569	3.465048	0.000524	5.238869	0.887488	0.020954
   5	2.0000e-03	0.0744	3.547579	0.000413	4.126946	0.699124	0.016506
   6	2.5000e-03	0.0969	3.658762	0.000556	5.559616	0.941825	0.022237
   7	3.0000e-03	0.1160	3.749418	0.000453	4.533226	0.767949	0.018131
   8	3.5000e-03	0.1369	3.865732	0.000582	5.816214	0.985293	0.023263
   9	4.0000e-03	0.1543	3.943560	0.000389	3.891731	0.659277	0.015566
  10	4.5000e-03	0.1756	4.062868	0.000597	5.965896	1.010650	0.023861
  11	5.0000e-03	0.2009	4.175333	0.000562	5.623766	0.952692	0.022493
  12	5.5000e-03	0.2193	4.249312	0.000370	3.699283	0.626676	0.014796
  13	6.0000e-03	0.2367	4.352798	0.000517	5.174720	0.876621	0.020697
  14	6.5000e-03	0.2574	4.466974	0.000571	5.709298	0.967181	0.022835
  15	7.0000e-03	0.2768	4.570459	0.000517	5.174720	0.876621	0.020697
  16	7.5000e-03	0.2952	4.664109	0.000468	4.682908	0.793306	0.018730
  17	8.0000e-03	0.3178	4.769305	0.000526	5.260252	0.891111	0.021039
  18	8.5000e-03	0.3338	4.859106	0.000449	4.490459	0.760704	0.017960
  19	9.0000e-03	0.3590	4.977558	0.000592	5.923130	1.003405	0.023690
  20	9.5000e-03	0.3763	5.085320	0.000539	5.388551	0.912845	0.021552
  21	1.0000e-02	0.3951	5.166569	0.000406	4.062797	0.688256	0.016250
  22	1.0500e-02	0.4185	5.262784	0.000481	4.811206	0.815040	0.019243
  23	1.1000e-02	0.4390	5.394493	0.000659	6.586007	1.115700	0.026342
  24	1.1500e-02	0.4556	5.484294	0.000449	4.490459	0.760704	0.017960
  25	1.2000e-02	0.4765	5.586069	0.000509	5.089187	0.862132	0.020355
  26	1.2500e-02	0.4971	5.688271	0.000511	5.110570	0.865754	0.020440
  27	1.3000e-02	0.5144	5.779356	0.000455	4.554609	0.771572	0.018217
  28	1.3500e-02	0.5363	5.890538	0.000556	5.559616	0.941825	0.022237
  29	1.4000e-02	0.5563	6.001721	0.000556	5.559616	0.941825	0.022237
  30	1.4500e-02	0.5742	6.100502	0.000494	4.939505	0.836775	0.019756
  31	1.5000e-02	0.5966	6.198856	0.000492	4.918122	0.833152	0.019671
  32	1.5500e-02	0.6165	6.303624	0.000524	5.238869	0.887488	0.020954
  33	1.6000e-02	0.6384	6.387866	0.000421	4.212479	0.713613	0.016848
  34	1.6500e-02	0.6558	6.485793	0.000490	4.896739	0.829530	0.019585
  35	1.7000e-02	0.6783	6.594409	0.000543	5.431318	0.920090	0.021723
  36	1.7500e-02	0.6991	6.691908	0.000488	4.875356	0.825908	0.019500
  37	1.8000e-02	0.7188	6.818057	0.000631	6.308026	1.068609	0.025230
  38	1.8500e-02	0.7382	6.912990	0.000475	4.747057	0.804173	0.018987
  39	1.9000e-02	0.7577	6.998943	0.000430	4.298011	0.728103	0.017191
  40	1.9500e-02	0.7753	7.125092	0.000631	6.308026	1.068609	0.025230
  41	2.0000e-02	0.7990	7.240979	0.000579	5.794831	0.981671	0.023177
  42	2.0500e-02	0.8154	7.332063	0.000455	4.554609	0.771572	0.018217
  43	2.1000e-02	0.8408	7.444956	0.000565	5.645149	0.956314	0.022579
  44	2.1500e-02	0.8563	7.540744	0.000479	4.789823	0.811418	0.019158
  45	2.2000e-02	0.8755	7.648933	0.000541	5.409934	0.916468	0.021638
  46	2.2500e-02	0.8969	7.766103	0.000586	5.858980	0.992538	0.023434
  47	2.3000e-02	0.9167	7.833667	0.000338	3.378536	0.572340	0.013513
  48	2.3500e-02	0.9370	7.956396	0.000614	6.136961	1.039629	0.024546
  49	2.4000e-02	0.9570	8.062019	0.000528	5.281636	0.894733	0.021125
  50	2.4500e-02	0.9773	8.152676	0.000453	4.533226	0.767949	0.018131
  51	2.5000e-02	0.9972	8.261293	0.000543	5.431318	0.920090	0.021723
  52	2.5500e-02	1.0156	8.373758	0.000562	5.623766	0.952692	0.022493
  53	2.6000e-02	1.0345	8.478954	0.000526	5.260252	0.891111	0.021039
  54	2.6500e-02	1.0559	8.590564	0.000558	5.581000	0.945447	0.022322
  55	2.7000e-02	1.0731	8.703885	0.000567	5.666532	0.959937	0.022664
  56	2.7500e-02	1.0974	8.787699	0.000419	4.191095	0.709991	0.016763
  57	2.8000e-02	1.1174	8.895889	0.000541	5.409934	0.916468	0.021638
  58	2.8500e-02	1.1373	8.995098	0.000496	4.960888	0.840397	0.019842
  59	2.9000e-02	1.1588	9.116116	0.000605	6.051429	1.025140	0.024204
  60	2.9500e-02	1.1740	9.220456	0.000522	5.217486	0.883866	0.020868
  61	3.0000e-02	1.1987	9.310257	0.000449	4.490459	0.760704	0.017960
  62	3.0500e-02	1.2186	9.413315	0.000515	5.153337	0.872999	0.020612
  63	3.1000e-02	1.2365	9.535616	0.000612	6.115578	1.036007	0.024460
  64	3.1500e-02	1.2552	9.632687	0.000485	4.853973	0.822285	0.019414
  65	3.2000e-02	1.2766	9.736172	0.000517	5.174720	0.876621	0.020697
  66	3.2500e-02	1.2967	9.832388	0.000481	4.811206	0.815040	0.019243
  67	3.3000e-02	1.3187	9.953406	0.000605	6.051429	1.025140	0.024204
  68	3.3500e-02	1.3328	10.031234	0.000389	3.891731	0.659277	0.015566
  69	3.4000e-02	1.3602	10.127877	0.000483	4.832590	0.818663	0.019329
  70	3.4500e-02	1.3763	10.257875	0.000650	6.500475	1.101210	0.026000
  71	3.5000e-02	1.3985	10.378038	0.000601	6.008662	1.017895	0.024033
  72	3.5500e-02	1.4146	10.483234	0.000526	5.260252	0.891111	0.021039
  73	3.6000e-02	1.4359	10.587147	0.000520	5.196103	0.880244	0.020783
  74	3.6500e-02	1.4550	10.682507	0.000477	4.768440	0.807796	0.019072
  75	3.7000e-02	1.4750	10.790696	0.000541	5.409934	0.916468	0.021638
  76	3.7500e-02	1.4964	10.922405	0.000659	6.586007	1.115700	0.026342
  77	3.8000e-02	1.5166	11.024607	0.000511	5.110570	0.865754	0.020440
  78	3.8500e-02	1.5401	11.114836	0.000451	4.511843	0.764327	0.018046
  79	3.9000e-02	1.5552	11.228157	0.000567	5.666532	0.959937	0.022664
  80	3.9500e-02	1.5778	11.349602	0.000607	6.072812	1.028762	0.024289
  81	4.0000e-02	1.5983	11.442397	0.000464	4.640141	0.786061	0.018559
  82	4.0500e-02	1.6169	11.563843	0.000607	6.072812	1.028762	0.024289
  83	4.1000e-02	1.6376	11.672032	0.000541	5.409934	0.916468	0.021638
  84	4.1500e-02	1.6550	11.760123	0.000440	4.404927	0.746215	0.017618
  85	4.2000e-02	1.6782	11.905943	0.000729	7.291651	1.235239	0.029164
  86	4.2500e-02	1.6978	11.979494	0.000368	3.677900	0.623053	0.014710
  87	4.3000e-02	1.7191	12.094526	0.000575	5.752065	0.974426	0.023006
  88	4.3500e-02	1.7377	12.193735	0.000496	4.960888	0.840397	0.019842
  89	4.4000e-02	1.7572	12.338700	0.000725	7.248884	1.227994	0.028993
  90	4.4500e-02	1.7761	12.427218	0.000443	4.426310	0.749837	0.017704
  91	4.5000e-02	1.7953	12.525572	0.000492	4.918122	0.833152	0.019671
  92	4.5500e-02	1.8196	12.629485	0.000520	5.196103	0.880244	0.020783
  93	4.6000e-02	1.8357	12.753496	0.000620	6.201111	1.050497	0.024802
  94	4.6500e-02	1.8555	12.849712	0.000481	4.811206	0.815040	0.019243
  95	4.7000e-02	1.8779	12.980993	0.000656	6.564624	1.112077	0.026256
  96	4.7500e-02	1.8997	13.056255	0.000376	3.763433	0.637543	0.015052
  97	4.8000e-02	1.9171	13.183260	0.000635	6.350793	1.075853	0.025401
  98	4.8500e-02	1.9364	13.303422	0.000601	6.008662	1.017895	0.024033
  99	4.9000e-02	1.9556	13.407763	0.000522	5.217486	0.883866	0.020868
 100	4.9500e-02	1.9778	13.523222	0.000577	5.773448	0.978049	0.023092
 101	5.0000e-02	1.9960	13.607891	0.000423	4.233862	0.717236	0.016934
 102	5.0500e-02	2.0154	13.728482	0.000603	6.030045	1.021517	0.024118
 103	5.1000e-02	2.0362	13.822559	0.000470	4.704291	0.796928	0.018816
 104	5.1500e-02	2.0568	13.967524	0.000725	7.248884	1.227994	0.028993
 105	5.2000e-02	2.0776	14.060747	0.000466	4.661524	0.789684	0.018644
 106	5.2500e-02	2.0956	14.157818	0.000485	4.853973	0.822285	0.019414
 107	5.3000e-02	2.1166	14.272421	0.000573	5.730681	0.970804	0.022921
 108	5.3500e-02	2.1367	14.393867	0.000607	6.072812	1.028762	0.024289
 109	5.4000e-02	2.1527	14.496069	0.000511	5.110570	0.865754	0.020440
 110	5.4500e-02	2.1788	14.620936	0.000624	6.243877	1.057741	0.024973
 111	5.5000e-02	2.1986	14.719290	0.000492	4.918122	0.833152	0.019671
 112	5.5500e-02	2.2209	14.838597	0.000597	5.965896	1.010650	0.023861
 113	5.6000e-02	2.2375	14.933102	0.000473	4.725674	0.800551	0.018901
 114	5.6500e-02	2.2574	15.056686	0.000618	6.179727	1.046874	0.024717
 115	5.7000e-02	2.2769	15.155895	0.000496	4.960888	0.840397	0.019842
 116	5.7500e-02	2.2981	15.264939	0.000545	5.452701	0.923712	0.021809
 117	5.8000e-02	2.3180	15.388523	0.000618	6.179727	1.046874	0.024717
 118	5.8500e-02	2.3371	15.485594	0.000485	4.853973	0.822285	0.019414
 119	5.9000e-02	2.3573	15.611744	0.000631	6.308026	1.068609	0.025230
 120	5.9500e-02	2.3769	15.703683	0.000460	4.597375	0.778816	0.018388
 121	6.0000e-02	2.3969	15.816576	0.000565	5.645149	0.956314	0.022579
 122	6.0500e-02	2.4164	15.944864	0.000641	6.414942	1.086721	0.025658
 123	6.1000e-02	2.4389	16.029106	0.000421	4.212479	0.713613	0.016848
 124	6.1500e-02	2.4576	16.161242	0.000661	6.607390	1.119322	0.026427
 125	6.2000e-02	2.4794	16.270286	0.000545	5.452701	0.923712	0.021809
 126	6.2500e-02	2.4954	16.371206	0.000505	5.046421	0.854887	0.020184
 127	6.3000e-02	2.5171	16.490941	0.000599	5.987279	1.014273	0.023947
 128	6.3500e-02	2.5386	16.587584	0.000483	4.832590	0.818663	0.019329
 129	6.4000e-02	2.5580	16.691070	0.000517	5.174720	0.876621	0.020697
 130	6.4500e-02	2.5764	16.821068	0.000650	6.500475	1.101210	0.026000
 131	6.5000e-02	2.5989	16.918566	0.000488	4.875356	0.825908	0.019500
 132	6.5500e-02	2.6184	17.041295	0.000614	6.136961	1.039629	0.024546
 133	6.6000e-02	2.6357	17.135800	0.000473	4.725674	0.800551	0.018901
 134	6.6500e-02	2.6588	17.265370	0.000648	6.479091	1.097588	0.025914
 135	6.7000e-02	2.6779	17.369711	0.000522	5.217486	0.883866	0.020868
 136	6.7500e-02	2.6984	17.500564	0.000654	6.543241	1.108455	0.026171
 137	6.8000e-02	2.7182	17.570267	0.000349	3.485452	0.590452	0.013941
 138	6.8500e-02	2.7374	17.684871	0.000573	5.730681	0.970804	0.022921
 139	6.9000e-02	2.7570	17.814869	0.000650	6.500475	1.101210	0.026000
 140	6.9500e-02	2.7740	17.924341	0.000547	5.474084	0.927335	0.021894
 141	7.0000e-02	2.7964	18.017563	0.000466	4.661524	0.789684	0.018644
 142	7.0500e-02	2.8182	18.141575	0.000620	6.201111	1.050497	0.024802
 143	7.1000e-02	2.8357	18.252757	0.000556	5.559616	0.941825	0.022237
 144	7.1500e-02	2.8561	18.372492	0.000599	5.987279	1.014273	0.023947
 145	7.2000e-02	2.8790	18.463149	0.000453	4.533226	0.767949	0.018131
 146	7.2500e-02	2.8983	18.585877	0.000614	6.136961	1.039629	0.024546
 147	7.3000e-02	2.9192	18.693639	0.000539	5.388551	0.912845	0.021552
 148	7.3500e-02	2.9362	18.803111	0.000547	5.474084	0.927335	0.021894
 149	7.4000e-02	2.9572	18.918570	0.000577	5.773448	0.978049	0.023092
 150	7.4500e-02	2.9770	19.035311	0.000584	5.837597	0.988916	0.023348
 151	7.5000e-02	2.9990	19.140080	0.000524	5.238869	0.887488	0.020954
 152	7.5500e-02	3.0180	19.258532	0.000592	5.923130	1.003405	0.023690
 153	7.6000e-02	3.0374	19.350471	0.000460	4.597375	0.778816	0.018388
 154	7.6500e-02	3.0563	19.465075	0.000573	5.730681	0.970804	0.022921
 155	7.7000e-02	3.0793	19.571554	0.000532	5.324402	0.901978	0.021296
 156	7.7500e-02	3.0978	19.677177	0.000528	5.281636	0.894733	0.021125
 157	7.8000e-02	3.1201	19.796484	0.000597	5.965896	1.010650	0.023861
 158	7.8500e-02	3.1361	19.924344	0.000639	6.393559	1.083098	0.025572
 159	7.9000e-02	3.1573	20.048783	0.000622	6.222494	1.054119	0.024888
 160	7.9500e-02	3.1775	20.129177	0.000402	4.020030	0.681012	0.016079
 161	8.0000e-02	3.1982	20.249340	0.000601	6.008662	1.017895	0.024033
 162	8.0500e-02	3.2181	20.348121	0.000494	4.939505	0.836775	0.019756
 163	8.1000e-02	3.2373	20.446475	0.000492	4.918122	0.833152	0.019671
 164	8.1500e-02	3.2579	20.573907	0.000637	6.372176	1.079476	0.025486
 165	8.2000e-02	3.2764	20.687228	0.000567	5.666532	0.959937	0.022664
 166	8.2500e-02	3.2983	20.772325	0.000426	4.255245	0.720858	0.017019
 167	8.3000e-02	3.3167	20.904889	0.000663	6.628773	1.122945	0.026513
 168	8.3500e-02	3.3372	21.011795	0.000535	5.345785	0.905600	0.021381
 169	8.4000e-02	3.3565	21.123833	0.000560	5.602383	0.949069	0.022408
 170	8.4500e-02	3.3804	21.215345	0.000458	4.575992	0.775194	0.018302
 171	8.5000e-02	3.3992	21.344060	0.000644	6.436325	1.090343	0.025743
 172	8.5500e-02	3.4183	21.427447	0.000417	4.169712	0.706368	0.016677
 173	8.6000e-02	3.4372	21.541196	0.000569	5.687915	0.963559	0.022750
 174	8.6500e-02	3.4564	21.683595	0.000712	7.120586	1.206260	0.028480
 175	8.7000e-02	3.4782	21.759712	0.000381	3.806199	0.644788	0.015223
 176	8.7500e-02	3.4985	21.901256	0.000708	7.077819	1.199015	0.028309
 177	8.8000e-02	3.5176	21.994051	0.000464	4.640141	0.786061	0.018559
 178	8.8500e-02	3.5364	22.097536	0.000517	5.174720	0.876621	0.020697
 179	8.9000e-02	3.5590	22.219837	0.000612	6.115578	1.036007	0.024460
 180	8.9500e-02	3.5788	22.334013	0.000571	5.709298	0.967181	0.022835
 181	9.0000e-02	3.5986	22.417400	0.000417	4.169712	0.706368	0.016677
 182	9.0500e-02	3.6188	22.557661	0.000701	7.013670	1.188148	0.028052
 183	9.1000e-02	3.6372	22.658153	0.000503	5.025038	0.851264	0.020098
 184	9.1500e-02	3.6591	22.741540	0.000417	4.169712	0.706368	0.016677
 185	9.2000e-02	3.6752	22.869400	0.000639	6.393559	1.083098	0.025572
 186	9.2500e-02	3.6990	22.973740	0.000522	5.217486	0.883866	0.020868
 187	9.3000e-02	3.7201	23.077226	0.000517	5.174720	0.876621	0.020697
 188	9.3500e-02	3.7378	23.172586	0.000477	4.768440	0.807796	0.019072
 189	9.4000e-02	3.7570	23.294459	0.000609	6.094195	1.032385	0.024375
 190	9.4500e-02	3.7769	23.413339	0.000594	5.944513	1.007028	0.023776
 191	9.5000e-02	3.7992	23.488173	0.000374	3.742049	0.633920	0.014967
 192	9.5500e-02	3.8182	23.594225	0.000530	5.303019	0.898356	0.021210
 193	9.6000e-02	3.8373	23.712677	0.000592	5.923130	1.003405	0.023690
 194	9.6500e-02	3.8594	23.842247	0.000648	6.479091	1.097588	0.025914
 195	9.7000e-02	3.8742	23.935042	0.000464	4.640141	0.786061	0.018559
 196	9.7500e-02	3.8977	24.044942	0.000550	5.495467	0.930957	0.021980
 197	9.8000e-02	3.9188	24.147144	0.000511	5.110570	0.865754	0.020440
 198	9.8500e-02	3.9362	24.227110	0.000400	3.998647	0.677389	0.015993
 199	9.9000e-02	3.9575	24.362240	0.000676	6.757072	1.144679	0.027026
 200	9.9500e-02	3.9771	24.454607	0.000462	4.618758	0.782439	0.018473
 201	1.0000e-01	3.9986	24.576480	0.000609	6.094195	1.032385	0.024375
 202	1.0050e-01	4.0198	24.663715	0.000436	4.362161	0.738970	0.017447
 203	1.0100e-01	4.0381	24.774470	0.000554	5.538233	0.938202	0.022151
 204	1.0150e-01	4.0569	24.871114	0.000483	4.832590	0.818663	0.019329
 205	1.0200e-01	4.0784	24.999829	0.000644	6.436325	1.090343	0.025743
 206	1.0250e-01	4.0973	25.100321	0.000503	5.025038	0.851264	0.020098
 207	1.0300e-01	4.1165	25.194826	0.000473	4.725674	0.800551	0.018901
 208	1.0350e-01	4.1357	25.299166	0.000522	5.217486	0.883866	0.020868
 209	1.0400e-01	4.1589	25.404790	0.000528	5.281636	0.894733	0.021125
 210	1.0450e-01	4.1815	25.523670	0.000594	5.944513	1.007028	0.023776
 211	1.0500e-01	4.1975	25.607912	0.000421	4.212479	0.713613	0.016848
 212	1.0550e-01	4.2200	25.723371	0.000577	5.773448	0.978049	0.023092
 213	1.0600e-01	4.2377	25.831560	0.000541	5.409934	0.916468	0.021638
 214	1.0650e-01	4.2578	25.944453	0.000565	5.645149	0.956314	0.022579
 215	1.0700e-01	4.2769	26.050504	0.000530	5.303019	0.898356	0.021210
 216	1.0750e-01	4.2975	26.158266	0.000539	5.388551	0.912845	0.021552
 217	1.0800e-01	4.3173	26.251060	0.000464	4.640141	0.786061	0.018559
 218	1.0850e-01	4.3384	26.369513	0.000592	5.923130	1.003405	0.023690
 219	1.0900e-01	4.3570	26.463590	0.000470	4.704291	0.796928	0.018816
 220	1.0950e-01	4.3781	26.567931	0.000522	5.217486	0.883866	0.020868
 221	1.1000e-01	4.3974	26.670561	0.000513	5.131954	0.869376	0.020526
 222	1.1050e-01	4.4196	26.777467	0.000535	5.345785	0.905600	0.021381
 223	1.1100e-01	4.4360	26.881808	0.000522	5.217486	0.883866	0.020868
 224	1.1150e-01	4.4580	27.007529	0.000629	6.286643	1.064986	0.025144
 225	1.1200e-01	4.4781	27.096903	0.000447	4.469076	0.757082	0.017875
 226	1.1250e-01	4.4971	27.209796	0.000565	5.645149	0.956314	0.022579
 227	1.1300e-01	4.5184	27.298742	0.000445	4.447693	0.753460	0.017789
 228	1.1350e-01	4.5370	27.399234	0.000503	5.025038	0.851264	0.020098
 229	1.1400e-01	4.5590	27.502292	0.000515	5.153337	0.872999	0.020612
 230	1.1450e-01	4.5758	27.598935	0.000483	4.832590	0.818663	0.019329
 231	1.1500e-01	4.5955	27.698144	0.000496	4.960888	0.840397	0.019842
 232	1.1550e-01	4.6167	27.802485	0.000522	5.217486	0.883866	0.020868
 233	1.1600e-01	4.6405	27.937187	0.000674	6.735689	1.141057	0.026940
 234	1.1650e-01	4.6570	28.006890	0.000349	3.485452	0.590452	0.013941
 235	1.1700e-01	4.6771	28.111230	0.000522	5.217486	0.883866	0.020868
 236	1.1750e-01	4.6979	28.230110	0.000594	5.944513	1.007028	0.023776
 237	1.1800e-01	4.7205	28.342148	0.000560	5.602383	0.949069	0.022408
 238	1.1850e-01	4.7382	28.425963	0.000419	4.191095	0.709991	0.016763
 239	1.1900e-01	4.7571	28.538000	0.000560	5.602383	0.949069	0.022408
 240	1.1950e-01	4.7797	28.620532	0.000413	4.126946	0.699124	0.016506
 241	1.2000e-01	4.7952	28.712899	0.000462	4.618758	0.782439	0.018473
 242	1.2050e-01	4.8181	28.830068	0.000586	5.858980	0.992538	0.023434
 243	1.2100e-01	4.8383	28.928422	0.000492	4.918122	0.833152	0.019671
 244	1.2150e-01	4.8596	29.028059	0.000498	4.982272	0.844020	0.019927
 245	1.2200e-01	4.8767	29.131544	0.000517	5.174720	0.876621	0.020697
 246	1.2250e-01	4.8950	29.230753	0.000496	4.960888	0.840397	0.019842
 247	1.2300e-01	4.9176	29.306871	0.000381	3.806199	0.644788	0.015223
 248	1.2350e-01	4.9379	29.429171	0.000612	6.115578	1.036007	0.024460
 249	1.2400e-01	4.9585	29.513414	0.000421	4.212479	0.713613	0.016848
 250	1.2450e-01	4.9814	29.628017	0.000573	5.730681	0.970804	0.022921
 251	1.2500e-01	4.9982	29.746042	0.000590	5.901747	0.999783	0.023605
 252	1.2550e-01	5.0189	29.826863	0.000404	4.041413	0.684634	0.016164
 253	1.2600e-01	5.0363	29.922651	0.000479	4.789823	0.811418	0.019158
 254	1.2650e-01	5.0586	30.025709	0.000515	5.153337	0.872999	0.020612
 255	1.2700e-01	5.0771	30.115938	0.000451	4.511843	0.764327	0.018046
 256	1.2750e-01	5.0964	30.216430	0.000503	5.025038	0.851264	0.020098
 257	1.2800e-01	5.1190	30.316494	0.000500	5.003655	0.847642	0.020013
 258	1.2850e-01	5.1379	30.410144	0.000468	4.682908	0.793306	0.018730
 259	1.2900e-01	5.1569	30.510208	0.000500	5.003655	0.847642	0.020013
 260	1.2950e-01	5.1785	30.611983	0.000509	5.089187	0.862132	0.020355
 261	1.3000e-01	5.1987	30.721027	0.000545	5.452701	0.923712	0.021809
 262	1.3050e-01	5.2216	30.808691	0.000438	4.383544	0.742592	0.017533
