»»»»»»»»»»»»»»»»»»»»»»»»»»»»»»»»»»»» Hysteresis ««««««««««««««««««««««««««««««««««««
»»»  Executed Version:	5.48.1
»»»  Vision Version:	5.48.4 (R)
»»»  Vision Compiled:	9/18/24
»»»  Driver Version:	5.47.0
»»»  Windows Version:	Windows 8 or 8.1
»»»  Processor Information:	x86 (AMD or Intel) - 32 Processors
»»»  Tester Name:	PMF21124-494 (100V)
»»»  Tester S/N:	PMF21124-494
»»»  Internal Amp Type:	100V RevK 270k
»»»  Internal Amp S/N:	iAB2-596/K     
»»»  Execution Count:	1
»»»»»»»»»»»»»»»»»»»»»»»»»»»»»»»»»»»»»»»»»»««««««««««««««««««««««««««««««««««««««««««

Stored:	7/2/2025 - 14:49:25
Configured:	07/02/25 01:35:59 PM
Executed:	07/02/25 02:48:50 PM

»»»»»»»»»»»»»»»»»»»»»»»»»»»»»»»»»»» Sample Info ««««««««««««««««««««««««««««««««««««
Sample Name:	
Lot Name:	
Wafer Name:	
Die Row/Column:	0/0
Capacitor Number:	0
Sample Area (cm2):	1.00e-04
Sample Thickness (microns):	1.50e-01

Amplifier:	Internal

»»»»»»»»»»»»»»»»»»»»»»»»»»»»»»»»»»» Tester Info «««««««««««««««««««««««««««««««««««
Tester Name:	PMF21124-494 (100V)
Tester Serial Number:	PMF21124-494
Return Signal Amp. Level:	0.19 [Index: 3]

»»»»»»»»»»»»»»»»»»»»»»»»»»»»»»»» Hysteresis Info ««««««««««««««««««««««««««««««««««
Task Name:	Hyst-220
Volts:	10.00
Field:	666.67 (kV/cm)
DCBias:	0.00
DCField:	0.00 (kV/cm)
Hysteresis Period (ms):	2.00e+02
Preset:	Enabled
Preset Delay (ms):	1.00e+03
Profile:	Standard Bipolar

»»»»»»»»»»»»»»»»»»»»»»»»»»»»»»»»»»»»»» Data «««««««««««««««««««««««««««««««««««««««
Points:	2009

Valid Data

Point	Time (ms)	Drive Voltage	Measured Polarization (uC/cm2)	Capacitance (uF)	Normalized Capacitance (uF/cm2)	Dielectric Constant	Instantaneous Current (mA)
   1	0.0000e+00	0.0040	15.938612	0.000446	4.459633	0.755482	0.000089
   2	9.9500e-02	0.0201	16.027429	0.000446	4.459633	0.755482	0.000089
   3	1.9900e-01	0.0388	16.140469	0.000568	5.675897	0.961523	0.000114
   4	2.9850e-01	0.0601	16.205063	0.000324	3.243370	0.549442	0.000065
   5	3.9800e-01	0.0794	16.273694	0.000345	3.446080	0.583782	0.000069
   6	4.9750e-01	0.0986	16.406920	0.000669	6.689450	1.133224	0.000134
   7	5.9700e-01	0.1183	16.515922	0.000547	5.473186	0.927183	0.000110
   8	6.9650e-01	0.1392	16.657222	0.000709	7.094871	1.201904	0.000142
   9	7.9600e-01	0.1590	16.713742	0.000284	2.837949	0.480761	0.000057
  10	8.9550e-01	0.1781	16.822745	0.000547	5.473186	0.927183	0.000110
  11	9.9500e-01	0.1987	16.915599	0.000466	4.662344	0.789822	0.000093
  12	1.0945e+00	0.2189	17.028639	0.000568	5.675897	0.961523	0.000114
  13	1.1940e+00	0.2384	17.157827	0.000649	6.486740	1.098883	0.000130
  14	1.2935e+00	0.2588	17.214347	0.000284	2.837949	0.480761	0.000057
  15	1.3930e+00	0.2783	17.319312	0.000527	5.270476	0.892843	0.000105
  16	1.4925e+00	0.2985	17.444464	0.000628	6.284029	1.064543	0.000126
  17	1.5920e+00	0.3181	17.533281	0.000446	4.459633	0.755482	0.000089
  18	1.6915e+00	0.3377	17.618060	0.000426	4.256923	0.721142	0.000085
  19	1.7910e+00	0.3579	17.739174	0.000608	6.081318	1.030203	0.000122
  20	1.8905e+00	0.3780	17.836066	0.000487	4.865055	0.824163	0.000097
  21	1.9900e+00	0.3980	17.945068	0.000547	5.473186	0.927183	0.000110
  22	2.0895e+00	0.4169	18.058108	0.000568	5.675897	0.961523	0.000114
  23	2.1890e+00	0.4375	18.175185	0.000588	5.878608	0.995863	0.000118
  24	2.2885e+00	0.4575	18.255928	0.000405	4.054212	0.686802	0.000081
  25	2.3880e+00	0.4779	18.332633	0.000385	3.851502	0.652462	0.000077
  26	2.4875e+00	0.4974	18.486045	0.000770	7.703003	1.304924	0.000154
  27	2.5870e+00	0.5170	18.586973	0.000507	5.067765	0.858503	0.000101
  28	2.6865e+00	0.5370	18.728273	0.000709	7.094871	1.201904	0.000142
  29	2.7860e+00	0.5574	18.800941	0.000365	3.648791	0.618122	0.000073
  30	2.8855e+00	0.5780	18.893795	0.000466	4.662344	0.789822	0.000093
  31	2.9850e+00	0.5978	19.047206	0.000770	7.703003	1.304924	0.000154
  32	3.0845e+00	0.6174	19.156209	0.000547	5.473186	0.927183	0.000110
  33	3.1840e+00	0.6380	19.249063	0.000466	4.662344	0.789822	0.000093
  34	3.2835e+00	0.6556	19.337880	0.000446	4.459633	0.755482	0.000089
  35	3.3830e+00	0.6769	19.446883	0.000547	5.473186	0.927183	0.000110
  36	3.4825e+00	0.6967	19.624517	0.000892	8.919267	1.510965	0.000179
  37	3.5820e+00	0.7166	19.697185	0.000365	3.648791	0.618122	0.000073
  38	3.6815e+00	0.7363	19.834448	0.000689	6.892161	1.167564	0.000138
  39	3.7810e+00	0.7576	19.951525	0.000588	5.878608	0.995863	0.000118
  40	3.8805e+00	0.7768	20.032268	0.000405	4.054212	0.686802	0.000081
  41	3.9800e+00	0.7964	20.121085	0.000446	4.459633	0.755482	0.000089
  42	4.0795e+00	0.8157	20.226050	0.000527	5.270476	0.892843	0.000105
  43	4.1790e+00	0.8356	20.407721	0.000912	9.121977	1.545305	0.000183
  44	4.2785e+00	0.8558	20.492501	0.000426	4.256923	0.721142	0.000085
  45	4.3780e+00	0.8764	20.569207	0.000385	3.851502	0.652462	0.000077
  46	4.4775e+00	0.8967	20.686284	0.000588	5.878608	0.995863	0.000118
  47	4.5770e+00	0.9147	20.823546	0.000689	6.892161	1.167564	0.000138
  48	4.6765e+00	0.9351	20.924475	0.000507	5.067765	0.858503	0.000101
  49	4.7760e+00	0.9565	21.053663	0.000649	6.486740	1.098883	0.000130
  50	4.8755e+00	0.9763	21.166703	0.000568	5.675897	0.961523	0.000114
  51	4.9750e+00	0.9959	21.259557	0.000466	4.662344	0.789822	0.000093
  52	5.0745e+00	1.0157	21.392782	0.000669	6.689450	1.133224	0.000134
  53	5.1740e+00	1.0354	21.497748	0.000527	5.270476	0.892843	0.000105
  54	5.2735e+00	1.0566	21.639048	0.000709	7.094871	1.201904	0.000142
  55	5.3730e+00	1.0753	21.739976	0.000507	5.067765	0.858503	0.000101
  56	5.4725e+00	1.0954	21.836867	0.000487	4.865055	0.824163	0.000097
  57	5.5720e+00	1.1150	21.929721	0.000466	4.662344	0.789822	0.000093
  58	5.6715e+00	1.1353	22.066984	0.000689	6.892161	1.167564	0.000138
  59	5.7710e+00	1.1555	22.163875	0.000487	4.865055	0.824163	0.000097
  60	5.8705e+00	1.1754	22.293064	0.000649	6.486740	1.098883	0.000130
  61	5.9700e+00	1.1948	22.438400	0.000730	7.297582	1.236244	0.000146
  62	6.0695e+00	1.2146	22.507032	0.000345	3.446080	0.583782	0.000069
  63	6.1690e+00	1.2351	22.648331	0.000709	7.094871	1.201904	0.000142
  64	6.2685e+00	1.2545	22.741186	0.000466	4.662344	0.789822	0.000093
  65	6.3680e+00	1.2746	22.878448	0.000689	6.892161	1.167564	0.000138
  66	6.4675e+00	1.2940	22.967265	0.000446	4.459633	0.755482	0.000089
  67	6.5670e+00	1.3136	23.124714	0.000791	7.905714	1.339264	0.000158
  68	6.6665e+00	1.3335	23.213530	0.000446	4.459633	0.755482	0.000089
  69	6.7660e+00	1.3537	23.306385	0.000466	4.662344	0.789822	0.000093
  70	6.8655e+00	1.3734	23.427499	0.000608	6.081318	1.030203	0.000122
  71	6.9650e+00	1.3940	23.568798	0.000709	7.094871	1.201904	0.000142
  72	7.0645e+00	1.4141	23.649541	0.000405	4.054212	0.686802	0.000081
  73	7.1640e+00	1.4333	23.778729	0.000649	6.486740	1.098883	0.000130
  74	7.2635e+00	1.4539	23.879658	0.000507	5.067765	0.858503	0.000101
  75	7.3630e+00	1.4719	24.000772	0.000608	6.081318	1.030203	0.000122
  76	7.4625e+00	1.4926	24.146109	0.000730	7.297582	1.236244	0.000146
  77	7.5620e+00	1.5128	24.255112	0.000547	5.473186	0.927183	0.000110
  78	7.6615e+00	1.5331	24.352003	0.000487	4.865055	0.824163	0.000097
  79	7.7610e+00	1.5527	24.469080	0.000588	5.878608	0.995863	0.000118
  80	7.8605e+00	1.5731	24.606342	0.000689	6.892161	1.167564	0.000138
  81	7.9600e+00	1.5934	24.707271	0.000507	5.067765	0.858503	0.000101
  82	8.0595e+00	1.6130	24.844533	0.000689	6.892161	1.167564	0.000138
  83	8.1590e+00	1.6328	24.961610	0.000588	5.878608	0.995863	0.000118
  84	8.2585e+00	1.6533	25.058502	0.000487	4.865055	0.824163	0.000097
  85	8.3580e+00	1.6728	25.183653	0.000628	6.284029	1.064543	0.000126
  86	8.4575e+00	1.6935	25.345138	0.000811	8.108424	1.373604	0.000162
  87	8.5570e+00	1.7123	25.401658	0.000284	2.837949	0.480761	0.000057
  88	8.6565e+00	1.7330	25.518735	0.000588	5.878608	0.995863	0.000118
  89	8.7560e+00	1.7526	25.672146	0.000770	7.703003	1.304924	0.000154
  90	8.8555e+00	1.7718	25.781149	0.000547	5.473186	0.927183	0.000110
  91	8.9550e+00	1.7919	25.886114	0.000527	5.270476	0.892843	0.000105
  92	9.0545e+00	1.8124	26.007228	0.000608	6.081318	1.030203	0.000122
  93	9.1540e+00	1.8316	26.116231	0.000547	5.473186	0.927183	0.000110
  94	9.2535e+00	1.8517	26.221197	0.000527	5.270476	0.892843	0.000105
  95	9.3530e+00	1.8715	26.326162	0.000527	5.270476	0.892843	0.000105
  96	9.4525e+00	1.8909	26.467462	0.000709	7.094871	1.201904	0.000142
  97	9.5520e+00	1.9117	26.556279	0.000446	4.459633	0.755482	0.000089
  98	9.6515e+00	1.9314	26.705653	0.000750	7.500293	1.270584	0.000150
  99	9.7510e+00	1.9524	26.818693	0.000568	5.675897	0.961523	0.000114
 100	9.8505e+00	1.9707	26.939807	0.000608	6.081318	1.030203	0.000122
 101	9.9500e+00	1.9913	27.048809	0.000547	5.473186	0.927183	0.000110
 102	1.0050e+01	2.0109	27.169924	0.000608	6.081318	1.030203	0.000122
 103	1.0149e+01	2.0322	27.270852	0.000507	5.067765	0.858503	0.000101
 104	1.0248e+01	2.0520	27.375817	0.000527	5.270476	0.892843	0.000105
 105	1.0348e+01	2.0717	27.492894	0.000588	5.878608	0.995863	0.000118
 106	1.0447e+01	2.0909	27.630157	0.000689	6.892161	1.167564	0.000138
 107	1.0547e+01	2.1110	27.731085	0.000507	5.067765	0.858503	0.000101
 108	1.0646e+01	2.1301	27.836051	0.000527	5.270476	0.892843	0.000105
 109	1.0746e+01	2.1509	27.932942	0.000487	4.865055	0.824163	0.000097
 110	1.0845e+01	2.1706	28.062131	0.000649	6.486740	1.098883	0.000130
 111	1.0945e+01	2.1914	28.211505	0.000750	7.500293	1.270584	0.000150
 112	1.1044e+01	2.2102	28.308396	0.000487	4.865055	0.824163	0.000097
 113	1.1144e+01	2.2321	28.441621	0.000669	6.689450	1.133224	0.000134
 114	1.1243e+01	2.2512	28.510253	0.000345	3.446080	0.583782	0.000069
 115	1.1343e+01	2.2707	28.631367	0.000608	6.081318	1.030203	0.000122
 116	1.1443e+01	2.2903	28.748444	0.000588	5.878608	0.995863	0.000118
 117	1.1542e+01	2.3110	28.853409	0.000527	5.270476	0.892843	0.000105
 118	1.1642e+01	2.3301	28.958375	0.000527	5.270476	0.892843	0.000105
 119	1.1741e+01	2.3502	29.071414	0.000568	5.675897	0.961523	0.000114
 120	1.1841e+01	2.3701	29.220788	0.000750	7.500293	1.270584	0.000150
 121	1.1940e+01	2.3898	29.325754	0.000527	5.270476	0.892843	0.000105
 122	1.2040e+01	2.4097	29.463017	0.000689	6.892161	1.167564	0.000138
 123	1.2139e+01	2.4302	29.576056	0.000568	5.675897	0.961523	0.000114
 124	1.2239e+01	2.4493	29.644688	0.000345	3.446080	0.583782	0.000069
 125	1.2338e+01	2.4697	29.749653	0.000527	5.270476	0.892843	0.000105
 126	1.2438e+01	2.4902	29.870767	0.000608	6.081318	1.030203	0.000122
 127	1.2537e+01	2.5099	29.939399	0.000345	3.446080	0.583782	0.000069
 128	1.2636e+01	2.5294	30.076661	0.000689	6.892161	1.167564	0.000138
 129	1.2736e+01	2.5494	30.209887	0.000669	6.689450	1.133224	0.000134
 130	1.2835e+01	2.5700	30.318889	0.000547	5.473186	0.927183	0.000110
 131	1.2935e+01	2.5887	30.472301	0.000770	7.703003	1.304924	0.000154
 132	1.3034e+01	2.6087	30.516709	0.000223	2.229817	0.377741	0.000045
 133	1.3134e+01	2.6290	30.649935	0.000669	6.689450	1.133224	0.000134
 134	1.3233e+01	2.6490	30.775086	0.000628	6.284029	1.064543	0.000126
 135	1.3333e+01	2.6684	30.896200	0.000608	6.081318	1.030203	0.000122
 136	1.3432e+01	2.6894	30.960794	0.000324	3.243370	0.549442	0.000065
 137	1.3532e+01	2.7090	31.098057	0.000689	6.892161	1.167564	0.000138
 138	1.3632e+01	2.7287	31.219171	0.000608	6.081318	1.030203	0.000122
 139	1.3731e+01	2.7480	31.295876	0.000385	3.851502	0.652462	0.000077
 140	1.3831e+01	2.7685	31.433139	0.000689	6.892161	1.167564	0.000138
 141	1.3930e+01	2.7883	31.562327	0.000649	6.486740	1.098883	0.000130
 142	1.4030e+01	2.8089	31.651144	0.000446	4.459633	0.755482	0.000089
 143	1.4129e+01	2.8277	31.780333	0.000649	6.486740	1.098883	0.000130
 144	1.4229e+01	2.8459	31.836852	0.000284	2.837949	0.480761	0.000057
 145	1.4328e+01	2.8675	31.986226	0.000750	7.500293	1.270584	0.000150
 146	1.4428e+01	2.8876	32.095229	0.000547	5.473186	0.927183	0.000110
 147	1.4527e+01	2.9078	32.204232	0.000547	5.473186	0.927183	0.000110
 148	1.4627e+01	2.9276	32.280937	0.000385	3.851502	0.652462	0.000077
 149	1.4726e+01	2.9481	32.418200	0.000689	6.892161	1.167564	0.000138
 150	1.4825e+01	2.9678	32.543351	0.000628	6.284029	1.064543	0.000126
 151	1.4925e+01	2.9876	32.676577	0.000669	6.689450	1.133224	0.000134
 152	1.5024e+01	3.0085	32.825951	0.000750	7.500293	1.270584	0.000150
 153	1.5124e+01	3.0279	32.878433	0.000264	2.635238	0.446421	0.000053
 154	1.5223e+01	3.0482	32.991473	0.000568	5.675897	0.961523	0.000114
 155	1.5323e+01	3.0682	33.148922	0.000791	7.905714	1.339264	0.000158
 156	1.5422e+01	3.0886	33.233701	0.000426	4.256923	0.721142	0.000085
 157	1.5522e+01	3.1079	33.346741	0.000568	5.675897	0.961523	0.000114
 158	1.5621e+01	3.1265	33.431521	0.000426	4.256923	0.721142	0.000085
 159	1.5721e+01	3.1475	33.588969	0.000791	7.905714	1.339264	0.000158
 160	1.5820e+01	3.1670	33.645489	0.000284	2.837949	0.480761	0.000057
 161	1.5920e+01	3.1863	33.774678	0.000649	6.486740	1.098883	0.000130
 162	1.6020e+01	3.2075	33.847346	0.000365	3.648791	0.618122	0.000073
 163	1.6119e+01	3.2269	33.988646	0.000709	7.094871	1.201904	0.000142
 164	1.6218e+01	3.2462	34.109760	0.000608	6.081318	1.030203	0.000122
 165	1.6318e+01	3.2666	34.214725	0.000527	5.270476	0.892843	0.000105
 166	1.6418e+01	3.2861	34.307580	0.000466	4.662344	0.789822	0.000093
 167	1.6517e+01	3.3069	34.424656	0.000588	5.878608	0.995863	0.000118
 168	1.6616e+01	3.3261	34.578068	0.000770	7.703003	1.304924	0.000154
 169	1.6716e+01	3.3463	34.606328	0.000142	1.418974	0.240381	0.000028
 170	1.6816e+01	3.3668	34.759739	0.000770	7.703003	1.304924	0.000154
 171	1.6915e+01	3.3867	34.848556	0.000446	4.459633	0.755482	0.000089
 172	1.7015e+01	3.4063	34.981781	0.000669	6.689450	1.133224	0.000134
 173	1.7114e+01	3.4268	35.078672	0.000487	4.865055	0.824163	0.000097
 174	1.7213e+01	3.4451	35.195749	0.000588	5.878608	0.995863	0.000118
 175	1.7313e+01	3.4657	35.272455	0.000385	3.851502	0.652462	0.000077
 176	1.7413e+01	3.4857	35.405680	0.000669	6.689450	1.133224	0.000134
 177	1.7512e+01	3.5065	35.518720	0.000568	5.675897	0.961523	0.000114
 178	1.7611e+01	3.5265	35.639834	0.000608	6.081318	1.030203	0.000122
 179	1.7711e+01	3.5461	35.724614	0.000426	4.256923	0.721142	0.000085
 180	1.7811e+01	3.5653	35.849765	0.000628	6.284029	1.064543	0.000126
 181	1.7910e+01	3.5857	35.922434	0.000365	3.648791	0.618122	0.000073
 182	1.8009e+01	3.6053	36.051622	0.000649	6.486740	1.098883	0.000130
 183	1.8109e+01	3.6251	36.152551	0.000507	5.067765	0.858503	0.000101
 184	1.8209e+01	3.6454	36.269627	0.000588	5.878608	0.995863	0.000118
 185	1.8308e+01	3.6651	36.378630	0.000547	5.473186	0.927183	0.000110
 186	1.8407e+01	3.6847	36.511856	0.000669	6.689450	1.133224	0.000134
 187	1.8507e+01	3.7042	36.580487	0.000345	3.446080	0.583782	0.000069
 188	1.8607e+01	3.7254	36.733898	0.000770	7.703003	1.304924	0.000154
 189	1.8706e+01	3.7455	36.850975	0.000588	5.878608	0.995863	0.000118
 190	1.8805e+01	3.7644	36.931718	0.000405	4.054212	0.686802	0.000081
 191	1.8905e+01	3.7847	37.016498	0.000426	4.256923	0.721142	0.000085
 192	1.9005e+01	3.8035	37.141649	0.000628	6.284029	1.064543	0.000126
 193	1.9104e+01	3.8255	37.250651	0.000547	5.473186	0.927183	0.000110
 194	1.9203e+01	3.8447	37.367728	0.000588	5.878608	0.995863	0.000118
 195	1.9303e+01	3.8644	37.472694	0.000527	5.270476	0.892843	0.000105
 196	1.9402e+01	3.8844	37.585734	0.000568	5.675897	0.961523	0.000114
 197	1.9502e+01	3.9050	37.674551	0.000446	4.459633	0.755482	0.000089
 198	1.9602e+01	3.9236	37.775479	0.000507	5.067765	0.858503	0.000101
 199	1.9701e+01	3.9434	37.884482	0.000547	5.473186	0.927183	0.000110
 200	1.9800e+01	3.9635	38.013670	0.000649	6.486740	1.098883	0.000130
 201	1.9900e+01	3.9834	38.102487	0.000446	4.459633	0.755482	0.000089
 202	2.0000e+01	4.0039	38.219564	0.000588	5.878608	0.995863	0.000118
 203	2.0099e+01	4.0240	38.316455	0.000487	4.865055	0.824163	0.000097
 204	2.0198e+01	4.0431	38.433532	0.000588	5.878608	0.995863	0.000118
 205	2.0298e+01	4.0635	38.558683	0.000628	6.284029	1.064543	0.000126
 206	2.0398e+01	4.0823	38.675760	0.000588	5.878608	0.995863	0.000118
 207	2.0497e+01	4.1035	38.804949	0.000649	6.486740	1.098883	0.000130
 208	2.0596e+01	4.1228	38.881654	0.000385	3.851502	0.652462	0.000077
 209	2.0696e+01	4.1428	38.982583	0.000507	5.067765	0.858503	0.000101
 210	2.0796e+01	4.1631	39.103697	0.000608	6.081318	1.030203	0.000122
 211	2.0895e+01	4.1821	39.196551	0.000466	4.662344	0.789822	0.000093
 212	2.0994e+01	4.2027	39.285368	0.000446	4.459633	0.755482	0.000089
 213	2.1094e+01	4.2226	39.422630	0.000689	6.892161	1.167564	0.000138
 214	2.1194e+01	4.2419	39.531633	0.000547	5.473186	0.927183	0.000110
 215	2.1293e+01	4.2629	39.644673	0.000568	5.675897	0.961523	0.000114
 216	2.1392e+01	4.2833	39.717341	0.000365	3.648791	0.618122	0.000073
 217	2.1492e+01	4.3021	39.842493	0.000628	6.284029	1.064543	0.000126
 218	2.1591e+01	4.3227	39.963607	0.000608	6.081318	1.030203	0.000122
 219	2.1691e+01	4.3429	40.076646	0.000568	5.675897	0.961523	0.000114
 220	2.1791e+01	4.3628	40.226020	0.000750	7.500293	1.270584	0.000150
 221	2.1890e+01	4.3827	40.278503	0.000264	2.635238	0.446421	0.000053
 222	2.1989e+01	4.4024	40.411729	0.000669	6.689450	1.133224	0.000134
 223	2.2089e+01	4.4225	40.516694	0.000527	5.270476	0.892843	0.000105
 224	2.2189e+01	4.4418	40.585326	0.000345	3.446080	0.583782	0.000069
 225	2.2288e+01	4.4612	40.714514	0.000649	6.486740	1.098883	0.000130
 226	2.2387e+01	4.4820	40.855814	0.000709	7.094871	1.201904	0.000142
 227	2.2487e+01	4.5019	40.924445	0.000345	3.446080	0.583782	0.000069
 228	2.2587e+01	4.5219	41.025373	0.000507	5.067765	0.858503	0.000101
 229	2.2686e+01	4.5415	41.122265	0.000487	4.865055	0.824163	0.000097
 230	2.2785e+01	4.5608	41.247416	0.000628	6.284029	1.064543	0.000126
 231	2.2885e+01	4.5821	41.376604	0.000649	6.486740	1.098883	0.000130
 232	2.2985e+01	4.6012	41.433124	0.000284	2.837949	0.480761	0.000057
 233	2.3084e+01	4.6218	41.546164	0.000568	5.675897	0.961523	0.000114
 234	2.3183e+01	4.6413	41.626907	0.000405	4.054212	0.686802	0.000081
 235	2.3283e+01	4.6612	41.756095	0.000649	6.486740	1.098883	0.000130
 236	2.3383e+01	4.6812	41.840875	0.000426	4.256923	0.721142	0.000085
 237	2.3482e+01	4.7007	41.917580	0.000385	3.851502	0.652462	0.000077
 238	2.3581e+01	4.7218	42.087140	0.000851	8.513846	1.442284	0.000170
 239	2.3681e+01	4.7415	42.192106	0.000527	5.270476	0.892843	0.000105
 240	2.3780e+01	4.7617	42.240551	0.000243	2.432527	0.412081	0.000049
 241	2.3880e+01	4.7807	42.369740	0.000649	6.486740	1.098883	0.000130
 242	2.3980e+01	4.8011	42.466631	0.000487	4.865055	0.824163	0.000097
 243	2.4079e+01	4.8208	42.559485	0.000466	4.662344	0.789822	0.000093
 244	2.4178e+01	4.8409	42.668488	0.000547	5.473186	0.927183	0.000110
 245	2.4278e+01	4.8611	42.769416	0.000507	5.067765	0.858503	0.000101
 246	2.4378e+01	4.8800	42.894567	0.000628	6.284029	1.064543	0.000126
 247	2.4477e+01	4.9006	42.983384	0.000446	4.459633	0.755482	0.000089
 248	2.4576e+01	4.9203	43.084313	0.000507	5.067765	0.858503	0.000101
 249	2.4676e+01	4.9413	43.169092	0.000426	4.256923	0.721142	0.000085
 250	2.4776e+01	4.9599	43.294244	0.000628	6.284029	1.064543	0.000126
 251	2.4875e+01	4.9799	43.411321	0.000588	5.878608	0.995863	0.000118
 252	2.4974e+01	5.0001	43.500138	0.000446	4.459633	0.755482	0.000089
 253	2.5074e+01	5.0201	43.613177	0.000568	5.675897	0.961523	0.000114
 254	2.5174e+01	5.0393	43.710069	0.000487	4.865055	0.824163	0.000097
 255	2.5273e+01	5.0591	43.782737	0.000365	3.648791	0.618122	0.000073
 256	2.5372e+01	5.0794	43.899814	0.000588	5.878608	0.995863	0.000118
 257	2.5472e+01	5.0999	43.992668	0.000466	4.662344	0.789822	0.000093
 258	2.5572e+01	5.1193	44.101671	0.000547	5.473186	0.927183	0.000110
 259	2.5671e+01	5.1386	44.182414	0.000405	4.054212	0.686802	0.000081
 260	2.5770e+01	5.1588	44.303528	0.000608	6.081318	1.030203	0.000122
 261	2.5870e+01	5.1791	44.412530	0.000547	5.473186	0.927183	0.000110
