»»»»»»»»»»»»»»»»»»»»»»»»»»»»»»»»»»»» Hysteresis ««««««««««««««««««««««««««««««««««««
»»»  Executed Version:	5.48.1
»»»  Vision Version:	5.48.4 (R)
»»»  Vision Compiled:	9/18/24
»»»  Driver Version:	5.47.0
»»»  Windows Version:	Windows 8 or 8.1
»»»  Processor Information:	x86 (AMD or Intel) - 32 Processors
»»»  Tester Name:	PMF21124-494 (100V)
»»»  Tester S/N:	PMF21124-494
»»»  Internal Amp Type:	100V RevK 270k
»»»  Internal Amp S/N:	iAB2-596/K     
»»»  Execution Count:	1
»»»»»»»»»»»»»»»»»»»»»»»»»»»»»»»»»»»»»»»»»»««««««««««««««««««««««««««««««««««««««««««

Stored:	7/2/2025 - 15:43:13
Configured:	07/02/25 01:35:59 PM
Executed:	07/02/25 03:42:40 PM

»»»»»»»»»»»»»»»»»»»»»»»»»»»»»»»»»»» Sample Info ««««««««««««««««««««««««««««««««««««
Sample Name:	
Lot Name:	
Wafer Name:	
Die Row/Column:	0/0
Capacitor Number:	0
Sample Area (cm2):	1.00e-04
Sample Thickness (microns):	1.50e-01

Amplifier:	Internal

»»»»»»»»»»»»»»»»»»»»»»»»»»»»»»»»»»» Tester Info «««««««««««««««««««««««««««««««««««
Tester Name:	PMF21124-494 (100V)
Tester Serial Number:	PMF21124-494
Return Signal Amp. Level:	0.19 [Index: 3]

»»»»»»»»»»»»»»»»»»»»»»»»»»»»»»»» Hysteresis Info ««««««««««««««««««««««««««««««««««
Task Name:	Hyst-220
Volts:	10.00
Field:	666.67 (kV/cm)
DCBias:	0.00
DCField:	0.00 (kV/cm)
Hysteresis Period (ms):	2.00e+02
Preset:	Enabled
Preset Delay (ms):	1.00e+03
Profile:	Standard Bipolar

»»»»»»»»»»»»»»»»»»»»»»»»»»»»»»»»»»»»»» Data «««««««««««««««««««««««««««««««««««««««
Points:	2009

Valid Data

Point	Time (ms)	Drive Voltage	Measured Polarization (uC/cm2)	Capacitance (uF)	Normalized Capacitance (uF/cm2)	Dielectric Constant	Instantaneous Current (mA)
   1	0.0000e+00	0.0003	71.093960	0.000547	5.472685	0.927098	0.000110
   2	9.9500e-02	0.0193	71.202963	0.000547	5.472685	0.927098	0.000110
   3	1.9900e-01	0.0393	71.412894	0.001054	10.539987	1.785522	0.000211
   4	2.9850e-01	0.0587	71.574379	0.000811	8.107682	1.373479	0.000162
   5	3.9800e-01	0.0798	71.743939	0.000851	8.513066	1.442152	0.000170
   6	4.9750e-01	0.0989	71.885239	0.000709	7.094222	1.201794	0.000142
   7	5.9700e-01	0.1192	72.091133	0.001034	10.337295	1.751185	0.000207
   8	6.9650e-01	0.1384	72.208210	0.000588	5.878069	0.995772	0.000118
   9	7.9600e-01	0.1594	72.442364	0.001176	11.756139	1.991544	0.000235
  10	8.9550e-01	0.1771	72.535218	0.000466	4.661917	0.789750	0.000093
  11	9.9500e-01	0.1982	72.708815	0.000872	8.715758	1.476489	0.000174
  12	1.0945e+00	0.2178	72.870300	0.000811	8.107682	1.373479	0.000162
  13	1.1940e+00	0.2383	73.068120	0.000993	9.931910	1.682511	0.000199
  14	1.2935e+00	0.2586	73.225568	0.000790	7.904990	1.339142	0.000158
  15	1.3930e+00	0.2787	73.411276	0.000932	9.323834	1.579500	0.000187
  16	1.4925e+00	0.2975	73.592947	0.000912	9.121142	1.545163	0.000183
  17	1.5920e+00	0.3183	73.714061	0.000608	6.080761	1.030109	0.000122
  18	1.6915e+00	0.3382	73.895733	0.000912	9.121142	1.545163	0.000183
  19	1.7910e+00	0.3580	74.069329	0.000872	8.715758	1.476489	0.000174
  20	1.8905e+00	0.3781	74.255038	0.000932	9.323834	1.579500	0.000187
  21	1.9900e+00	0.3978	74.432672	0.000892	8.918450	1.510826	0.000179
  22	2.0895e+00	0.4172	74.602231	0.000851	8.513066	1.442152	0.000170
  23	2.1890e+00	0.4382	74.747568	0.000730	7.296914	1.236131	0.000146
  24	2.2885e+00	0.4577	74.937314	0.000953	9.526526	1.613837	0.000191
  25	2.3880e+00	0.4783	75.062465	0.000628	6.283454	1.064446	0.000126
  26	2.4875e+00	0.4971	75.244136	0.000912	9.121142	1.545163	0.000183
  27	2.5870e+00	0.5170	75.458104	0.001074	10.742679	1.819859	0.000215
  28	2.6865e+00	0.5379	75.587292	0.000649	6.486146	1.098783	0.000130
  29	2.7860e+00	0.5577	75.797223	0.001054	10.539987	1.785522	0.000211
  30	2.8855e+00	0.5779	75.995043	0.000993	9.931910	1.682511	0.000199
  31	2.9850e+00	0.5963	76.108083	0.000568	5.675377	0.961435	0.000114
  32	3.0845e+00	0.6175	76.326088	0.001095	10.945371	1.854196	0.000219
  33	3.1840e+00	0.6371	76.471425	0.000730	7.296914	1.236131	0.000146
  34	3.2835e+00	0.6571	76.673282	0.001013	10.134602	1.716848	0.000203
  35	3.3830e+00	0.6773	76.842842	0.000851	8.513066	1.442152	0.000170
  36	3.4825e+00	0.6966	77.028550	0.000932	9.323834	1.579500	0.000187
  37	3.5820e+00	0.7166	77.198110	0.000851	8.513066	1.442152	0.000170
  38	3.6815e+00	0.7366	77.412078	0.001074	10.742679	1.819859	0.000215
  39	3.7810e+00	0.7561	77.597786	0.000932	9.323834	1.579500	0.000187
  40	3.8805e+00	0.7759	77.731012	0.000669	6.688838	1.133120	0.000134
  41	3.9800e+00	0.7957	77.920757	0.000953	9.526526	1.613837	0.000191
  42	4.0795e+00	0.8169	78.074168	0.000770	7.702298	1.304805	0.000154
  43	4.1790e+00	0.8366	78.255839	0.000912	9.121142	1.545163	0.000183
  44	4.2785e+00	0.8562	78.477882	0.001115	11.148063	1.888533	0.000223
  45	4.3780e+00	0.8758	78.631293	0.000770	7.702298	1.304805	0.000154
  46	4.4775e+00	0.8958	78.812964	0.000912	9.121142	1.545163	0.000183
  47	4.5770e+00	0.9176	78.998672	0.000932	9.323834	1.579500	0.000187
  48	4.6765e+00	0.9357	79.200529	0.001013	10.134602	1.716848	0.000203
  49	4.7760e+00	0.9558	79.357977	0.000790	7.904990	1.339142	0.000158
  50	4.8755e+00	0.9756	79.604242	0.001236	12.364215	2.094555	0.000248
  51	4.9750e+00	0.9958	79.753617	0.000750	7.499606	1.270468	0.000150
  52	5.0745e+00	1.0157	79.955473	0.001013	10.134602	1.716848	0.000203
  53	5.1740e+00	1.0356	80.137144	0.000912	9.121142	1.545163	0.000183
  54	5.2735e+00	1.0554	80.314778	0.000892	8.918450	1.510826	0.000179
  55	5.3730e+00	1.0752	80.443967	0.000649	6.486146	1.098783	0.000130
  56	5.4725e+00	1.0952	80.641786	0.000993	9.931910	1.682511	0.000199
  57	5.5720e+00	1.1153	80.867866	0.001135	11.350755	1.922870	0.000227
  58	5.6715e+00	1.1349	81.049537	0.000912	9.121142	1.545163	0.000183
  59	5.7710e+00	1.1552	81.251394	0.001013	10.134602	1.716848	0.000203
  60	5.8705e+00	1.1744	81.412879	0.000811	8.107682	1.373479	0.000162
  61	5.9700e+00	1.1947	81.638959	0.001135	11.350755	1.922870	0.000227
  62	6.0695e+00	1.2151	81.800444	0.000811	8.107682	1.373479	0.000162
  63	6.1690e+00	1.2350	82.002301	0.001013	10.134602	1.716848	0.000203
  64	6.2685e+00	1.2549	82.179935	0.000892	8.918450	1.510826	0.000179
  65	6.3680e+00	1.2746	82.397940	0.001095	10.945371	1.854196	0.000219
  66	6.4675e+00	1.2942	82.555389	0.000790	7.904990	1.339142	0.000158
  67	6.5670e+00	1.3136	82.757245	0.001013	10.134602	1.716848	0.000203
  68	6.6665e+00	1.3333	82.979288	0.001115	11.148063	1.888533	0.000223
  69	6.7660e+00	1.3538	83.148848	0.000851	8.513066	1.442152	0.000170
  70	6.8655e+00	1.3740	83.326482	0.000892	8.918450	1.510826	0.000179
  71	6.9650e+00	1.3930	83.540450	0.001074	10.742679	1.819859	0.000215
  72	7.0645e+00	1.4129	83.705972	0.000831	8.310374	1.407815	0.000166
  73	7.1640e+00	1.4336	83.932052	0.001135	11.350755	1.922870	0.000227
  74	7.2635e+00	1.4527	84.081426	0.000750	7.499606	1.270468	0.000150
  75	7.3630e+00	1.4736	84.250986	0.000851	8.513066	1.442152	0.000170
  76	7.4625e+00	1.4929	84.473028	0.001115	11.148063	1.888533	0.000223
  77	7.5620e+00	1.5136	84.646625	0.000872	8.715758	1.476489	0.000174
  78	7.6615e+00	1.5337	84.876742	0.001155	11.553447	1.957207	0.000231
  79	7.7610e+00	1.5534	85.022079	0.000730	7.296914	1.236131	0.000146
  80	7.8605e+00	1.5733	85.240084	0.001095	10.945371	1.854196	0.000219
  81	7.9600e+00	1.5931	85.454052	0.001074	10.742679	1.819859	0.000215
  82	8.0595e+00	1.6135	85.663983	0.001054	10.539987	1.785522	0.000211
  83	8.1590e+00	1.6318	85.829506	0.000831	8.310374	1.407815	0.000166
  84	8.2585e+00	1.6527	86.007140	0.000892	8.918450	1.510826	0.000179
  85	8.3580e+00	1.6724	86.233219	0.001135	11.350755	1.922870	0.000227
  86	8.4575e+00	1.6922	86.422965	0.000953	9.526526	1.613837	0.000191
  87	8.5570e+00	1.7130	86.612710	0.000953	9.526526	1.613837	0.000191
  88	8.6565e+00	1.7326	86.802456	0.000953	9.526526	1.613837	0.000191
  89	8.7560e+00	1.7521	86.988164	0.000932	9.323834	1.579500	0.000187
  90	8.8555e+00	1.7723	87.210206	0.001115	11.148063	1.888533	0.000223
  91	8.9550e+00	1.7910	87.403989	0.000973	9.729218	1.648174	0.000195
  92	9.0545e+00	1.8124	87.573548	0.000851	8.513066	1.442152	0.000170
  93	9.1540e+00	1.8313	87.795591	0.001115	11.148063	1.888533	0.000223
  94	9.2535e+00	1.8514	87.977262	0.000912	9.121142	1.545163	0.000183
  95	9.3530e+00	1.8730	88.215453	0.001196	11.958831	2.025881	0.000239
  96	9.4525e+00	1.8922	88.393087	0.000892	8.918450	1.510826	0.000179
  97	9.5520e+00	1.9121	88.598981	0.001034	10.337295	1.751185	0.000207
  98	9.6515e+00	1.9308	88.756429	0.000790	7.904990	1.339142	0.000158
  99	9.7510e+00	1.9510	88.994620	0.001196	11.958831	2.025881	0.000239
 100	9.8505e+00	1.9714	89.168217	0.000872	8.715758	1.476489	0.000174
 101	9.9500e+00	1.9914	89.313554	0.000730	7.296914	1.236131	0.000146
 102	1.0050e+01	2.0115	89.539634	0.001135	11.350755	1.922870	0.000227
 103	1.0149e+01	2.0309	89.737453	0.000993	9.931910	1.682511	0.000199
 104	1.0248e+01	2.0515	89.939310	0.001013	10.134602	1.716848	0.000203
 105	1.0348e+01	2.0709	90.189612	0.001257	12.566907	2.128892	0.000252
 106	1.0447e+01	2.0913	90.351098	0.000811	8.107682	1.373479	0.000162
 107	1.0547e+01	2.1107	90.565066	0.001074	10.742679	1.819859	0.000215
 108	1.0646e+01	2.1307	90.770960	0.001034	10.337295	1.751185	0.000207
 109	1.0746e+01	2.1519	90.972817	0.001013	10.134602	1.716848	0.000203
 110	1.0845e+01	2.1703	91.118154	0.000730	7.296914	1.236131	0.000146
 111	1.0945e+01	2.1912	91.364419	0.001236	12.364215	2.094555	0.000248
 112	1.1044e+01	2.2108	91.533979	0.000851	8.513066	1.442152	0.000170
 113	1.1144e+01	2.2302	91.764095	0.001155	11.553447	1.957207	0.000231
 114	1.1243e+01	2.2499	91.937692	0.000872	8.715758	1.476489	0.000174
 115	1.1343e+01	2.2701	92.143586	0.001034	10.337295	1.751185	0.000207
 116	1.1443e+01	2.2906	92.309109	0.000831	8.310374	1.407815	0.000166
 117	1.1542e+01	2.3095	92.535188	0.001135	11.350755	1.922870	0.000227
 118	1.1642e+01	2.3305	92.745119	0.001054	10.539987	1.785522	0.000211
 119	1.1741e+01	2.3501	92.914679	0.000851	8.513066	1.442152	0.000170
 120	1.1841e+01	2.3698	93.100387	0.000932	9.323834	1.579500	0.000187
 121	1.1940e+01	2.3898	93.273984	0.000872	8.715758	1.476489	0.000174
 122	1.2040e+01	2.4095	93.524287	0.001257	12.566907	2.128892	0.000252
 123	1.2139e+01	2.4311	93.734218	0.001054	10.539987	1.785522	0.000211
 124	1.2239e+01	2.4493	93.915889	0.000912	9.121142	1.545163	0.000183
 125	1.2338e+01	2.4701	94.077374	0.000811	8.107682	1.373479	0.000162
 126	1.2438e+01	2.4892	94.291342	0.001074	10.742679	1.819859	0.000215
 127	1.2537e+01	2.5087	94.452828	0.000811	8.107682	1.373479	0.000162
 128	1.2636e+01	2.5303	94.678907	0.001135	11.350755	1.922870	0.000227
 129	1.2736e+01	2.5486	94.876727	0.000993	9.931910	1.682511	0.000199
 130	1.2835e+01	2.5700	95.050324	0.000872	8.715758	1.476489	0.000174
 131	1.2935e+01	2.5887	95.280441	0.001155	11.553447	1.957207	0.000231
 132	1.3034e+01	2.6087	95.429815	0.000750	7.499606	1.270468	0.000150
 133	1.3134e+01	2.6284	95.631671	0.001013	10.134602	1.716848	0.000203
 134	1.3233e+01	2.6489	95.829491	0.000993	9.931910	1.682511	0.000199
 135	1.3333e+01	2.6684	96.023274	0.000973	9.729218	1.648174	0.000195
 136	1.3432e+01	2.6885	96.196870	0.000872	8.715758	1.476489	0.000174
 137	1.3532e+01	2.7081	96.443136	0.001236	12.364215	2.094555	0.000248
 138	1.3632e+01	2.7277	96.600584	0.000790	7.904990	1.339142	0.000158
 139	1.3731e+01	2.7464	96.794366	0.000973	9.729218	1.648174	0.000195
 140	1.3831e+01	2.7678	97.004298	0.001054	10.539987	1.785522	0.000211
 141	1.3930e+01	2.7883	97.206154	0.001013	10.134602	1.716848	0.000203
 142	1.4030e+01	2.8078	97.327268	0.000608	6.080761	1.030109	0.000122
 143	1.4129e+01	2.8284	97.561422	0.001176	11.756139	1.991544	0.000235
 144	1.4229e+01	2.8484	97.751168	0.000953	9.526526	1.613837	0.000191
 145	1.4328e+01	2.8686	97.924764	0.000872	8.715758	1.476489	0.000174
 146	1.4428e+01	2.8872	98.171030	0.001236	12.364215	2.094555	0.000248
 147	1.4527e+01	2.9081	98.332515	0.000811	8.107682	1.373479	0.000162
 148	1.4627e+01	2.9275	98.530335	0.000993	9.931910	1.682511	0.000199
 149	1.4726e+01	2.9472	98.720080	0.000953	9.526526	1.613837	0.000191
 150	1.4825e+01	2.9684	98.934048	0.001074	10.742679	1.819859	0.000215
 151	1.4925e+01	2.9876	99.103608	0.000851	8.513066	1.442152	0.000170
 152	1.5024e+01	3.0083	99.301428	0.000993	9.931910	1.682511	0.000199
 153	1.5124e+01	3.0275	99.438690	0.000689	6.891530	1.167457	0.000138
 154	1.5223e+01	3.0470	99.672844	0.001176	11.756139	1.991544	0.000235
 155	1.5323e+01	3.0665	99.842404	0.000851	8.513066	1.442152	0.000170
 156	1.5422e+01	3.0869	100.024075	0.000912	9.121142	1.545163	0.000183
 157	1.5522e+01	3.1078	100.242080	0.001095	10.945371	1.854196	0.000219
 158	1.5621e+01	3.1274	100.395492	0.000770	7.702298	1.304805	0.000154
 159	1.5721e+01	3.1467	100.621571	0.001135	11.350755	1.922870	0.000227
 160	1.5820e+01	3.1668	100.791131	0.000851	8.513066	1.442152	0.000170
 161	1.5920e+01	3.1866	100.964728	0.000872	8.715758	1.476489	0.000174
 162	1.6020e+01	3.2069	101.154473	0.000953	9.526526	1.613837	0.000191
 163	1.6119e+01	3.2276	101.344218	0.000953	9.526526	1.613837	0.000191
 164	1.6218e+01	3.2471	101.529927	0.000932	9.323834	1.579500	0.000187
 165	1.6318e+01	3.2668	101.707561	0.000892	8.918450	1.510826	0.000179
 166	1.6418e+01	3.2864	101.901343	0.000973	9.729218	1.648174	0.000195
 167	1.6517e+01	3.3068	102.119348	0.001095	10.945371	1.854196	0.000219
 168	1.6616e+01	3.3253	102.268723	0.000750	7.499606	1.270468	0.000150
 169	1.6716e+01	3.3460	102.458468	0.000953	9.526526	1.613837	0.000191
 170	1.6816e+01	3.3666	102.656288	0.000993	9.931910	1.682511	0.000199
 171	1.6915e+01	3.3865	102.882367	0.001135	11.350755	1.922870	0.000227
 172	1.7015e+01	3.4058	103.039815	0.000790	7.904990	1.339142	0.000158
 173	1.7114e+01	3.4264	103.249747	0.001054	10.539987	1.785522	0.000211
 174	1.7213e+01	3.4460	103.370861	0.000608	6.080761	1.030109	0.000122
 175	1.7313e+01	3.4650	103.568680	0.000993	9.931910	1.682511	0.000199
 176	1.7413e+01	3.4856	103.766500	0.000993	9.931910	1.682511	0.000199
 177	1.7512e+01	3.5059	103.972394	0.001034	10.337295	1.751185	0.000207
 178	1.7611e+01	3.5256	104.141953	0.000851	8.513066	1.442152	0.000170
 179	1.7711e+01	3.5450	104.319587	0.000892	8.918450	1.510826	0.000179
 180	1.7811e+01	3.5648	104.472999	0.000770	7.702298	1.304805	0.000154
 181	1.7910e+01	3.5854	104.682930	0.001054	10.539987	1.785522	0.000211
 182	1.8009e+01	3.6050	104.892861	0.001054	10.539987	1.785522	0.000211
 183	1.8109e+01	3.6243	105.046272	0.000770	7.702298	1.304805	0.000154
 184	1.8209e+01	3.6446	105.252166	0.001034	10.337295	1.751185	0.000207
 185	1.8308e+01	3.6648	105.401540	0.000750	7.499606	1.270468	0.000150
 186	1.8407e+01	3.6844	105.619545	0.001095	10.945371	1.854196	0.000219
 187	1.8507e+01	3.7048	105.776993	0.000790	7.904990	1.339142	0.000158
 188	1.8607e+01	3.7243	105.926367	0.000750	7.499606	1.270468	0.000150
 189	1.8706e+01	3.7453	106.120150	0.000973	9.729218	1.648174	0.000195
 190	1.8805e+01	3.7657	106.273561	0.000770	7.702298	1.304805	0.000154
 191	1.8905e+01	3.7840	106.471381	0.000993	9.931910	1.682511	0.000199
 192	1.9005e+01	3.8039	106.697460	0.001135	11.350755	1.922870	0.000227
 193	1.9104e+01	3.8238	106.822612	0.000628	6.283454	1.064446	0.000126
 194	1.9203e+01	3.8432	107.008320	0.000932	9.323834	1.579500	0.000187
 195	1.9303e+01	3.8643	107.145582	0.000689	6.891530	1.167457	0.000138
 196	1.9402e+01	3.8840	107.367625	0.001115	11.148063	1.888533	0.000223
 197	1.9502e+01	3.9037	107.573519	0.001034	10.337295	1.751185	0.000207
 198	1.9602e+01	3.9223	107.718856	0.000730	7.296914	1.236131	0.000146
 199	1.9701e+01	3.9431	107.924750	0.001034	10.337295	1.751185	0.000207
 200	1.9800e+01	3.9635	108.045864	0.000608	6.080761	1.030109	0.000122
 201	1.9900e+01	3.9834	108.271943	0.001135	11.350755	1.922870	0.000227
 202	2.0000e+01	4.0032	108.437466	0.000831	8.310374	1.407815	0.000166
 203	2.0099e+01	4.0240	108.590877	0.000770	7.702298	1.304805	0.000154
 204	2.0198e+01	4.0427	108.800808	0.001054	10.539987	1.785522	0.000211
 205	2.0298e+01	4.0641	108.954219	0.000770	7.702298	1.304805	0.000154
 206	2.0398e+01	4.0826	109.103593	0.000750	7.499606	1.270468	0.000150
 207	2.0497e+01	4.1021	109.301413	0.000993	9.931910	1.682511	0.000199
 208	2.0596e+01	4.1235	109.483084	0.000912	9.121142	1.545163	0.000183
 209	2.0696e+01	4.1438	109.672829	0.000953	9.526526	1.613837	0.000191
 210	2.0796e+01	4.1625	109.834315	0.000811	8.107682	1.373479	0.000162
 211	2.0895e+01	4.1779	110.007912	0.000872	8.715758	1.476489	0.000174
 212	2.0994e+01	4.2023	110.149211	0.000709	7.094222	1.201794	0.000142
 213	2.1094e+01	4.2223	110.330883	0.000912	9.121142	1.545163	0.000183
 214	2.1194e+01	4.2426	110.532739	0.001013	10.134602	1.716848	0.000203
 215	2.1293e+01	4.2628	110.726522	0.000973	9.729218	1.648174	0.000195
 216	2.1392e+01	4.2829	110.879933	0.000770	7.702298	1.304805	0.000154
 217	2.1492e+01	4.3028	111.045456	0.000831	8.310374	1.407815	0.000166
 218	2.1591e+01	4.3223	111.219052	0.000872	8.715758	1.476489	0.000174
 219	2.1691e+01	4.3426	111.376501	0.000790	7.904990	1.339142	0.000158
 220	2.1791e+01	4.3615	111.550098	0.000872	8.715758	1.476489	0.000174
 221	2.1890e+01	4.3822	111.719657	0.000851	8.513066	1.442152	0.000170
 222	2.1989e+01	4.4020	111.881143	0.000811	8.107682	1.373479	0.000162
 223	2.2089e+01	4.4225	112.058777	0.000892	8.918450	1.510826	0.000179
 224	2.2189e+01	4.4422	112.252559	0.000973	9.729218	1.648174	0.000195
 225	2.2288e+01	4.4622	112.389822	0.000689	6.891530	1.167457	0.000138
 226	2.2387e+01	4.4812	112.555344	0.000831	8.310374	1.407815	0.000166
 227	2.2487e+01	4.5016	112.745090	0.000953	9.526526	1.613837	0.000191
 228	2.2587e+01	4.5211	112.910612	0.000831	8.310374	1.407815	0.000166
 229	2.2686e+01	4.5412	113.080172	0.000851	8.513066	1.442152	0.000170
 230	2.2785e+01	4.5607	113.253769	0.000872	8.715758	1.476489	0.000174
 231	2.2885e+01	4.5820	113.447551	0.000973	9.729218	1.648174	0.000195
 232	2.2985e+01	4.6014	113.609037	0.000811	8.107682	1.373479	0.000162
 233	2.3084e+01	4.6206	113.750337	0.000709	7.094222	1.201794	0.000142
 234	2.3183e+01	4.6411	113.964305	0.001074	10.742679	1.819859	0.000215
 235	2.3283e+01	4.6614	114.069270	0.000527	5.269993	0.892761	0.000105
 236	2.3383e+01	4.6809	114.283238	0.001074	10.742679	1.819859	0.000215
 237	2.3482e+01	4.7008	114.444724	0.000811	8.107682	1.373479	0.000162
 238	2.3581e+01	4.7209	114.569875	0.000628	6.283454	1.064446	0.000126
 239	2.3681e+01	4.7412	114.747509	0.000892	8.918450	1.510826	0.000179
 240	2.3780e+01	4.7610	114.957440	0.001054	10.539987	1.785522	0.000211
 241	2.3880e+01	4.7805	115.082591	0.000628	6.283454	1.064446	0.000126
 242	2.3980e+01	4.8000	115.268300	0.000932	9.323834	1.579500	0.000187
 243	2.4079e+01	4.8203	115.445934	0.000892	8.918450	1.510826	0.000179
 244	2.4178e+01	4.8399	115.631642	0.000932	9.323834	1.579500	0.000187
 245	2.4278e+01	4.8598	115.760830	0.000649	6.486146	1.098783	0.000130
 246	2.4378e+01	4.8809	115.954613	0.000973	9.729218	1.648174	0.000195
 247	2.4477e+01	4.8998	116.124172	0.000851	8.513066	1.442152	0.000170
 248	2.4576e+01	4.9203	116.293732	0.000851	8.513066	1.442152	0.000170
 249	2.4676e+01	4.9390	116.422920	0.000649	6.486146	1.098783	0.000130
 250	2.4776e+01	4.9603	116.584406	0.000811	8.107682	1.373479	0.000162
 251	2.4875e+01	4.9795	116.753966	0.000851	8.513066	1.442152	0.000170
 252	2.4974e+01	4.9999	116.939674	0.000932	9.323834	1.579500	0.000187
 253	2.5074e+01	5.0193	117.072899	0.000669	6.688838	1.133120	0.000134
 254	2.5174e+01	5.0394	117.206125	0.000669	6.688838	1.133120	0.000134
 255	2.5273e+01	5.0594	117.367610	0.000811	8.107682	1.373479	0.000162
 256	2.5372e+01	5.0788	117.581578	0.001074	10.742679	1.819859	0.000215
 257	2.5472e+01	5.0994	117.718841	0.000689	6.891530	1.167457	0.000138
 258	2.5572e+01	5.1183	117.864178	0.000730	7.296914	1.236131	0.000146
