»»»»»»»»»»»»»»»»»»»»»»»»»»»»»»»»»»»» Hysteresis ««««««««««««««««««««««««««««««««««««
»»»  Executed Version:	5.48.1
»»»  Vision Version:	5.48.4 (R)
»»»  Vision Compiled:	9/18/24
»»»  Driver Version:	5.47.0
»»»  Windows Version:	Windows 8 or 8.1
»»»  Processor Information:	x86 (AMD or Intel) - 32 Processors
»»»  Tester Name:	PMF21124-494 (100V)
»»»  Tester S/N:	PMF21124-494
»»»  Internal Amp Type:	100V RevK 270k
»»»  Internal Amp S/N:	iAB2-596/K     
»»»  Execution Count:	1
»»»»»»»»»»»»»»»»»»»»»»»»»»»»»»»»»»»»»»»»»»««««««««««««««««««««««««««««««««««««««««««

Stored:	7/2/2025 - 15:55:20
Configured:	07/02/25 01:35:59 PM
Executed:	07/02/25 03:54:59 PM

»»»»»»»»»»»»»»»»»»»»»»»»»»»»»»»»»»» Sample Info ««««««««««««««««««««««««««««««««««««
Sample Name:	
Lot Name:	
Wafer Name:	
Die Row/Column:	0/0
Capacitor Number:	0
Sample Area (cm2):	1.00e-04
Sample Thickness (microns):	1.50e-01

Amplifier:	Internal

»»»»»»»»»»»»»»»»»»»»»»»»»»»»»»»»»»» Tester Info «««««««««««««««««««««««««««««««««««
Tester Name:	PMF21124-494 (100V)
Tester Serial Number:	PMF21124-494
Return Signal Amp. Level:	0.19 [Index: 3]

»»»»»»»»»»»»»»»»»»»»»»»»»»»»»»»» Hysteresis Info ««««««««««««««««««««««««««««««««««
Task Name:	Hyst-220
Volts:	10.00
Field:	666.67 (kV/cm)
DCBias:	0.00
DCField:	0.00 (kV/cm)
Hysteresis Period (ms):	1.00e+00
Preset:	Enabled
Preset Delay (ms):	1.00e+03
Profile:	Standard Bipolar

»»»»»»»»»»»»»»»»»»»»»»»»»»»»»»»»»»»»»» Data «««««««««««««««««««««««««««««««««««««««
Points:	2001

Valid Data

Point	Time (ms)	Drive Voltage	Measured Polarization (uC/cm2)	Capacitance (uF)	Normalized Capacitance (uF/cm2)	Dielectric Constant	Instantaneous Current (mA)
   1	0.0000e+00	-0.0008	-3.484597	0.000505	5.048171	0.855183	0.020165
   2	5.0000e-04	0.0104	-3.383770	0.000505	5.048171	0.855183	0.020165
   3	1.0000e-03	0.0285	-3.278909	0.000525	5.250098	0.889391	0.020972
   4	1.5000e-03	0.0472	-3.157916	0.000606	6.057805	1.026220	0.024199
   5	2.0000e-03	0.0681	-3.049023	0.000545	5.452025	0.923598	0.021779
   6	2.5000e-03	0.0868	-2.887699	0.000808	8.077074	1.368293	0.032265
   7	3.0000e-03	0.1085	-2.734441	0.000767	7.673220	1.299879	0.030652
   8	3.5000e-03	0.1270	-2.605382	0.000646	6.461659	1.094635	0.025812
   9	4.0000e-03	0.1483	-2.448091	0.000788	7.875147	1.334086	0.031458
  10	4.5000e-03	0.1677	-2.359363	0.000444	4.442391	0.752561	0.017746
  11	5.0000e-03	0.1881	-2.210138	0.000747	7.471293	1.265671	0.029845
  12	5.5000e-03	0.2074	-2.105277	0.000525	5.250098	0.889391	0.020972
  13	6.0000e-03	0.2280	-1.899589	0.001030	10.298269	1.744574	0.041138
  14	6.5000e-03	0.2472	-1.774563	0.000626	6.259732	1.060427	0.025005
  15	7.0000e-03	0.2674	-1.625339	0.000747	7.471293	1.265671	0.029845
  16	7.5000e-03	0.2878	-1.464015	0.000808	8.077074	1.368293	0.032265
  17	8.0000e-03	0.3070	-1.274459	0.000949	9.490562	1.607745	0.037911
  18	8.5000e-03	0.3269	-1.169599	0.000525	5.250098	0.889391	0.020972
  19	9.0000e-03	0.3473	-1.052639	0.000586	5.855878	0.992013	0.023392
  20	9.5000e-03	0.3683	-0.963911	0.000444	4.442391	0.752561	0.017746
  21	1.0000e-02	0.3876	-0.814686	0.000747	7.471293	1.265671	0.029845
  22	1.0500e-02	0.4070	-0.693693	0.000606	6.057805	1.026220	0.024199
  23	1.1000e-02	0.4275	-0.488005	0.001030	10.298269	1.744574	0.041138
  24	1.1500e-02	0.4481	-0.346846	0.000707	7.067439	1.197257	0.028232
  25	1.2000e-02	0.4681	-0.241986	0.000525	5.250098	0.889391	0.020972
  26	1.2500e-02	0.4881	-0.096794	0.000727	7.269366	1.231464	0.029038
  27	1.3000e-02	0.5075	0.036298	0.000666	6.663586	1.128842	0.026618
  28	1.3500e-02	0.5283	0.181489	0.000727	7.269366	1.231464	0.029038
  29	1.4000e-02	0.5485	0.371045	0.000949	9.490562	1.607745	0.037911
  30	1.4500e-02	0.5679	0.496071	0.000626	6.259732	1.060427	0.025005
  31	1.5000e-02	0.5872	0.657395	0.000808	8.077074	1.368293	0.032265
  32	1.5500e-02	0.6078	0.746123	0.000444	4.442391	0.752561	0.017746
  33	1.6000e-02	0.6284	0.943745	0.000989	9.894415	1.676159	0.039524
  34	1.6500e-02	0.6477	1.028440	0.000424	4.240464	0.718354	0.016939
  35	1.7000e-02	0.6683	1.181698	0.000767	7.673220	1.299879	0.030652
  36	1.7500e-02	0.6882	1.375287	0.000969	9.692488	1.641952	0.038718
  37	1.8000e-02	0.7080	1.476114	0.000505	5.048171	0.855183	0.020165
  38	1.8500e-02	0.7283	1.637438	0.000808	8.077074	1.368293	0.032265
  39	1.9000e-02	0.7475	1.722133	0.000424	4.240464	0.718354	0.016939
  40	1.9500e-02	0.7677	1.923788	0.001010	10.096342	1.710367	0.040331
  41	2.0000e-02	0.7877	2.089145	0.000828	8.279001	1.402501	0.033071
  42	2.0500e-02	0.8077	2.230304	0.000707	7.067439	1.197257	0.028232
  43	2.1000e-02	0.8273	2.395661	0.000828	8.279001	1.402501	0.033071
  44	2.1500e-02	0.8472	2.524720	0.000646	6.461659	1.094635	0.025812
  45	2.2000e-02	0.8679	2.573117	0.000242	2.423122	0.410488	0.009679
  46	2.2500e-02	0.8881	2.746540	0.000868	8.682854	1.470915	0.034685
  47	2.3000e-02	0.9086	2.899798	0.000767	7.673220	1.299879	0.030652
  48	2.3500e-02	0.9283	3.133718	0.001171	11.711757	1.984025	0.046784
  49	2.4000e-02	0.9480	3.218413	0.000424	4.240464	0.718354	0.016939
  50	2.4500e-02	0.9679	3.416035	0.000989	9.894415	1.676159	0.039524
  51	2.5000e-02	0.9876	3.528961	0.000565	5.653952	0.957805	0.022585
  52	2.5500e-02	1.0080	3.702385	0.000868	8.682854	1.470915	0.034685
  53	2.6000e-02	1.0283	3.875808	0.000868	8.682854	1.470915	0.034685
  54	2.6500e-02	1.0464	3.968569	0.000464	4.644317	0.786769	0.018552
  55	2.7000e-02	1.0675	4.117794	0.000747	7.471293	1.265671	0.029845
  56	2.7500e-02	1.0878	4.262985	0.000727	7.269366	1.231464	0.029038
  57	2.8000e-02	1.1082	4.412210	0.000747	7.471293	1.265671	0.029845
  58	2.8500e-02	1.1287	4.541269	0.000646	6.461659	1.094635	0.025812
  59	2.9000e-02	1.1478	4.722758	0.000909	9.086708	1.539330	0.036298
  60	2.9500e-02	1.1682	4.819553	0.000485	4.846244	0.820976	0.019359
  61	3.0000e-02	1.1879	4.992976	0.000868	8.682854	1.470915	0.034685
  62	3.0500e-02	1.2073	5.190598	0.000989	9.894415	1.676159	0.039524
  63	3.1000e-02	1.2287	5.311591	0.000606	6.057805	1.026220	0.024199
  64	3.1500e-02	1.2476	5.424518	0.000565	5.653952	0.957805	0.022585
  65	3.2000e-02	1.2693	5.618106	0.000969	9.692488	1.641952	0.038718
  66	3.2500e-02	1.2875	5.839927	0.001111	11.105976	1.881403	0.044364
  67	3.3000e-02	1.3074	5.944787	0.000525	5.250098	0.889391	0.020972
  68	3.3500e-02	1.3275	6.089979	0.000727	7.269366	1.231464	0.029038
  69	3.4000e-02	1.3470	6.247270	0.000788	7.875147	1.334086	0.031458
  70	3.4500e-02	1.3667	6.388428	0.000707	7.067439	1.197257	0.028232
  71	3.5000e-02	1.3877	6.525554	0.000687	6.865513	1.163049	0.027425
  72	3.5500e-02	1.4072	6.707043	0.000909	9.086708	1.539330	0.036298
  73	3.6000e-02	1.4275	6.832069	0.000626	6.259732	1.060427	0.025005
  74	3.6500e-02	1.4478	7.049856	0.001090	10.904049	1.847196	0.043557
  75	3.7000e-02	1.4684	7.158750	0.000545	5.452025	0.923598	0.021779
  76	3.7500e-02	1.4870	7.307975	0.000747	7.471293	1.265671	0.029845
  77	3.8000e-02	1.5088	7.465266	0.000788	7.875147	1.334086	0.031458
  78	3.8500e-02	1.5273	7.598358	0.000666	6.663586	1.128842	0.026618
  79	3.9000e-02	1.5471	7.771781	0.000868	8.682854	1.470915	0.034685
  80	3.9500e-02	1.5682	7.888741	0.000586	5.855878	0.992013	0.023392
  81	4.0000e-02	1.5881	8.054098	0.000828	8.279001	1.402501	0.033071
  82	4.0500e-02	1.6081	8.227521	0.000868	8.682854	1.470915	0.034685
  83	4.1000e-02	1.6277	8.413044	0.000929	9.288635	1.573537	0.037105
  84	4.1500e-02	1.6470	8.530004	0.000586	5.855878	0.992013	0.023392
  85	4.2000e-02	1.6679	8.699394	0.000848	8.480927	1.436708	0.033878
  86	4.2500e-02	1.6862	8.860718	0.000808	8.077074	1.368293	0.032265
  87	4.3000e-02	1.7075	9.013975	0.000767	7.673220	1.299879	0.030652
  88	4.3500e-02	1.7279	9.243862	0.001151	11.509830	1.949818	0.045977
  89	4.4000e-02	1.7477	9.372921	0.000646	6.461659	1.094635	0.025812
  90	4.4500e-02	1.7673	9.538278	0.000828	8.279001	1.402501	0.033071
  91	4.5000e-02	1.7873	9.727834	0.000949	9.490562	1.607745	0.037911
  92	4.5500e-02	1.8079	9.840761	0.000565	5.653952	0.957805	0.022585
  93	4.6000e-02	1.8277	9.973853	0.000666	6.663586	1.128842	0.026618
  94	4.6500e-02	1.8488	10.183574	0.001050	10.500196	1.778781	0.041944
  95	4.7000e-02	1.8677	10.328766	0.000727	7.269366	1.231464	0.029038
  96	4.7500e-02	1.8884	10.498156	0.000848	8.480927	1.436708	0.033878
  97	4.8000e-02	1.9073	10.691744	0.000969	9.692488	1.641952	0.038718
  98	4.8500e-02	1.9266	10.796605	0.000525	5.250098	0.889391	0.020972
  99	4.9000e-02	1.9467	10.953896	0.000788	7.875147	1.334086	0.031458
 100	4.9500e-02	1.9678	11.123286	0.000848	8.480927	1.436708	0.033878
 101	5.0000e-02	1.9879	11.272511	0.000747	7.471293	1.265671	0.029845
 102	5.0500e-02	2.0076	11.449967	0.000888	8.884781	1.505123	0.035491
 103	5.1000e-02	2.0273	11.583059	0.000666	6.663586	1.128842	0.026618
 104	5.1500e-02	2.0480	11.804880	0.001111	11.105976	1.881403	0.044364
 105	5.2000e-02	2.0670	11.905707	0.000505	5.048171	0.855183	0.020165
 106	5.2500e-02	2.0881	12.087197	0.000909	9.086708	1.539330	0.036298
 107	5.3000e-02	2.1062	12.248520	0.000808	8.077074	1.368293	0.032265
 108	5.3500e-02	2.1278	12.409844	0.000808	8.077074	1.368293	0.032265
 109	5.4000e-02	2.1466	12.567135	0.000788	7.875147	1.334086	0.031458
 110	5.4500e-02	2.1679	12.776856	0.001050	10.500196	1.778781	0.041944
 111	5.5000e-02	2.1875	12.905916	0.000646	6.461659	1.094635	0.025812
 112	5.5500e-02	2.2083	13.047074	0.000707	7.067439	1.197257	0.028232
 113	5.6000e-02	2.2278	13.216464	0.000848	8.480927	1.436708	0.033878
 114	5.6500e-02	2.2488	13.381821	0.000828	8.279001	1.402501	0.033071
 115	5.7000e-02	2.2681	13.615741	0.001171	11.711757	1.984025	0.046784
 116	5.7500e-02	2.2879	13.748833	0.000666	6.663586	1.128842	0.026618
 117	5.8000e-02	2.3076	13.910157	0.000808	8.077074	1.368293	0.032265
 118	5.8500e-02	2.3280	14.047282	0.000687	6.865513	1.163049	0.027425
 119	5.9000e-02	2.3483	14.208606	0.000808	8.077074	1.368293	0.032265
 120	5.9500e-02	2.3675	14.341699	0.000666	6.663586	1.128842	0.026618
 121	6.0000e-02	2.3890	14.571585	0.001151	11.509830	1.949818	0.045977
 122	6.0500e-02	2.4075	14.728876	0.000788	7.875147	1.334086	0.031458
 123	6.1000e-02	2.4294	14.853902	0.000626	6.259732	1.060427	0.025005
 124	6.1500e-02	2.4487	15.023292	0.000848	8.480927	1.436708	0.033878
 125	6.2000e-02	2.4685	15.192682	0.000848	8.480927	1.436708	0.033878
 126	6.2500e-02	2.4881	15.374172	0.000909	9.086708	1.539330	0.036298
 127	6.3000e-02	2.5079	15.523397	0.000747	7.471293	1.265671	0.029845
 128	6.3500e-02	2.5287	15.749250	0.001131	11.307903	1.915611	0.045171
 129	6.4000e-02	2.5478	15.854111	0.000525	5.250098	0.889391	0.020972
 130	6.4500e-02	2.5668	16.047699	0.000969	9.692488	1.641952	0.038718
 131	6.5000e-02	2.5873	16.237255	0.000949	9.490562	1.607745	0.037911
 132	6.5500e-02	2.6071	16.394546	0.000788	7.875147	1.334086	0.031458
 133	6.6000e-02	2.6280	16.527638	0.000666	6.663586	1.128842	0.026618
 134	6.6500e-02	2.6481	16.709128	0.000909	9.086708	1.539330	0.036298
 135	6.7000e-02	2.6660	16.813988	0.000525	5.250098	0.889391	0.020972
 136	6.7500e-02	2.6880	16.983378	0.000848	8.480927	1.436708	0.033878
 137	6.8000e-02	2.7071	17.201166	0.001090	10.904049	1.847196	0.043557
 138	6.8500e-02	2.7278	17.334258	0.000666	6.663586	1.128842	0.026618
 139	6.9000e-02	2.7484	17.475416	0.000707	7.067439	1.197257	0.028232
 140	6.9500e-02	2.7670	17.660939	0.000929	9.288635	1.573537	0.037105
 141	7.0000e-02	2.7875	17.818230	0.000788	7.875147	1.334086	0.031458
 142	7.0500e-02	2.8076	17.983587	0.000828	8.279001	1.402501	0.033071
 143	7.1000e-02	2.8278	18.169109	0.000929	9.288635	1.573537	0.037105
 144	7.1500e-02	2.8476	18.322367	0.000767	7.673220	1.299879	0.030652
 145	7.2000e-02	2.8682	18.459492	0.000687	6.865513	1.163049	0.027425
 146	7.2500e-02	2.8874	18.604684	0.000727	7.269366	1.231464	0.029038
 147	7.3000e-02	2.9077	18.842637	0.001191	11.913684	2.018233	0.047591
 148	7.3500e-02	2.9276	19.020093	0.000888	8.884781	1.505123	0.035491
 149	7.4000e-02	2.9478	19.124954	0.000525	5.250098	0.889391	0.020972
 150	7.4500e-02	2.9676	19.330642	0.001030	10.298269	1.744574	0.041138
 151	7.5000e-02	2.9892	19.471800	0.000707	7.067439	1.197257	0.028232
 152	7.5500e-02	3.0079	19.596826	0.000626	6.259732	1.060427	0.025005
 153	7.6000e-02	3.0284	19.810580	0.001070	10.702123	1.812989	0.042751
 154	7.6500e-02	3.0475	19.919474	0.000545	5.452025	0.923598	0.021779
 155	7.7000e-02	3.0677	20.064666	0.000727	7.269366	1.231464	0.029038
 156	7.7500e-02	3.0879	20.262287	0.000989	9.894415	1.676159	0.039524
 157	7.8000e-02	3.1079	20.435711	0.000868	8.682854	1.470915	0.034685
 158	7.8500e-02	3.1281	20.617200	0.000909	9.086708	1.539330	0.036298
 159	7.9000e-02	3.1480	20.697862	0.000404	4.038537	0.684147	0.016132
 160	7.9500e-02	3.1677	20.927749	0.001151	11.509830	1.949818	0.045977
 161	8.0000e-02	3.1882	21.048742	0.000606	6.057805	1.026220	0.024199
 162	8.0500e-02	3.2077	21.218132	0.000848	8.480927	1.436708	0.033878
 163	8.1000e-02	3.2269	21.387522	0.000848	8.480927	1.436708	0.033878
 164	8.1500e-02	3.2477	21.548846	0.000808	8.077074	1.368293	0.032265
 165	8.2000e-02	3.2684	21.730335	0.000909	9.086708	1.539330	0.036298
 166	8.2500e-02	3.2883	21.871494	0.000707	7.067439	1.197257	0.028232
 167	8.3000e-02	3.3075	22.052983	0.000909	9.086708	1.539330	0.036298
 168	8.3500e-02	3.3276	22.169943	0.000586	5.855878	0.992013	0.023392
 169	8.4000e-02	3.3476	22.395797	0.001131	11.307903	1.915611	0.045171
 170	8.4500e-02	3.3679	22.516789	0.000606	6.057805	1.026220	0.024199
 171	8.5000e-02	3.3881	22.661981	0.000727	7.269366	1.231464	0.029038
 172	8.5500e-02	3.4076	22.859603	0.000989	9.894415	1.676159	0.039524
 173	8.6000e-02	3.4280	22.980596	0.000606	6.057805	1.026220	0.024199
 174	8.6500e-02	3.4473	23.170151	0.000949	9.490562	1.607745	0.037911
 175	8.7000e-02	3.4681	23.299211	0.000646	6.461659	1.094635	0.025812
 176	8.7500e-02	3.4883	23.440369	0.000707	7.067439	1.197257	0.028232
 177	8.8000e-02	3.5080	23.650090	0.001050	10.500196	1.778781	0.041944
 178	8.8500e-02	3.5278	23.779149	0.000646	6.461659	1.094635	0.025812
 179	8.9000e-02	3.5480	23.936440	0.000788	7.875147	1.334086	0.031458
 180	8.9500e-02	3.5677	24.097764	0.000808	8.077074	1.368293	0.032265
 181	9.0000e-02	3.5883	24.259088	0.000808	8.077074	1.368293	0.032265
 182	9.0500e-02	3.6072	24.404280	0.000727	7.269366	1.231464	0.029038
 183	9.1000e-02	3.6275	24.497041	0.000464	4.644317	0.786769	0.018552
 184	9.1500e-02	3.6478	24.698696	0.001010	10.096342	1.710367	0.040331
 185	9.2000e-02	3.6682	24.880185	0.000909	9.086708	1.539330	0.036298
 186	9.2500e-02	3.6880	25.029410	0.000747	7.471293	1.265671	0.029845
 187	9.3000e-02	3.7082	25.198800	0.000848	8.480927	1.436708	0.033878
 188	9.3500e-02	3.7280	25.388356	0.000949	9.490562	1.607745	0.037911
 189	9.4000e-02	3.7479	25.537580	0.000747	7.471293	1.265671	0.029845
 190	9.4500e-02	3.7680	25.666640	0.000646	6.461659	1.094635	0.025812
 191	9.5000e-02	3.7891	25.860228	0.000969	9.692488	1.641952	0.038718
 192	9.5500e-02	3.8069	26.037685	0.000888	8.884781	1.505123	0.035491
 193	9.6000e-02	3.8277	26.186909	0.000747	7.471293	1.265671	0.029845
 194	9.6500e-02	3.8477	26.328068	0.000707	7.067439	1.197257	0.028232
 195	9.7000e-02	3.8684	26.400663	0.000363	3.634683	0.615732	0.014519
 196	9.7500e-02	3.8879	26.614418	0.001070	10.702123	1.812989	0.042751
 197	9.8000e-02	3.9075	26.723311	0.000545	5.452025	0.923598	0.021779
 198	9.8500e-02	3.9282	26.908834	0.000929	9.288635	1.573537	0.037105
 199	9.9000e-02	3.9478	27.070158	0.000808	8.077074	1.368293	0.032265
 200	9.9500e-02	3.9682	27.219382	0.000747	7.471293	1.265671	0.029845
 201	1.0000e-01	3.9879	27.372640	0.000767	7.673220	1.299879	0.030652
 202	1.0050e-01	4.0076	27.582361	0.001050	10.500196	1.778781	0.041944
 203	1.0100e-01	4.0286	27.735619	0.000767	7.673220	1.299879	0.030652
 204	1.0150e-01	4.0482	27.844513	0.000545	5.452025	0.923598	0.021779
 205	1.0200e-01	4.0681	27.973572	0.000646	6.461659	1.094635	0.025812
 206	1.0250e-01	4.0881	28.146995	0.000868	8.682854	1.470915	0.034685
 207	1.0300e-01	4.1064	28.372849	0.001131	11.307903	1.915611	0.045171
 208	1.0350e-01	4.1284	28.437378	0.000323	3.230829	0.547317	0.012906
 209	1.0400e-01	4.1489	28.626934	0.000949	9.490562	1.607745	0.037911
 210	1.0450e-01	4.1676	28.760026	0.000666	6.663586	1.128842	0.026618
 211	1.0500e-01	4.1876	28.885052	0.000626	6.259732	1.060427	0.025005
 212	1.0550e-01	4.2075	29.070575	0.000929	9.288635	1.573537	0.037105
 213	1.0600e-01	4.2280	29.203667	0.000666	6.663586	1.128842	0.026618
 214	1.0650e-01	4.2480	29.352892	0.000747	7.471293	1.265671	0.029845
 215	1.0700e-01	4.2688	29.481951	0.000646	6.461659	1.094635	0.025812
 216	1.0750e-01	4.2877	29.675540	0.000969	9.692488	1.641952	0.038718
 217	1.0800e-01	4.3076	29.808632	0.000666	6.663586	1.128842	0.026618
 218	1.0850e-01	4.3282	29.978022	0.000848	8.480927	1.436708	0.033878
 219	1.0900e-01	4.3477	30.131280	0.000767	7.673220	1.299879	0.030652
 220	1.0950e-01	4.3678	30.240173	0.000545	5.452025	0.923598	0.021779
 221	1.1000e-01	4.3886	30.413597	0.000868	8.682854	1.470915	0.034685
 222	1.1050e-01	4.4077	30.510391	0.000485	4.846244	0.820976	0.019359
 223	1.1100e-01	4.4290	30.675748	0.000828	8.279001	1.402501	0.033071
 224	1.1150e-01	4.4492	30.837072	0.000808	8.077074	1.368293	0.032265
 225	1.1200e-01	4.4684	31.014528	0.000888	8.884781	1.505123	0.035491
 226	1.1250e-01	4.4862	31.115356	0.000505	5.048171	0.855183	0.020165
 227	1.1300e-01	4.5071	31.252481	0.000687	6.865513	1.163049	0.027425
 228	1.1350e-01	4.5279	31.421871	0.000848	8.480927	1.436708	0.033878
 229	1.1400e-01	4.5483	31.558997	0.000687	6.865513	1.163049	0.027425
 230	1.1450e-01	4.5685	31.744519	0.000929	9.288635	1.573537	0.037105
 231	1.1500e-01	4.5889	31.946174	0.001010	10.096342	1.710367	0.040331
 232	1.1550e-01	4.6082	32.038935	0.000464	4.644317	0.786769	0.018552
 233	1.1600e-01	4.6292	32.163961	0.000626	6.259732	1.060427	0.025005
 234	1.1650e-01	4.6481	32.321252	0.000788	7.875147	1.334086	0.031458
 235	1.1700e-01	4.6680	32.539040	0.001090	10.904049	1.847196	0.043557
 236	1.1750e-01	4.6881	32.615668	0.000384	3.836610	0.649939	0.015326
 237	1.1800e-01	4.7089	32.797158	0.000909	9.086708	1.539330	0.036298
 238	1.1850e-01	4.7285	32.926217	0.000646	6.461659	1.094635	0.025812
 239	1.1900e-01	4.7476	33.059309	0.000666	6.663586	1.128842	0.026618
 240	1.1950e-01	4.7678	33.212567	0.000767	7.673220	1.299879	0.030652
 241	1.2000e-01	4.7877	33.406156	0.000969	9.692488	1.641952	0.038718
 242	1.2050e-01	4.8080	33.519082	0.000565	5.653952	0.957805	0.022585
 243	1.2100e-01	4.8285	33.619910	0.000505	5.048171	0.855183	0.020165
 244	1.2150e-01	4.8480	33.761068	0.000707	7.067439	1.197257	0.028232
 245	1.2200e-01	4.8685	33.950624	0.000949	9.490562	1.607745	0.037911
 246	1.2250e-01	4.8889	34.055485	0.000525	5.250098	0.889391	0.020972
 247	1.2300e-01	4.9081	34.200676	0.000727	7.269366	1.231464	0.029038
 248	1.2350e-01	4.9289	34.329735	0.000646	6.461659	1.094635	0.025812
 249	1.2400e-01	4.9496	34.462828	0.000666	6.663586	1.128842	0.026618
 250	1.2450e-01	4.9683	34.603986	0.000707	7.067439	1.197257	0.028232
 251	1.2500e-01	4.9890	34.777409	0.000868	8.682854	1.470915	0.034685
 252	1.2550e-01	5.0079	34.926634	0.000747	7.471293	1.265671	0.029845
 253	1.2600e-01	5.0287	35.063759	0.000687	6.865513	1.163049	0.027425
 254	1.2650e-01	5.0490	35.225083	0.000808	8.077074	1.368293	0.032265
 255	1.2700e-01	5.0684	35.370275	0.000727	7.269366	1.231464	0.029038
 256	1.2750e-01	5.0876	35.503367	0.000666	6.663586	1.128842	0.026618
 257	1.2800e-01	5.1086	35.632426	0.000646	6.461659	1.094635	0.025812
 258	1.2850e-01	5.1276	35.785684	0.000767	7.673220	1.299879	0.030652
 259	1.2900e-01	5.1471	35.902644	0.000586	5.855878	0.992013	0.023392
 260	1.2950e-01	5.1678	36.055902	0.000767	7.673220	1.299879	0.030652
 261	1.3000e-01	5.1877	36.176894	0.000606	6.057805	1.026220	0.024199
 262	1.3050e-01	5.2078	36.314020	0.000687	6.865513	1.163049	0.027425
