»»»»»»»»»»»»»»»»»»»»»»»»»»»»»»»»»»»» Hysteresis ««««««««««««««««««««««««««««««««««««
»»»  Executed Version:	5.48.1
»»»  Vision Version:	5.48.4 (R)
»»»  Vision Compiled:	9/18/24
»»»  Driver Version:	5.47.0
»»»  Windows Version:	Windows 8 or 8.1
»»»  Processor Information:	x86 (AMD or Intel) - 32 Processors
»»»  Tester Name:	PMF21124-494 (100V)
»»»  Tester S/N:	PMF21124-494
»»»  Internal Amp Type:	100V RevK 270k
»»»  Internal Amp S/N:	iAB2-596/K     
»»»  Execution Count:	1
»»»»»»»»»»»»»»»»»»»»»»»»»»»»»»»»»»»»»»»»»»««««««««««««««««««««««««««««««««««««««««««

Stored:	7/3/2025 - 12:4:23
Configured:	07/03/25 12:01:19 PM
Executed:	07/03/25 12:03:54 PM

»»»»»»»»»»»»»»»»»»»»»»»»»»»»»»»»»»» Sample Info ««««««««««««««««««««««««««««««««««««
Sample Name:	
Lot Name:	
Wafer Name:	
Die Row/Column:	0/0
Capacitor Number:	0
Sample Area (cm2):	1.00e-04
Sample Thickness (microns):	1.50e-01

Amplifier:	Internal

»»»»»»»»»»»»»»»»»»»»»»»»»»»»»»»»»»» Tester Info «««««««««««««««««««««««««««««««««««
Tester Name:	PMF21124-494 (100V)
Tester Serial Number:	PMF21124-494
Return Signal Amp. Level:	0.19 [Index: 3]

»»»»»»»»»»»»»»»»»»»»»»»»»»»»»»»» Hysteresis Info ««««««««««««««««««««««««««««««««««
Task Name:	Hyst-410
Volts:	10.00
Field:	666.67 (kV/cm)
DCBias:	0.00
DCField:	0.00 (kV/cm)
Hysteresis Period (ms):	2.00e+02
Preset:	Enabled
Preset Delay (ms):	1.00e+03
Profile:	Standard Bipolar

»»»»»»»»»»»»»»»»»»»»»»»»»»»»»»»»»»»»»» Data «««««««««««««««««««««««««««««««««««««««
Points:	2009

Valid Data

Point	Time (ms)	Drive Voltage	Measured Polarization (uC/cm2)	Capacitance (uF)	Normalized Capacitance (uF/cm2)	Dielectric Constant	Instantaneous Current (mA)
   1	0.0000e+00	0.0009	26.923658	0.000345	3.445206	0.583634	0.000069
   2	9.9500e-02	0.0220	26.992290	0.000345	3.445206	0.583634	0.000069
   3	1.9900e-01	0.0412	27.113404	0.000608	6.079776	1.029942	0.000122
   4	2.9850e-01	0.0616	27.198183	0.000426	4.255843	0.720959	0.000085
   5	3.9800e-01	0.0815	27.323335	0.000628	6.282435	1.064273	0.000126
   6	4.9750e-01	0.1015	27.420226	0.000486	4.863821	0.823954	0.000097
   7	5.9700e-01	0.1221	27.529229	0.000547	5.471798	0.926948	0.000110
   8	6.9650e-01	0.1374	27.601897	0.000365	3.647865	0.617965	0.000073
   9	7.9600e-01	0.1607	27.727048	0.000628	6.282435	1.064273	0.000126
  10	8.9550e-01	0.1797	27.783568	0.000284	2.837229	0.480640	0.000057
  11	9.9500e-01	0.2010	27.936979	0.000770	7.701049	1.304593	0.000154
  12	1.0945e+00	0.2198	27.969276	0.000162	1.621274	0.274651	0.000032
  13	1.1940e+00	0.2406	28.074242	0.000527	5.269139	0.892616	0.000105
  14	1.2935e+00	0.2605	28.187282	0.000567	5.674457	0.961279	0.000114
  15	1.3930e+00	0.2802	28.316470	0.000649	6.485094	1.098605	0.000130
  16	1.4925e+00	0.3003	28.397213	0.000405	4.053184	0.686628	0.000081
  17	1.5920e+00	0.3197	28.514290	0.000588	5.877116	0.995610	0.000118
  18	1.6915e+00	0.3404	28.651552	0.000689	6.890412	1.167267	0.000138
  19	1.7910e+00	0.3601	28.720184	0.000345	3.445206	0.583634	0.000069
  20	1.8905e+00	0.3796	28.825149	0.000527	5.269139	0.892616	0.000105
  21	1.9900e+00	0.4000	28.942226	0.000588	5.877116	0.995610	0.000118
  22	2.0895e+00	0.4187	29.051229	0.000547	5.471798	0.926948	0.000110
  23	2.1890e+00	0.4396	29.152157	0.000507	5.066480	0.858285	0.000101
  24	2.2885e+00	0.4606	29.240974	0.000446	4.458502	0.755291	0.000089
  25	2.3880e+00	0.4798	29.337865	0.000486	4.863821	0.823954	0.000097
  26	2.4875e+00	0.5000	29.467054	0.000649	6.485094	1.098605	0.000130
  27	2.5870e+00	0.5193	29.584131	0.000588	5.877116	0.995610	0.000118
  28	2.6865e+00	0.5396	29.644688	0.000304	3.039888	0.514971	0.000061
  29	2.7860e+00	0.5595	29.790025	0.000730	7.295731	1.235930	0.000146
  30	2.8855e+00	0.5798	29.874804	0.000426	4.255843	0.720959	0.000085
  31	2.9850e+00	0.5986	29.999956	0.000628	6.282435	1.064273	0.000126
  32	3.0845e+00	0.6185	30.088773	0.000446	4.458502	0.755291	0.000089
  33	3.1840e+00	0.6392	30.221998	0.000669	6.687753	1.132936	0.000134
  34	3.2835e+00	0.6591	30.322927	0.000507	5.066480	0.858285	0.000101
  35	3.3830e+00	0.6796	30.415781	0.000466	4.661161	0.789622	0.000093
  36	3.4825e+00	0.6991	30.520746	0.000527	5.269139	0.892616	0.000105
  37	3.5820e+00	0.7188	30.645897	0.000628	6.282435	1.064273	0.000126
  38	3.6815e+00	0.7391	30.746826	0.000507	5.066480	0.858285	0.000101
  39	3.7810e+00	0.7587	30.859866	0.000567	5.674457	0.961279	0.000114
  40	3.8805e+00	0.7788	30.936571	0.000385	3.850525	0.652297	0.000077
  41	3.9800e+00	0.7983	31.065760	0.000649	6.485094	1.098605	0.000130
  42	4.0795e+00	0.8188	31.162651	0.000486	4.863821	0.823954	0.000097
  43	4.1790e+00	0.8392	31.303951	0.000709	7.093072	1.201599	0.000142
  44	4.2785e+00	0.8590	31.384693	0.000405	4.053184	0.686628	0.000081
  45	4.3780e+00	0.8791	31.497733	0.000567	5.674457	0.961279	0.000114
  46	4.4775e+00	0.8979	31.622884	0.000628	6.282435	1.064273	0.000126
  47	4.5770e+00	0.9187	31.719775	0.000486	4.863821	0.823954	0.000097
  48	4.6765e+00	0.9391	31.812630	0.000466	4.661161	0.789622	0.000093
  49	4.7760e+00	0.9583	31.974115	0.000811	8.106368	1.373256	0.000162
  50	4.8755e+00	0.9777	32.062932	0.000446	4.458502	0.755291	0.000089
  51	4.9750e+00	0.9978	32.171935	0.000547	5.471798	0.926948	0.000110
  52	5.0745e+00	1.0182	32.264789	0.000466	4.661161	0.789622	0.000093
  53	5.1740e+00	1.0381	32.369754	0.000527	5.269139	0.892616	0.000105
  54	5.2735e+00	1.0588	32.498943	0.000649	6.485094	1.098605	0.000130
  55	5.3730e+00	1.0786	32.603908	0.000527	5.269139	0.892616	0.000105
  56	5.4725e+00	1.0983	32.704837	0.000507	5.066480	0.858285	0.000101
  57	5.5720e+00	1.1181	32.854211	0.000750	7.498390	1.270262	0.000150
  58	5.6715e+00	1.1382	32.967250	0.000567	5.674457	0.961279	0.000114
  59	5.7710e+00	1.1573	33.043956	0.000385	3.850525	0.652297	0.000077
  60	5.8705e+00	1.1775	33.148922	0.000527	5.269139	0.892616	0.000105
  61	5.9700e+00	1.1979	33.270036	0.000608	6.079776	1.029942	0.000122
  62	6.0695e+00	1.2182	33.370964	0.000507	5.066480	0.858285	0.000101
  63	6.1690e+00	1.2376	33.504189	0.000669	6.687753	1.132936	0.000134
  64	6.2685e+00	1.2572	33.617229	0.000567	5.674457	0.961279	0.000114
  65	6.3680e+00	1.2762	33.722195	0.000527	5.269139	0.892616	0.000105
  66	6.4675e+00	1.2962	33.819086	0.000486	4.863821	0.823954	0.000097
  67	6.5670e+00	1.3154	33.968460	0.000750	7.498390	1.270262	0.000150
  68	6.6665e+00	1.3361	34.065351	0.000486	4.863821	0.823954	0.000097
  69	6.7660e+00	1.3564	34.202614	0.000689	6.890412	1.167267	0.000138
  70	6.8655e+00	1.3756	34.311617	0.000547	5.471798	0.926948	0.000110
  71	6.9650e+00	1.3966	34.424656	0.000567	5.674457	0.961279	0.000114
  72	7.0645e+00	1.4169	34.509436	0.000426	4.255843	0.720959	0.000085
  73	7.1640e+00	1.4364	34.650736	0.000709	7.093072	1.201599	0.000142
  74	7.2635e+00	1.4559	34.763776	0.000567	5.674457	0.961279	0.000114
  75	7.3630e+00	1.4764	34.880853	0.000588	5.877116	0.995610	0.000118
  76	7.4625e+00	1.4954	35.018115	0.000689	6.890412	1.167267	0.000138
  77	7.5620e+00	1.5150	35.123081	0.000527	5.269139	0.892616	0.000105
  78	7.6615e+00	1.5362	35.211898	0.000446	4.458502	0.755291	0.000089
  79	7.7610e+00	1.5553	35.337049	0.000628	6.282435	1.064273	0.000126
  80	7.8605e+00	1.5759	35.450089	0.000567	5.674457	0.961279	0.000114
  81	7.9600e+00	1.5959	35.587352	0.000689	6.890412	1.167267	0.000138
  82	8.0595e+00	1.6158	35.704428	0.000588	5.877116	0.995610	0.000118
  83	8.1590e+00	1.6360	35.805357	0.000507	5.066480	0.858285	0.000101
  84	8.2585e+00	1.6561	35.918397	0.000567	5.674457	0.961279	0.000114
  85	8.3580e+00	1.6759	36.027399	0.000547	5.471798	0.926948	0.000110
  86	8.4575e+00	1.6949	36.168699	0.000709	7.093072	1.201599	0.000142
  87	8.5570e+00	1.7136	36.289813	0.000608	6.079776	1.029942	0.000122
  88	8.6565e+00	1.7349	36.398816	0.000547	5.471798	0.926948	0.000110
  89	8.7560e+00	1.7547	36.507818	0.000547	5.471798	0.926948	0.000110
  90	8.8555e+00	1.7747	36.620858	0.000567	5.674457	0.961279	0.000114
  91	8.9550e+00	1.7941	36.762158	0.000709	7.093072	1.201599	0.000142
  92	9.0545e+00	1.8154	36.855012	0.000466	4.661161	0.789622	0.000093
  93	9.1540e+00	1.8346	36.972089	0.000588	5.877116	0.995610	0.000118
  94	9.2535e+00	1.8540	37.121463	0.000750	7.498390	1.270262	0.000150
  95	9.3530e+00	1.8743	37.238540	0.000588	5.877116	0.995610	0.000118
  96	9.4525e+00	1.8948	37.323320	0.000426	4.255843	0.720959	0.000085
  97	9.5520e+00	1.9103	37.460583	0.000689	6.890412	1.167267	0.000138
  98	9.6515e+00	1.9347	37.569585	0.000547	5.471798	0.926948	0.000110
  99	9.7510e+00	1.9549	37.690699	0.000608	6.079776	1.029942	0.000122
 100	9.8505e+00	1.9748	37.791628	0.000507	5.066480	0.858285	0.000101
 101	9.9500e+00	1.9946	37.936965	0.000730	7.295731	1.235930	0.000146
 102	1.0050e+01	2.0146	38.037893	0.000507	5.066480	0.858285	0.000101
 103	1.0149e+01	2.0339	38.167081	0.000649	6.485094	1.098605	0.000130
 104	1.0248e+01	2.0547	38.268010	0.000507	5.066480	0.858285	0.000101
 105	1.0348e+01	2.0739	38.409309	0.000709	7.093072	1.201599	0.000142
 106	1.0447e+01	2.0947	38.514275	0.000527	5.269139	0.892616	0.000105
 107	1.0547e+01	2.1144	38.659612	0.000730	7.295731	1.235930	0.000146
 108	1.0646e+01	2.1340	38.764577	0.000527	5.269139	0.892616	0.000105
 109	1.0746e+01	2.1535	38.841283	0.000385	3.850525	0.652297	0.000077
 110	1.0845e+01	2.1739	38.966434	0.000628	6.282435	1.064273	0.000126
 111	1.0945e+01	2.1941	39.095622	0.000649	6.485094	1.098605	0.000130
 112	1.1044e+01	2.2137	39.208662	0.000567	5.674457	0.961279	0.000114
 113	1.1144e+01	2.2341	39.337851	0.000649	6.485094	1.098605	0.000130
 114	1.1243e+01	2.2527	39.458965	0.000608	6.079776	1.029942	0.000122
 115	1.1343e+01	2.2735	39.572005	0.000567	5.674457	0.961279	0.000114
 116	1.1443e+01	2.2933	39.713304	0.000709	7.093072	1.201599	0.000142
 117	1.1542e+01	2.3129	39.818270	0.000527	5.269139	0.892616	0.000105
 118	1.1642e+01	2.3335	39.939384	0.000608	6.079776	1.029942	0.000122
 119	1.1741e+01	2.3540	40.040312	0.000507	5.066480	0.858285	0.000101
 120	1.1841e+01	2.3733	40.104906	0.000324	3.242547	0.549302	0.000065
 121	1.1940e+01	2.3922	40.262355	0.000790	7.903708	1.338924	0.000158
 122	1.2040e+01	2.4126	40.363283	0.000507	5.066480	0.858285	0.000101
 123	1.2139e+01	2.4334	40.452100	0.000446	4.458502	0.755291	0.000089
 124	1.2239e+01	2.4517	40.633771	0.000912	9.119664	1.544913	0.000183
 125	1.2338e+01	2.4725	40.750848	0.000588	5.877116	0.995610	0.000118
 126	1.2438e+01	2.4929	40.843702	0.000466	4.661161	0.789622	0.000093
 127	1.2537e+01	2.5126	40.964816	0.000608	6.079776	1.029942	0.000122
 128	1.2636e+01	2.5323	41.053633	0.000446	4.458502	0.755291	0.000089
 129	1.2736e+01	2.5527	41.178785	0.000628	6.282435	1.064273	0.000126
 130	1.2835e+01	2.5704	41.303936	0.000628	6.282435	1.064273	0.000126
 131	1.2935e+01	2.5920	41.445235	0.000709	7.093072	1.201599	0.000142
 132	1.3034e+01	2.6119	41.562312	0.000588	5.877116	0.995610	0.000118
 133	1.3134e+01	2.6324	41.643055	0.000405	4.053184	0.686628	0.000081
 134	1.3233e+01	2.6519	41.768206	0.000628	6.282435	1.064273	0.000126
 135	1.3333e+01	2.6720	41.897395	0.000649	6.485094	1.098605	0.000130
 136	1.3432e+01	2.6922	42.006397	0.000547	5.471798	0.926948	0.000110
 137	1.3532e+01	2.7119	42.147697	0.000709	7.093072	1.201599	0.000142
 138	1.3632e+01	2.7325	42.232477	0.000426	4.255843	0.720959	0.000085
 139	1.3731e+01	2.7514	42.357628	0.000628	6.282435	1.064273	0.000126
 140	1.3831e+01	2.7718	42.462594	0.000527	5.269139	0.892616	0.000105
 141	1.3930e+01	2.7921	42.555448	0.000466	4.661161	0.789622	0.000093
 142	1.4030e+01	2.8127	42.708859	0.000770	7.701049	1.304593	0.000154
 143	1.4129e+01	2.8304	42.801713	0.000466	4.661161	0.789622	0.000093
 144	1.4229e+01	2.8515	42.922827	0.000608	6.079776	1.029942	0.000122
 145	1.4328e+01	2.8713	43.027793	0.000527	5.269139	0.892616	0.000105
 146	1.4428e+01	2.8917	43.148907	0.000608	6.079776	1.029942	0.000122
 147	1.4527e+01	2.9112	43.265984	0.000588	5.877116	0.995610	0.000118
 148	1.4627e+01	2.9308	43.387098	0.000608	6.079776	1.029942	0.000122
 149	1.4726e+01	2.9503	43.475915	0.000446	4.458502	0.755291	0.000089
 150	1.4825e+01	2.9707	43.560695	0.000426	4.255843	0.720959	0.000085
 151	1.4925e+01	2.9900	43.718143	0.000790	7.903708	1.338924	0.000158
 152	1.5024e+01	3.0105	43.806960	0.000446	4.458502	0.755291	0.000089
 153	1.5124e+01	3.0297	43.956334	0.000750	7.498390	1.270262	0.000150
 154	1.5223e+01	3.0514	44.045151	0.000446	4.458502	0.755291	0.000089
 155	1.5323e+01	3.0703	44.138005	0.000466	4.661161	0.789622	0.000093
 156	1.5422e+01	3.0911	44.230859	0.000466	4.661161	0.789622	0.000093
 157	1.5522e+01	3.1103	44.388307	0.000790	7.903708	1.338924	0.000158
 158	1.5621e+01	3.1306	44.505384	0.000588	5.877116	0.995610	0.000118
 159	1.5721e+01	3.1509	44.578053	0.000365	3.647865	0.617965	0.000073
 160	1.5820e+01	3.1704	44.683018	0.000527	5.269139	0.892616	0.000105
 161	1.5920e+01	3.1890	44.824318	0.000709	7.093072	1.201599	0.000142
 162	1.6020e+01	3.2107	44.892949	0.000345	3.445206	0.583634	0.000069
 163	1.6119e+01	3.2299	45.005989	0.000567	5.674457	0.961279	0.000114
 164	1.6218e+01	3.2503	45.139215	0.000669	6.687753	1.132936	0.000134
 165	1.6318e+01	3.2700	45.236106	0.000486	4.863821	0.823954	0.000097
 166	1.6418e+01	3.2903	45.349146	0.000567	5.674457	0.961279	0.000114
 167	1.6517e+01	3.3098	45.421814	0.000365	3.647865	0.617965	0.000073
 168	1.6616e+01	3.3311	45.567151	0.000730	7.295731	1.235930	0.000146
 169	1.6716e+01	3.3498	45.684228	0.000588	5.877116	0.995610	0.000118
 170	1.6816e+01	3.3703	45.777082	0.000466	4.661161	0.789622	0.000093
 171	1.6915e+01	3.3892	45.902233	0.000628	6.282435	1.064273	0.000126
 172	1.7015e+01	3.4106	45.974902	0.000365	3.647865	0.617965	0.000073
 173	1.7114e+01	3.4289	46.128313	0.000770	7.701049	1.304593	0.000154
 174	1.7213e+01	3.4496	46.229241	0.000507	5.066480	0.858285	0.000101
 175	1.7313e+01	3.4692	46.350355	0.000608	6.079776	1.029942	0.000122
 176	1.7413e+01	3.4886	46.423024	0.000365	3.647865	0.617965	0.000073
 177	1.7512e+01	3.5098	46.548175	0.000628	6.282435	1.064273	0.000126
 178	1.7611e+01	3.5287	46.649103	0.000507	5.066480	0.858285	0.000101
 179	1.7711e+01	3.5491	46.741958	0.000466	4.661161	0.789622	0.000093
 180	1.7811e+01	3.5680	46.842886	0.000507	5.066480	0.858285	0.000101
 181	1.7910e+01	3.5881	46.947851	0.000527	5.269139	0.892616	0.000105
 182	1.8009e+01	3.6097	47.064928	0.000588	5.877116	0.995610	0.000118
 183	1.8109e+01	3.6285	47.117411	0.000263	2.634569	0.446308	0.000053
 184	1.8209e+01	3.6492	47.262748	0.000730	7.295731	1.235930	0.000146
 185	1.8308e+01	3.6691	47.367714	0.000527	5.269139	0.892616	0.000105
 186	1.8407e+01	3.6886	47.440382	0.000365	3.647865	0.617965	0.000073
 187	1.8507e+01	3.7081	47.557459	0.000588	5.877116	0.995610	0.000118
 188	1.8607e+01	3.7286	47.678573	0.000608	6.079776	1.029942	0.000122
 189	1.8706e+01	3.7481	47.763353	0.000426	4.255843	0.720959	0.000085
 190	1.8805e+01	3.7682	47.876393	0.000567	5.674457	0.961279	0.000114
 191	1.8905e+01	3.7884	47.985395	0.000547	5.471798	0.926948	0.000110
 192	1.9005e+01	3.8070	48.106509	0.000608	6.079776	1.029942	0.000122
 193	1.9104e+01	3.8280	48.223586	0.000588	5.877116	0.995610	0.000118
 194	1.9203e+01	3.8479	48.308366	0.000426	4.255843	0.720959	0.000085
 195	1.9303e+01	3.8677	48.401220	0.000466	4.661161	0.789622	0.000093
 196	1.9402e+01	3.8877	48.510223	0.000547	5.471798	0.926948	0.000110
 197	1.9502e+01	3.9094	48.599040	0.000446	4.458502	0.755291	0.000089
 198	1.9602e+01	3.9288	48.704006	0.000527	5.269139	0.892616	0.000105
 199	1.9701e+01	3.9480	48.849342	0.000730	7.295731	1.235930	0.000146
 200	1.9800e+01	3.9672	48.974494	0.000628	6.282435	1.064273	0.000126
 201	1.9900e+01	3.9870	49.071385	0.000486	4.863821	0.823954	0.000097
 202	2.0000e+01	4.0063	49.123868	0.000263	2.634569	0.446308	0.000053
 203	2.0099e+01	4.0273	49.273242	0.000750	7.498390	1.270262	0.000150
 204	2.0198e+01	4.0477	49.329762	0.000284	2.837229	0.480640	0.000057
 205	2.0298e+01	4.0673	49.442801	0.000567	5.674457	0.961279	0.000114
 206	2.0398e+01	4.0878	49.559878	0.000588	5.877116	0.995610	0.000118
 207	2.0497e+01	4.1068	49.672918	0.000567	5.674457	0.961279	0.000114
 208	2.0596e+01	4.1277	49.761735	0.000446	4.458502	0.755291	0.000089
 209	2.0696e+01	4.1479	49.842478	0.000405	4.053184	0.686628	0.000081
 210	2.0796e+01	4.1673	49.987815	0.000730	7.295731	1.235930	0.000146
 211	2.0895e+01	4.1860	50.044335	0.000284	2.837229	0.480640	0.000057
 212	2.0994e+01	4.2068	50.133152	0.000446	4.458502	0.755291	0.000089
 213	2.1094e+01	4.2275	50.238117	0.000527	5.269139	0.892616	0.000105
 214	2.1194e+01	4.2467	50.363268	0.000628	6.282435	1.064273	0.000126
 215	2.1293e+01	4.2669	50.476308	0.000567	5.674457	0.961279	0.000114
 216	2.1392e+01	4.2867	50.544939	0.000345	3.445206	0.583634	0.000069
 217	2.1492e+01	4.3060	50.666054	0.000608	6.079776	1.029942	0.000122
 218	2.1591e+01	4.3267	50.750833	0.000426	4.255843	0.720959	0.000085
 219	2.1691e+01	4.3465	50.851762	0.000507	5.066480	0.858285	0.000101
 220	2.1791e+01	4.3664	50.968839	0.000588	5.877116	0.995610	0.000118
 221	2.1890e+01	4.3868	51.057656	0.000446	4.458502	0.755291	0.000089
 222	2.1989e+01	4.4067	51.174733	0.000588	5.877116	0.995610	0.000118
 223	2.2089e+01	4.4267	51.243364	0.000345	3.445206	0.583634	0.000069
 224	2.2189e+01	4.4463	51.364478	0.000608	6.079776	1.029942	0.000122
 225	2.2288e+01	4.4650	51.457332	0.000466	4.661161	0.789622	0.000093
 226	2.2387e+01	4.4860	51.622855	0.000831	8.309027	1.407587	0.000166
 227	2.2487e+01	4.5061	51.667263	0.000223	2.229251	0.377645	0.000045
 228	2.2587e+01	4.5257	51.780303	0.000567	5.674457	0.961279	0.000114
 229	2.2686e+01	4.5457	51.893343	0.000567	5.674457	0.961279	0.000114
 230	2.2785e+01	4.5654	51.990234	0.000486	4.863821	0.823954	0.000097
 231	2.2885e+01	4.5849	52.091162	0.000507	5.066480	0.858285	0.000101
 232	2.2985e+01	4.6053	52.208239	0.000588	5.877116	0.995610	0.000118
 233	2.3084e+01	4.6258	52.325316	0.000588	5.877116	0.995610	0.000118
 234	2.3183e+01	4.6447	52.397985	0.000365	3.647865	0.617965	0.000073
 235	2.3283e+01	4.6645	52.478727	0.000405	4.053184	0.686628	0.000081
 236	2.3383e+01	4.6850	52.599842	0.000608	6.079776	1.029942	0.000122
 237	2.3482e+01	4.7057	52.696733	0.000486	4.863821	0.823954	0.000097
 238	2.3581e+01	4.7247	52.805735	0.000547	5.471798	0.926948	0.000110
 239	2.3681e+01	4.7453	52.902627	0.000486	4.863821	0.823954	0.000097
 240	2.3780e+01	4.7637	53.019704	0.000588	5.877116	0.995610	0.000118
 241	2.3880e+01	4.7845	53.148892	0.000649	6.485094	1.098605	0.000130
 242	2.3980e+01	4.8052	53.237709	0.000446	4.458502	0.755291	0.000089
 243	2.4079e+01	4.8244	53.322489	0.000426	4.255843	0.720959	0.000085
 244	2.4178e+01	4.8452	53.411306	0.000446	4.458502	0.755291	0.000089
 245	2.4278e+01	4.8644	53.524346	0.000567	5.674457	0.961279	0.000114
 246	2.4378e+01	4.8846	53.637385	0.000567	5.674457	0.961279	0.000114
 247	2.4477e+01	4.9044	53.718128	0.000405	4.053184	0.686628	0.000081
 248	2.4576e+01	4.9249	53.835205	0.000588	5.877116	0.995610	0.000118
 249	2.4676e+01	4.9444	53.948245	0.000567	5.674457	0.961279	0.000114
 250	2.4776e+01	4.9642	54.045136	0.000486	4.863821	0.823954	0.000097
 251	2.4875e+01	4.9837	54.133953	0.000446	4.458502	0.755291	0.000089
 252	2.4974e+01	5.0042	54.238919	0.000527	5.269139	0.892616	0.000105
 253	2.5074e+01	5.0243	54.315624	0.000385	3.850525	0.652297	0.000077
 254	2.5174e+01	5.0433	54.440775	0.000628	6.282435	1.064273	0.000126
 255	2.5273e+01	5.0639	54.521518	0.000405	4.053184	0.686628	0.000081
 256	2.5372e+01	5.0829	54.634558	0.000567	5.674457	0.961279	0.000114
 257	2.5472e+01	5.1043	54.747598	0.000567	5.674457	0.961279	0.000114
 258	2.5572e+01	5.1235	54.832378	0.000426	4.255843	0.720959	0.000085
 259	2.5671e+01	5.1431	54.929269	0.000486	4.863821	0.823954	0.000097
 260	2.5770e+01	5.1633	55.026160	0.000486	4.863821	0.823954	0.000097
 261	2.5870e+01	5.1829	55.147274	0.000608	6.079776	1.029942	0.000122
