»»»»»»»»»»»»»»»»»»»»»»»»»»»»»»»»»»»» Hysteresis ««««««««««««««««««««««««««««««««««««
»»»  Executed Version:	5.48.1
»»»  Vision Version:	5.48.4 (R)
»»»  Vision Compiled:	9/18/24
»»»  Driver Version:	5.47.0
»»»  Windows Version:	Windows 8 or 8.1
»»»  Processor Information:	x86 (AMD or Intel) - 32 Processors
»»»  Tester Name:	PMF21124-494 (100V)
»»»  Tester S/N:	PMF21124-494
»»»  Internal Amp Type:	100V RevK 270k
»»»  Internal Amp S/N:	iAB2-596/K     
»»»  Execution Count:	1
»»»»»»»»»»»»»»»»»»»»»»»»»»»»»»»»»»»»»»»»»»««««««««««««««««««««««««««««««««««««««««««

Stored:	7/2/2025 - 18:14:21
Configured:	07/02/25 01:35:59 PM
Executed:	07/02/25 06:13:45 PM

»»»»»»»»»»»»»»»»»»»»»»»»»»»»»»»»»»» Sample Info ««««««««««««««««««««««««««««««««««««
Sample Name:	
Lot Name:	
Wafer Name:	
Die Row/Column:	0/0
Capacitor Number:	0
Sample Area (cm2):	1.00e-04
Sample Thickness (microns):	1.50e-01

Amplifier:	Internal

»»»»»»»»»»»»»»»»»»»»»»»»»»»»»»»»»»» Tester Info «««««««««««««««««««««««««««««««««««
Tester Name:	PMF21124-494 (100V)
Tester Serial Number:	PMF21124-494
Return Signal Amp. Level:	0.19 [Index: 3]

»»»»»»»»»»»»»»»»»»»»»»»»»»»»»»»» Hysteresis Info ««««««««««««««««««««««««««««««««««
Task Name:	Hyst-220
Volts:	10.00
Field:	666.67 (kV/cm)
DCBias:	0.00
DCField:	0.00 (kV/cm)
Hysteresis Period (ms):	2.00e+02
Preset:	Enabled
Preset Delay (ms):	1.00e+03
Profile:	Standard Bipolar

»»»»»»»»»»»»»»»»»»»»»»»»»»»»»»»»»»»»»» Data «««««««««««««««««««««««««««««««««««««««
Points:	2009

Valid Data

Point	Time (ms)	Drive Voltage	Measured Polarization (uC/cm2)	Capacitance (uF)	Normalized Capacitance (uF/cm2)	Dielectric Constant	Instantaneous Current (mA)
   1	0.0000e+00	0.0000	52.228425	0.000669	6.689284	1.133195	0.000134
   2	9.9500e-02	0.0188	52.361651	0.000669	6.689284	1.133195	0.000134
   3	1.9900e-01	0.0396	52.446430	0.000426	4.256817	0.721124	0.000085
   4	2.9850e-01	0.0586	52.615990	0.000851	8.513635	1.442249	0.000170
   5	3.9800e-01	0.0784	52.745178	0.000649	6.486579	1.098856	0.000130
   6	4.9750e-01	0.0996	52.789587	0.000223	2.229761	0.377732	0.000045
   7	5.9700e-01	0.1186	52.926850	0.000689	6.891990	1.167535	0.000138
   8	6.9650e-01	0.1390	53.068149	0.000709	7.094695	1.201874	0.000142
   9	7.9600e-01	0.1592	53.177152	0.000547	5.473051	0.927160	0.000110
  10	8.9550e-01	0.1786	53.294229	0.000588	5.878462	0.995838	0.000118
  11	9.9500e-01	0.1984	53.407269	0.000568	5.675756	0.961499	0.000114
  12	1.0945e+00	0.2190	53.516271	0.000547	5.473051	0.927160	0.000110
  13	1.1940e+00	0.2382	53.673720	0.000791	7.905518	1.339231	0.000158
  14	1.2935e+00	0.2591	53.758499	0.000426	4.256817	0.721124	0.000085
  15	1.3930e+00	0.2778	53.883651	0.000628	6.283873	1.064517	0.000126
  16	1.4925e+00	0.2977	54.041099	0.000791	7.905518	1.339231	0.000158
  17	1.5920e+00	0.3185	54.137990	0.000486	4.864934	0.824142	0.000097
  18	1.6915e+00	0.3378	54.271216	0.000669	6.689284	1.133195	0.000134
  19	1.7910e+00	0.3577	54.360033	0.000446	4.459523	0.755464	0.000089
  20	1.8905e+00	0.3778	54.513444	0.000770	7.702812	1.304892	0.000154
  21	1.9900e+00	0.3979	54.614372	0.000507	5.067640	0.858481	0.000101
  22	2.0895e+00	0.4168	54.715301	0.000507	5.067640	0.858481	0.000101
  23	2.1890e+00	0.4370	54.872749	0.000791	7.905518	1.339231	0.000158
  24	2.2885e+00	0.4580	54.969640	0.000486	4.864934	0.824142	0.000097
  25	2.3880e+00	0.4777	55.074606	0.000527	5.270345	0.892821	0.000105
  26	2.4875e+00	0.4974	55.236091	0.000811	8.108223	1.373570	0.000162
  27	2.5870e+00	0.5178	55.373354	0.000689	6.891990	1.167535	0.000138
  28	2.6865e+00	0.5376	55.470245	0.000486	4.864934	0.824142	0.000097
  29	2.7860e+00	0.5563	55.619619	0.000750	7.500107	1.270552	0.000150
  30	2.8855e+00	0.5772	55.740733	0.000608	6.081168	1.030178	0.000122
  31	2.9850e+00	0.5965	55.809364	0.000345	3.445995	0.583767	0.000069
  32	3.0845e+00	0.6171	55.978924	0.000851	8.513635	1.442249	0.000170
  33	3.1840e+00	0.6370	56.087927	0.000547	5.473051	0.927160	0.000110
  34	3.2835e+00	0.6560	56.225189	0.000689	6.891990	1.167535	0.000138
  35	3.3830e+00	0.6769	56.334192	0.000547	5.473051	0.927160	0.000110
  36	3.4825e+00	0.6966	56.463380	0.000649	6.486579	1.098856	0.000130
  37	3.5820e+00	0.7156	56.548160	0.000426	4.256817	0.721124	0.000085
  38	3.6815e+00	0.7353	56.721757	0.000872	8.716340	1.476588	0.000174
  39	3.7810e+00	0.7560	56.810574	0.000446	4.459523	0.755464	0.000089
  40	3.8805e+00	0.7764	56.992245	0.000912	9.121751	1.545266	0.000183
  41	3.9800e+00	0.7965	57.077025	0.000426	4.256817	0.721124	0.000085
  42	4.0795e+00	0.8157	57.238510	0.000811	8.108223	1.373570	0.000162
  43	4.1790e+00	0.8371	57.379810	0.000709	7.094695	1.201874	0.000142
  44	4.2785e+00	0.8567	57.468627	0.000446	4.459523	0.755464	0.000089
  45	4.3780e+00	0.8762	57.618001	0.000750	7.500107	1.270552	0.000150
  46	4.4775e+00	0.8944	57.747190	0.000649	6.486579	1.098856	0.000130
  47	4.5770e+00	0.9157	57.860229	0.000568	5.675756	0.961499	0.000114
  48	4.6765e+00	0.9354	57.993455	0.000669	6.689284	1.133195	0.000134
  49	4.7760e+00	0.9554	58.130717	0.000689	6.891990	1.167535	0.000138
  50	4.8755e+00	0.9749	58.255869	0.000628	6.283873	1.064517	0.000126
  51	4.9750e+00	0.9948	58.405243	0.000750	7.500107	1.270552	0.000150
  52	5.0745e+00	1.0160	58.522320	0.000588	5.878462	0.995838	0.000118
  53	5.1740e+00	1.0357	58.599025	0.000385	3.851406	0.652446	0.000077
  54	5.2735e+00	1.0558	58.744362	0.000730	7.297401	1.236213	0.000146
  55	5.3730e+00	1.0749	58.897773	0.000770	7.702812	1.304892	0.000154
  56	5.4725e+00	1.0947	59.055222	0.000791	7.905518	1.339231	0.000158
  57	5.5720e+00	1.1145	59.172299	0.000588	5.878462	0.995838	0.000118
  58	5.6715e+00	1.1342	59.281301	0.000547	5.473051	0.927160	0.000110
  59	5.7710e+00	1.1550	59.442787	0.000811	8.108223	1.373570	0.000162
  60	5.8705e+00	1.1759	59.555826	0.000568	5.675756	0.961499	0.000114
  61	5.9700e+00	1.1952	59.680978	0.000628	6.283873	1.064517	0.000126
  62	6.0695e+00	1.2151	59.781906	0.000507	5.067640	0.858481	0.000101
  63	6.1690e+00	1.2344	59.931280	0.000750	7.500107	1.270552	0.000150
  64	6.2685e+00	1.2542	60.056431	0.000628	6.283873	1.064517	0.000126
  65	6.3680e+00	1.2737	60.201768	0.000730	7.297401	1.236213	0.000146
  66	6.4675e+00	1.2942	60.343068	0.000709	7.094695	1.201874	0.000142
  67	6.5670e+00	1.3127	60.456108	0.000568	5.675756	0.961499	0.000114
  68	6.6665e+00	1.3333	60.601445	0.000730	7.297401	1.236213	0.000146
  69	6.7660e+00	1.3533	60.734670	0.000669	6.689284	1.133195	0.000134
  70	6.8655e+00	1.3738	60.863858	0.000649	6.486579	1.098856	0.000130
  71	6.9650e+00	1.3931	60.989010	0.000628	6.283873	1.064517	0.000126
  72	7.0645e+00	1.4127	61.122235	0.000669	6.689284	1.133195	0.000134
  73	7.1640e+00	1.4339	61.271609	0.000750	7.500107	1.270552	0.000150
  74	7.2635e+00	1.4532	61.384649	0.000568	5.675756	0.961499	0.000114
  75	7.3630e+00	1.4725	61.497689	0.000568	5.675756	0.961499	0.000114
  76	7.4625e+00	1.4930	61.630914	0.000669	6.689284	1.133195	0.000134
  77	7.5620e+00	1.5122	61.727805	0.000486	4.864934	0.824142	0.000097
  78	7.6615e+00	1.5323	61.945811	0.001095	10.946102	1.854320	0.000219
  79	7.7610e+00	1.5520	62.050776	0.000527	5.270345	0.892821	0.000105
  80	7.8605e+00	1.5733	62.175928	0.000628	6.283873	1.064517	0.000126
  81	7.9600e+00	1.5931	62.301079	0.000628	6.283873	1.064517	0.000126
  82	8.0595e+00	1.6125	62.434304	0.000669	6.689284	1.133195	0.000134
  83	8.1590e+00	1.6326	62.599827	0.000831	8.310929	1.407909	0.000166
  84	8.2585e+00	1.6512	62.636161	0.000182	1.824350	0.309053	0.000037
  85	8.3580e+00	1.6711	62.842055	0.001034	10.337985	1.751302	0.000207
  86	8.4575e+00	1.6924	62.975280	0.000669	6.689284	1.133195	0.000134
  87	8.5570e+00	1.7123	63.084283	0.000547	5.473051	0.927160	0.000110
  88	8.6565e+00	1.7327	63.217509	0.000669	6.689284	1.133195	0.000134
  89	8.7560e+00	1.7524	63.407254	0.000953	9.527162	1.613945	0.000191
  90	8.8555e+00	1.7728	63.500108	0.000466	4.662228	0.789803	0.000093
  91	8.9550e+00	1.7908	63.649482	0.000750	7.500107	1.270552	0.000150
  92	9.0545e+00	1.8121	63.774633	0.000628	6.283873	1.064517	0.000126
  93	9.1540e+00	1.8320	63.879599	0.000527	5.270345	0.892821	0.000105
  94	9.2535e+00	1.8513	64.041084	0.000811	8.108223	1.373570	0.000162
  95	9.3530e+00	1.8723	64.137975	0.000486	4.864934	0.824142	0.000097
  96	9.4525e+00	1.8911	64.307535	0.000851	8.513635	1.442249	0.000170
  97	9.5520e+00	1.9111	64.428649	0.000608	6.081168	1.030178	0.000122
  98	9.6515e+00	1.9309	64.549763	0.000608	6.081168	1.030178	0.000122
  99	9.7510e+00	1.9512	64.691063	0.000709	7.094695	1.201874	0.000142
 100	9.8505e+00	1.9708	64.828326	0.000689	6.891990	1.167535	0.000138
 101	9.9500e+00	1.9904	64.941365	0.000568	5.675756	0.961499	0.000114
 102	1.0050e+01	2.0104	65.110925	0.000851	8.513635	1.442249	0.000170
 103	1.0149e+01	2.0309	65.228002	0.000588	5.878462	0.995838	0.000118
 104	1.0248e+01	2.0515	65.349116	0.000608	6.081168	1.030178	0.000122
 105	1.0348e+01	2.0699	65.514639	0.000831	8.310929	1.407909	0.000166
 106	1.0447e+01	2.0907	65.647864	0.000669	6.689284	1.133195	0.000134
 107	1.0547e+01	2.1108	65.764941	0.000588	5.878462	0.995838	0.000118
 108	1.0646e+01	2.1307	65.882018	0.000588	5.878462	0.995838	0.000118
 109	1.0746e+01	2.1508	66.059652	0.000892	8.919046	1.510927	0.000179
 110	1.0845e+01	2.1709	66.160580	0.000507	5.067640	0.858481	0.000101
 111	1.0945e+01	2.1899	66.318029	0.000791	7.905518	1.339231	0.000158
 112	1.1044e+01	2.2106	66.455291	0.000689	6.891990	1.167535	0.000138
 113	1.1144e+01	2.2303	66.540071	0.000426	4.256817	0.721124	0.000085
 114	1.1243e+01	2.2507	66.713668	0.000872	8.716340	1.476588	0.000174
 115	1.1343e+01	2.2700	66.867079	0.000770	7.702812	1.304892	0.000154
 116	1.1443e+01	2.2905	66.984156	0.000588	5.878462	0.995838	0.000118
 117	1.1542e+01	2.3094	67.089122	0.000527	5.270345	0.892821	0.000105
 118	1.1642e+01	2.3306	67.234459	0.000730	7.297401	1.236213	0.000146
 119	1.1741e+01	2.3496	67.420167	0.000932	9.324457	1.579606	0.000187
 120	1.1841e+01	2.3693	67.513021	0.000466	4.662228	0.789803	0.000093
 121	1.1940e+01	2.3899	67.666432	0.000770	7.702812	1.304892	0.000154
 122	1.2040e+01	2.4094	67.787546	0.000608	6.081168	1.030178	0.000122
 123	1.2139e+01	2.4300	67.916735	0.000649	6.486579	1.098856	0.000130
 124	1.2239e+01	2.4490	68.029774	0.000568	5.675756	0.961499	0.000114
 125	1.2338e+01	2.4697	68.199334	0.000851	8.513635	1.442249	0.000170
 126	1.2438e+01	2.4897	68.308337	0.000547	5.473051	0.927160	0.000110
 127	1.2537e+01	2.5092	68.437525	0.000649	6.486579	1.098856	0.000130
 128	1.2636e+01	2.5282	68.590936	0.000770	7.702812	1.304892	0.000154
 129	1.2736e+01	2.5500	68.720125	0.000649	6.486579	1.098856	0.000130
 130	1.2835e+01	2.5677	68.845276	0.000628	6.283873	1.064517	0.000126
 131	1.2935e+01	2.5887	68.958316	0.000568	5.675756	0.961499	0.000114
 132	1.3034e+01	2.6082	69.135950	0.000892	8.919046	1.510927	0.000179
 133	1.3134e+01	2.6286	69.240915	0.000527	5.270345	0.892821	0.000105
 134	1.3233e+01	2.6482	69.406438	0.000831	8.310929	1.407909	0.000166
 135	1.3333e+01	2.6693	69.527552	0.000608	6.081168	1.030178	0.000122
 136	1.3432e+01	2.6883	69.632517	0.000527	5.270345	0.892821	0.000105
 137	1.3532e+01	2.7071	69.781891	0.000750	7.500107	1.270552	0.000150
 138	1.3632e+01	2.7279	69.915117	0.000669	6.689284	1.133195	0.000134
 139	1.3731e+01	2.7477	70.056416	0.000709	7.094695	1.201874	0.000142
 140	1.3831e+01	2.7686	70.189642	0.000669	6.689284	1.133195	0.000134
 141	1.3930e+01	2.7875	70.302682	0.000568	5.675756	0.961499	0.000114
 142	1.4030e+01	2.8080	70.448019	0.000730	7.297401	1.236213	0.000146
 143	1.4129e+01	2.8286	70.577207	0.000649	6.486579	1.098856	0.000130
 144	1.4229e+01	2.8481	70.722544	0.000730	7.297401	1.236213	0.000146
 145	1.4328e+01	2.8685	70.815398	0.000466	4.662228	0.789803	0.000093
 146	1.4428e+01	2.8880	70.948623	0.000669	6.689284	1.133195	0.000134
 147	1.4527e+01	2.9070	71.110109	0.000811	8.108223	1.373570	0.000162
 148	1.4627e+01	2.9278	71.247372	0.000689	6.891990	1.167535	0.000138
 149	1.4726e+01	2.9472	71.380597	0.000669	6.689284	1.133195	0.000134
 150	1.4825e+01	2.9664	71.542082	0.000811	8.108223	1.373570	0.000162
 151	1.4925e+01	2.9879	71.614751	0.000365	3.648701	0.618107	0.000073
 152	1.5024e+01	3.0078	71.715679	0.000507	5.067640	0.858481	0.000101
 153	1.5124e+01	3.0271	71.889276	0.000872	8.716340	1.476588	0.000174
 154	1.5223e+01	3.0470	72.018464	0.000649	6.486579	1.098856	0.000130
 155	1.5323e+01	3.0672	72.171876	0.000770	7.702812	1.304892	0.000154
 156	1.5422e+01	3.0875	72.268767	0.000486	4.864934	0.824142	0.000097
 157	1.5522e+01	3.1066	72.393918	0.000628	6.283873	1.064517	0.000126
 158	1.5621e+01	3.1271	72.547329	0.000770	7.702812	1.304892	0.000154
 159	1.5721e+01	3.1465	72.716889	0.000851	8.513635	1.442249	0.000170
 160	1.5820e+01	3.1666	72.866263	0.000750	7.500107	1.270552	0.000150
 161	1.5920e+01	3.1869	72.947006	0.000405	4.054112	0.686785	0.000081
 162	1.6020e+01	3.2057	73.076194	0.000649	6.486579	1.098856	0.000130
 163	1.6119e+01	3.2265	73.185197	0.000547	5.473051	0.927160	0.000110
 164	1.6218e+01	3.2468	73.330534	0.000730	7.297401	1.236213	0.000146
 165	1.6318e+01	3.2666	73.459722	0.000649	6.486579	1.098856	0.000130
 166	1.6418e+01	3.2864	73.621207	0.000811	8.108223	1.373570	0.000162
 167	1.6517e+01	3.3056	73.754433	0.000669	6.689284	1.133195	0.000134
 168	1.6616e+01	3.3260	73.851324	0.000486	4.864934	0.824142	0.000097
 169	1.6716e+01	3.3459	73.996661	0.000730	7.297401	1.236213	0.000146
 170	1.6816e+01	3.3663	74.105664	0.000547	5.473051	0.927160	0.000110
 171	1.6915e+01	3.3849	74.238889	0.000669	6.689284	1.133195	0.000134
 172	1.7015e+01	3.4053	74.388263	0.000750	7.500107	1.270552	0.000150
 173	1.7114e+01	3.4257	74.553786	0.000831	8.310929	1.407909	0.000166
 174	1.7213e+01	3.4455	74.650677	0.000486	4.864934	0.824142	0.000097
 175	1.7313e+01	3.4655	74.755642	0.000527	5.270345	0.892821	0.000105
 176	1.7413e+01	3.4856	74.925202	0.000851	8.513635	1.442249	0.000170
 177	1.7512e+01	3.5055	75.050353	0.000628	6.283873	1.064517	0.000126
 178	1.7611e+01	3.5246	75.159356	0.000547	5.473051	0.927160	0.000110
 179	1.7711e+01	3.5444	75.276433	0.000588	5.878462	0.995838	0.000118
 180	1.7811e+01	3.5648	75.421770	0.000730	7.297401	1.236213	0.000146
 181	1.7910e+01	3.5851	75.567107	0.000730	7.297401	1.236213	0.000146
 182	1.8009e+01	3.6048	75.688221	0.000608	6.081168	1.030178	0.000122
 183	1.8109e+01	3.6243	75.773001	0.000426	4.256817	0.721124	0.000085
 184	1.8209e+01	3.6455	75.922375	0.000750	7.500107	1.270552	0.000150
 185	1.8308e+01	3.6653	76.071749	0.000750	7.500107	1.270552	0.000150
 186	1.8407e+01	3.6840	76.180751	0.000547	5.473051	0.927160	0.000110
 187	1.8507e+01	3.7049	76.318014	0.000689	6.891990	1.167535	0.000138
 188	1.8607e+01	3.7243	76.435091	0.000588	5.878462	0.995838	0.000118
 189	1.8706e+01	3.7450	76.624836	0.000953	9.527162	1.613945	0.000191
 190	1.8805e+01	3.7650	76.713653	0.000446	4.459523	0.755464	0.000089
 191	1.8905e+01	3.7833	76.854953	0.000709	7.094695	1.201874	0.000142
 192	1.9005e+01	3.8031	76.992216	0.000689	6.891990	1.167535	0.000138
 193	1.9104e+01	3.8245	77.101218	0.000547	5.473051	0.927160	0.000110
 194	1.9203e+01	3.8439	77.222332	0.000608	6.081168	1.030178	0.000122
 195	1.9303e+01	3.8630	77.343446	0.000608	6.081168	1.030178	0.000122
 196	1.9402e+01	3.8831	77.460523	0.000588	5.878462	0.995838	0.000118
 197	1.9502e+01	3.9030	77.613935	0.000770	7.702812	1.304892	0.000154
 198	1.9602e+01	3.9228	77.755234	0.000709	7.094695	1.201874	0.000142
 199	1.9701e+01	3.9433	77.884423	0.000649	6.486579	1.098856	0.000130
 200	1.9800e+01	3.9631	77.965165	0.000405	4.054112	0.686785	0.000081
 201	1.9900e+01	3.9825	78.134725	0.000851	8.513635	1.442249	0.000170
 202	2.0000e+01	4.0029	78.235653	0.000507	5.067640	0.858481	0.000101
 203	2.0099e+01	4.0228	78.368879	0.000669	6.689284	1.133195	0.000134
 204	2.0198e+01	4.0425	78.510179	0.000709	7.094695	1.201874	0.000142
 205	2.0298e+01	4.0633	78.627256	0.000588	5.878462	0.995838	0.000118
 206	2.0398e+01	4.0826	78.728184	0.000507	5.067640	0.858481	0.000101
 207	2.0497e+01	4.1035	78.865447	0.000689	6.891990	1.167535	0.000138
 208	2.0596e+01	4.1232	79.014821	0.000750	7.500107	1.270552	0.000150
 209	2.0696e+01	4.1427	79.139972	0.000628	6.283873	1.064517	0.000126
 210	2.0796e+01	4.1625	79.253012	0.000568	5.675756	0.961499	0.000114
 211	2.0895e+01	4.1822	79.357977	0.000527	5.270345	0.892821	0.000105
 212	2.0994e+01	4.2025	79.535611	0.000892	8.919046	1.510927	0.000179
 213	2.1094e+01	4.2233	79.656725	0.000608	6.081168	1.030178	0.000122
 214	2.1194e+01	4.2420	79.793988	0.000689	6.891990	1.167535	0.000138
 215	2.1293e+01	4.2627	79.890879	0.000486	4.864934	0.824142	0.000097
 216	2.1392e+01	4.2818	80.052365	0.000811	8.108223	1.373570	0.000162
 217	2.1492e+01	4.3015	80.145219	0.000466	4.662228	0.789803	0.000093
 218	2.1591e+01	4.3220	80.274407	0.000649	6.486579	1.098856	0.000130
 219	2.1691e+01	4.3417	80.431855	0.000791	7.905518	1.339231	0.000158
 220	2.1791e+01	4.3618	80.548932	0.000588	5.878462	0.995838	0.000118
 221	2.1890e+01	4.3813	80.597378	0.000243	2.432467	0.412071	0.000049
 222	2.1989e+01	4.4015	80.758863	0.000811	8.108223	1.373570	0.000162
 223	2.2089e+01	4.4210	80.900163	0.000709	7.094695	1.201874	0.000142
 224	2.2189e+01	4.4413	81.021277	0.000608	6.081168	1.030178	0.000122
 225	2.2288e+01	4.4621	81.194874	0.000872	8.716340	1.476588	0.000174
 226	2.2387e+01	4.4813	81.251394	0.000284	2.837878	0.480750	0.000057
 227	2.2487e+01	4.5011	81.408842	0.000791	7.905518	1.339231	0.000158
 228	2.2587e+01	4.5210	81.509771	0.000507	5.067640	0.858481	0.000101
 229	2.2686e+01	4.5409	81.647033	0.000689	6.891990	1.167535	0.000138
 230	2.2785e+01	4.5617	81.776222	0.000649	6.486579	1.098856	0.000130
 231	2.2885e+01	4.5806	81.885224	0.000547	5.473051	0.927160	0.000110
 232	2.2985e+01	4.6011	82.034598	0.000750	7.500107	1.270552	0.000150
 233	2.3084e+01	4.6211	82.143601	0.000547	5.473051	0.927160	0.000110
 234	2.3183e+01	4.6399	82.272789	0.000649	6.486579	1.098856	0.000130
 235	2.3283e+01	4.6606	82.365643	0.000466	4.662228	0.789803	0.000093
 236	2.3383e+01	4.6806	82.523092	0.000791	7.905518	1.339231	0.000158
 237	2.3482e+01	4.7008	82.648243	0.000628	6.283873	1.064517	0.000126
 238	2.3581e+01	4.7211	82.777431	0.000649	6.486579	1.098856	0.000130
 239	2.3681e+01	4.7408	82.902582	0.000628	6.283873	1.064517	0.000126
 240	2.3780e+01	4.7598	82.987362	0.000426	4.256817	0.721124	0.000085
 241	2.3880e+01	4.7796	83.140773	0.000770	7.702812	1.304892	0.000154
 242	2.3980e+01	4.7998	83.237665	0.000486	4.864934	0.824142	0.000097
 243	2.4079e+01	4.8199	83.399150	0.000811	8.108223	1.373570	0.000162
 244	2.4178e+01	4.8397	83.532376	0.000669	6.689284	1.133195	0.000134
 245	2.4278e+01	4.8598	83.649452	0.000588	5.878462	0.995838	0.000118
 246	2.4378e+01	4.8804	83.754418	0.000527	5.270345	0.892821	0.000105
 247	2.4477e+01	4.8988	83.875532	0.000608	6.081168	1.030178	0.000122
 248	2.4576e+01	4.9200	84.000683	0.000628	6.283873	1.064517	0.000126
 249	2.4676e+01	4.9397	84.109686	0.000547	5.473051	0.927160	0.000110
 250	2.4776e+01	4.9601	84.234837	0.000628	6.283873	1.064517	0.000126
 251	2.4875e+01	4.9795	84.372100	0.000689	6.891990	1.167535	0.000138
 252	2.4974e+01	4.9993	84.501288	0.000649	6.486579	1.098856	0.000130
 253	2.5074e+01	5.0199	84.626439	0.000628	6.283873	1.064517	0.000126
 254	2.5174e+01	5.0396	84.751591	0.000628	6.283873	1.064517	0.000126
 255	2.5273e+01	5.0591	84.868667	0.000588	5.878462	0.995838	0.000118
 256	2.5372e+01	5.0787	84.961522	0.000466	4.662228	0.789803	0.000093
 257	2.5472e+01	5.0988	85.086673	0.000628	6.283873	1.064517	0.000126
 258	2.5572e+01	5.1196	85.191638	0.000527	5.270345	0.892821	0.000105
 259	2.5671e+01	5.1391	85.377347	0.000932	9.324457	1.579606	0.000187
 260	2.5770e+01	5.1585	85.454052	0.000385	3.851406	0.652446	0.000077
 261	2.5870e+01	5.1781	85.631686	0.000892	8.919046	1.510927	0.000179
