»»»»»»»»»»»»»»»»»»»»»»»»»»»»»»»»»»»» Hysteresis ««««««««««««««««««««««««««««««««««««
»»»  Executed Version:	5.48.1
»»»  Vision Version:	5.48.4 (R)
»»»  Vision Compiled:	9/18/24
»»»  Driver Version:	5.47.0
»»»  Windows Version:	Windows 8 or 8.1
»»»  Processor Information:	x86 (AMD or Intel) - 32 Processors
»»»  Tester Name:	PMF21124-494 (100V)
»»»  Tester S/N:	PMF21124-494
»»»  Internal Amp Type:	100V RevK 270k
»»»  Internal Amp S/N:	iAB2-596/K     
»»»  Execution Count:	1
»»»»»»»»»»»»»»»»»»»»»»»»»»»»»»»»»»»»»»»»»»««««««««««««««««««««««««««««««««««««««««««

Stored:	7/3/2025 - 13:38:47
Configured:	07/03/25 12:01:19 PM
Executed:	07/03/25 01:37:34 PM

»»»»»»»»»»»»»»»»»»»»»»»»»»»»»»»»»»» Sample Info ««««««««««««««««««««««««««««««««««««
Sample Name:	
Lot Name:	
Wafer Name:	
Die Row/Column:	0/0
Capacitor Number:	0
Sample Area (cm2):	1.00e-04
Sample Thickness (microns):	1.50e-01

Amplifier:	Internal

»»»»»»»»»»»»»»»»»»»»»»»»»»»»»»»»»»» Tester Info «««««««««««««««««««««««««««««««««««
Tester Name:	PMF21124-494 (100V)
Tester Serial Number:	PMF21124-494
Return Signal Amp. Level:	0.19 [Index: 3]

»»»»»»»»»»»»»»»»»»»»»»»»»»»»»»»» Hysteresis Info ««««««««««««««««««««««««««««««««««
Task Name:	Hyst-410
Volts:	10.00
Field:	666.67 (kV/cm)
DCBias:	0.00
DCField:	0.00 (kV/cm)
Hysteresis Period (ms):	2.00e+02
Preset:	Enabled
Preset Delay (ms):	1.00e+03
Profile:	Standard Bipolar

»»»»»»»»»»»»»»»»»»»»»»»»»»»»»»»»»»»»»» Data «««««««««««««««««««««««««««««««««««««««
Points:	2009

Valid Data

Point	Time (ms)	Drive Voltage	Measured Polarization (uC/cm2)	Capacitance (uF)	Normalized Capacitance (uF/cm2)	Dielectric Constant	Instantaneous Current (mA)
   1	0.0000e+00	-0.0002	16.164691	0.000426	4.256403	0.721054	0.000085
   2	9.9500e-02	0.0198	16.249471	0.000426	4.256403	0.721054	0.000085
   3	1.9900e-01	0.0391	16.366548	0.000588	5.877890	0.995742	0.000118
   4	2.9850e-01	0.0584	16.491699	0.000628	6.283262	1.064413	0.000126
   5	3.9800e-01	0.0797	16.592628	0.000507	5.067147	0.858398	0.000101
   6	4.9750e-01	0.0990	16.693556	0.000507	5.067147	0.858398	0.000101
   7	5.9700e-01	0.1184	16.762188	0.000345	3.445660	0.583711	0.000069
   8	6.9650e-01	0.1383	16.907524	0.000730	7.296691	1.236093	0.000146
   9	7.9600e-01	0.1582	17.060936	0.000770	7.702063	1.304765	0.000154
  10	8.9550e-01	0.1788	17.137641	0.000385	3.851031	0.652382	0.000077
  11	9.9500e-01	0.1991	17.234532	0.000486	4.864461	0.824062	0.000097
  12	1.0945e+00	0.2182	17.331424	0.000486	4.864461	0.824062	0.000097
  13	1.1940e+00	0.2396	17.460612	0.000649	6.485948	1.098749	0.000130
  14	1.2935e+00	0.2586	17.585763	0.000628	6.283262	1.064413	0.000126
  15	1.3930e+00	0.2775	17.662469	0.000385	3.851031	0.652382	0.000077
  16	1.4925e+00	0.2982	17.771472	0.000547	5.472518	0.927070	0.000110
  17	1.5920e+00	0.3174	17.880474	0.000547	5.472518	0.927070	0.000110
  18	1.6915e+00	0.3381	18.025811	0.000730	7.296691	1.236093	0.000146
  19	1.7910e+00	0.3574	18.110591	0.000426	4.256403	0.721054	0.000085
  20	1.8905e+00	0.3773	18.235742	0.000628	6.283262	1.064413	0.000126
  21	1.9900e+00	0.3975	18.348782	0.000568	5.675204	0.961406	0.000114
  22	2.0895e+00	0.4176	18.490082	0.000709	7.094005	1.201757	0.000142
  23	2.1890e+00	0.4378	18.586973	0.000486	4.864461	0.824062	0.000097
  24	2.2885e+00	0.4575	18.671753	0.000426	4.256403	0.721054	0.000085
  25	2.3880e+00	0.4780	18.796904	0.000628	6.283262	1.064413	0.000126
  26	2.4875e+00	0.4974	18.893795	0.000486	4.864461	0.824062	0.000097
  27	2.5870e+00	0.5177	19.031058	0.000689	6.891319	1.167421	0.000138
  28	2.6865e+00	0.5373	19.131986	0.000507	5.067147	0.858398	0.000101
  29	2.7860e+00	0.5573	19.253100	0.000608	6.080576	1.030077	0.000122
  30	2.8855e+00	0.5773	19.354029	0.000507	5.067147	0.858398	0.000101
  31	2.9850e+00	0.5968	19.479180	0.000628	6.283262	1.064413	0.000126
  32	3.0845e+00	0.6162	19.572034	0.000466	4.661775	0.789726	0.000093
  33	3.1840e+00	0.6372	19.717371	0.000730	7.296691	1.236093	0.000146
  34	3.2835e+00	0.6570	19.814262	0.000486	4.864461	0.824062	0.000097
  35	3.3830e+00	0.6778	19.907116	0.000466	4.661775	0.789726	0.000093
  36	3.4825e+00	0.6970	20.036305	0.000649	6.485948	1.098749	0.000130
  37	3.5820e+00	0.7171	20.165493	0.000649	6.485948	1.098749	0.000130
  38	3.6815e+00	0.7370	20.250273	0.000426	4.256403	0.721054	0.000085
  39	3.7810e+00	0.7565	20.359276	0.000547	5.472518	0.927070	0.000110
  40	3.8805e+00	0.7769	20.484427	0.000628	6.283262	1.064413	0.000126
  41	3.9800e+00	0.7961	20.617652	0.000669	6.688633	1.133085	0.000134
  42	4.0795e+00	0.8165	20.730692	0.000568	5.675204	0.961406	0.000114
  43	4.1790e+00	0.8365	20.859880	0.000649	6.485948	1.098749	0.000130
  44	4.2785e+00	0.8559	20.976957	0.000588	5.877890	0.995742	0.000118
  45	4.3780e+00	0.8759	21.053663	0.000385	3.851031	0.652382	0.000077
  46	4.4775e+00	0.8952	21.190925	0.000689	6.891319	1.167421	0.000138
  47	4.5770e+00	0.9172	21.308002	0.000588	5.877890	0.995742	0.000118
  48	4.6765e+00	0.9358	21.417005	0.000547	5.472518	0.927070	0.000110
  49	4.7760e+00	0.9561	21.546193	0.000649	6.485948	1.098749	0.000130
  50	4.8755e+00	0.9761	21.679419	0.000669	6.688633	1.133085	0.000134
  51	4.9750e+00	0.9956	21.796496	0.000588	5.877890	0.995742	0.000118
  52	5.0745e+00	1.0156	21.901461	0.000527	5.269832	0.892734	0.000105
  53	5.1740e+00	1.0358	21.978167	0.000385	3.851031	0.652382	0.000077
  54	5.2735e+00	1.0555	22.115430	0.000689	6.891319	1.167421	0.000138
  55	5.3730e+00	1.0765	22.212321	0.000486	4.864461	0.824062	0.000097
  56	5.4725e+00	1.0957	22.353621	0.000709	7.094005	1.201757	0.000142
  57	5.5720e+00	1.1150	22.474735	0.000608	6.080576	1.030077	0.000122
  58	5.6715e+00	1.1351	22.579700	0.000527	5.269832	0.892734	0.000105
  59	5.7710e+00	1.1556	22.704851	0.000628	6.283262	1.064413	0.000126
  60	5.8705e+00	1.1755	22.838077	0.000669	6.688633	1.133085	0.000134
  61	5.9700e+00	1.1945	22.939005	0.000507	5.067147	0.858398	0.000101
  62	6.0695e+00	1.2160	23.031859	0.000466	4.661775	0.789726	0.000093
  63	6.1690e+00	1.2342	23.209493	0.000892	8.918178	1.510780	0.000179
  64	6.2685e+00	1.2543	23.286199	0.000385	3.851031	0.652382	0.000077
  65	6.3680e+00	1.2745	23.383090	0.000486	4.864461	0.824062	0.000097
  66	6.4675e+00	1.2944	23.540538	0.000790	7.904749	1.339101	0.000158
  67	6.5670e+00	1.3137	23.653578	0.000568	5.675204	0.961406	0.000114
  68	6.6665e+00	1.3344	23.750470	0.000486	4.864461	0.824062	0.000097
  69	6.7660e+00	1.3538	23.903881	0.000770	7.702063	1.304765	0.000154
  70	6.8655e+00	1.3731	23.968475	0.000324	3.242974	0.549375	0.000065
  71	6.9650e+00	1.3934	24.097663	0.000649	6.485948	1.098749	0.000130
  72	7.0645e+00	1.4133	24.202629	0.000527	5.269832	0.892734	0.000105
  73	7.1640e+00	1.4345	24.335854	0.000669	6.688633	1.133085	0.000134
  74	7.2635e+00	1.4536	24.461005	0.000628	6.283262	1.064413	0.000126
  75	7.3630e+00	1.4725	24.598268	0.000689	6.891319	1.167421	0.000138
  76	7.4625e+00	1.4926	24.703234	0.000527	5.269832	0.892734	0.000105
  77	7.5620e+00	1.5133	24.824348	0.000608	6.080576	1.030077	0.000122
  78	7.6615e+00	1.5335	24.913165	0.000446	4.459089	0.755390	0.000089
  79	7.7610e+00	1.5528	25.046390	0.000669	6.688633	1.133085	0.000134
  80	7.8605e+00	1.5736	25.163467	0.000588	5.877890	0.995742	0.000118
  81	7.9600e+00	1.5936	25.244210	0.000405	4.053717	0.686718	0.000081
  82	8.0595e+00	1.6132	25.397621	0.000770	7.702063	1.304765	0.000154
  83	8.1590e+00	1.6323	25.478364	0.000405	4.053717	0.686718	0.000081
  84	8.2585e+00	1.6525	25.627738	0.000750	7.499377	1.270429	0.000150
  85	8.3580e+00	1.6727	25.748852	0.000608	6.080576	1.030077	0.000122
  86	8.4575e+00	1.6921	25.853817	0.000527	5.269832	0.892734	0.000105
  87	8.5570e+00	1.7128	25.987043	0.000669	6.688633	1.133085	0.000134
  88	8.6565e+00	1.7326	26.092008	0.000527	5.269832	0.892734	0.000105
  89	8.7560e+00	1.7530	26.180825	0.000446	4.459089	0.755390	0.000089
  90	8.8555e+00	1.7727	26.326162	0.000730	7.296691	1.236093	0.000146
  91	8.9550e+00	1.7916	26.443239	0.000588	5.877890	0.995742	0.000118
  92	9.0545e+00	1.8132	26.568390	0.000628	6.283262	1.064413	0.000126
  93	9.1540e+00	1.8324	26.681430	0.000568	5.675204	0.961406	0.000114
  94	9.2535e+00	1.8514	26.814656	0.000669	6.688633	1.133085	0.000134
  95	9.3530e+00	1.8723	26.935770	0.000608	6.080576	1.030077	0.000122
  96	9.4525e+00	1.8923	27.056884	0.000608	6.080576	1.030077	0.000122
  97	9.5520e+00	1.9125	27.145701	0.000446	4.459089	0.755390	0.000089
  98	9.6515e+00	1.9294	27.299112	0.000770	7.702063	1.304765	0.000154
  99	9.7510e+00	1.9521	27.420226	0.000608	6.080576	1.030077	0.000122
 100	9.8505e+00	1.9713	27.496932	0.000385	3.851031	0.652382	0.000077
 101	9.9500e+00	1.9910	27.638231	0.000709	7.094005	1.201757	0.000142
 102	1.0050e+01	2.0113	27.751271	0.000568	5.675204	0.961406	0.000114
 103	1.0149e+01	2.0313	27.892571	0.000709	7.094005	1.201757	0.000142
 104	1.0248e+01	2.0516	27.961202	0.000345	3.445660	0.583711	0.000069
 105	1.0348e+01	2.0723	28.122688	0.000811	8.107435	1.373437	0.000162
 106	1.0447e+01	2.0910	28.223616	0.000507	5.067147	0.858398	0.000101
 107	1.0547e+01	2.1115	28.324544	0.000507	5.067147	0.858398	0.000101
 108	1.0646e+01	2.1306	28.437584	0.000568	5.675204	0.961406	0.000114
 109	1.0746e+01	2.1508	28.619255	0.000912	9.120864	1.545116	0.000183
 110	1.0845e+01	2.1711	28.679812	0.000304	3.040288	0.515039	0.000061
 111	1.0945e+01	2.1914	28.796889	0.000588	5.877890	0.995742	0.000118
 112	1.1044e+01	2.2100	28.942226	0.000730	7.296691	1.236093	0.000146
 113	1.1144e+01	2.2295	29.027006	0.000426	4.256403	0.721054	0.000085
 114	1.1243e+01	2.2503	29.131971	0.000527	5.269832	0.892734	0.000105
 115	1.1343e+01	2.2713	29.269234	0.000689	6.891319	1.167421	0.000138
 116	1.1443e+01	2.2904	29.390348	0.000608	6.080576	1.030077	0.000122
 117	1.1542e+01	2.3101	29.487239	0.000486	4.864461	0.824062	0.000097
 118	1.1642e+01	2.3301	29.620465	0.000669	6.688633	1.133085	0.000134
 119	1.1741e+01	2.3507	29.681022	0.000304	3.040288	0.515039	0.000061
 120	1.1841e+01	2.3696	29.866730	0.000932	9.323550	1.579452	0.000187
 121	1.1940e+01	2.3906	29.963621	0.000486	4.864461	0.824062	0.000097
 122	1.2040e+01	2.4100	30.052438	0.000446	4.459089	0.755390	0.000089
 123	1.2139e+01	2.4307	30.213924	0.000811	8.107435	1.373437	0.000162
 124	1.2239e+01	2.4500	30.339075	0.000628	6.283262	1.064413	0.000126
 125	1.2338e+01	2.4697	30.440003	0.000507	5.067147	0.858398	0.000101
 126	1.2438e+01	2.4902	30.565155	0.000628	6.283262	1.064413	0.000126
 127	1.2537e+01	2.5105	30.670120	0.000527	5.269832	0.892734	0.000105
 128	1.2636e+01	2.5289	30.795271	0.000628	6.283262	1.064413	0.000126
 129	1.2736e+01	2.5486	30.867940	0.000365	3.648346	0.618046	0.000073
 130	1.2835e+01	2.5689	31.029425	0.000811	8.107435	1.373437	0.000162
 131	1.2935e+01	2.5890	31.122279	0.000466	4.661775	0.789726	0.000093
 132	1.3034e+01	2.6075	31.215134	0.000466	4.661775	0.789726	0.000093
 133	1.3134e+01	2.6287	31.344322	0.000649	6.485948	1.098749	0.000130
 134	1.3233e+01	2.6492	31.501770	0.000790	7.904749	1.339101	0.000158
 135	1.3333e+01	2.6686	31.598661	0.000486	4.864461	0.824062	0.000097
 136	1.3432e+01	2.6884	31.707664	0.000547	5.472518	0.927070	0.000110
 137	1.3532e+01	2.7085	31.848964	0.000709	7.094005	1.201757	0.000142
 138	1.3632e+01	2.7282	31.949892	0.000507	5.067147	0.858398	0.000101
 139	1.3731e+01	2.7487	32.071006	0.000608	6.080576	1.030077	0.000122
 140	1.3831e+01	2.7692	32.184046	0.000568	5.675204	0.961406	0.000114
 141	1.3930e+01	2.7883	32.321309	0.000689	6.891319	1.167421	0.000138
 142	1.4030e+01	2.8080	32.406089	0.000426	4.256403	0.721054	0.000085
 143	1.4129e+01	2.8284	32.515091	0.000547	5.472518	0.927070	0.000110
 144	1.4229e+01	2.8478	32.616020	0.000507	5.067147	0.858398	0.000101
 145	1.4328e+01	2.8689	32.737134	0.000608	6.080576	1.030077	0.000122
 146	1.4428e+01	2.8885	32.874396	0.000689	6.891319	1.167421	0.000138
 147	1.4527e+01	2.9086	32.959176	0.000426	4.256403	0.721054	0.000085
 148	1.4627e+01	2.9275	33.096439	0.000689	6.891319	1.167421	0.000138
 149	1.4726e+01	2.9476	33.229664	0.000669	6.688633	1.133085	0.000134
 150	1.4825e+01	2.9678	33.310407	0.000405	4.053717	0.686718	0.000081
 151	1.4925e+01	2.9874	33.435558	0.000628	6.283262	1.064413	0.000126
 152	1.5024e+01	3.0071	33.540524	0.000527	5.269832	0.892734	0.000105
 153	1.5124e+01	3.0273	33.657601	0.000588	5.877890	0.995742	0.000118
 154	1.5223e+01	3.0470	33.790826	0.000669	6.688633	1.133085	0.000134
 155	1.5323e+01	3.0682	33.911940	0.000608	6.080576	1.030077	0.000122
 156	1.5422e+01	3.0876	33.996720	0.000426	4.256403	0.721054	0.000085
 157	1.5522e+01	3.1075	34.105723	0.000547	5.472518	0.927070	0.000110
 158	1.5621e+01	3.1266	34.214725	0.000547	5.472518	0.927070	0.000110
 159	1.5721e+01	3.1477	34.347951	0.000669	6.688633	1.133085	0.000134
 160	1.5820e+01	3.1670	34.465028	0.000588	5.877890	0.995742	0.000118
 161	1.5920e+01	3.1874	34.557882	0.000466	4.661775	0.789726	0.000093
 162	1.6020e+01	3.2070	34.678996	0.000608	6.080576	1.030077	0.000122
 163	1.6119e+01	3.2262	34.796073	0.000588	5.877890	0.995742	0.000118
 164	1.6218e+01	3.2464	34.909113	0.000568	5.675204	0.961406	0.000114
 165	1.6318e+01	3.2670	35.038301	0.000649	6.485948	1.098749	0.000130
 166	1.6418e+01	3.2864	35.094821	0.000284	2.837602	0.480703	0.000057
 167	1.6517e+01	3.3060	35.199786	0.000527	5.269832	0.892734	0.000105
 168	1.6616e+01	3.3263	35.365309	0.000831	8.310120	1.407773	0.000166
 169	1.6716e+01	3.3467	35.470275	0.000527	5.269832	0.892734	0.000105
 170	1.6816e+01	3.3625	35.579277	0.000547	5.472518	0.927070	0.000110
 171	1.6915e+01	3.3868	35.692317	0.000568	5.675204	0.961406	0.000114
 172	1.7015e+01	3.4061	35.857840	0.000831	8.310120	1.407773	0.000166
 173	1.7114e+01	3.4255	35.934545	0.000385	3.851031	0.652382	0.000077
 174	1.7213e+01	3.4457	36.039511	0.000527	5.269832	0.892734	0.000105
 175	1.7313e+01	3.4656	36.172736	0.000669	6.688633	1.133085	0.000134
 176	1.7413e+01	3.4859	36.249442	0.000385	3.851031	0.652382	0.000077
 177	1.7512e+01	3.5049	36.358444	0.000547	5.472518	0.927070	0.000110
 178	1.7611e+01	3.5246	36.479559	0.000608	6.080576	1.030077	0.000122
 179	1.7711e+01	3.5458	36.604710	0.000628	6.283262	1.064413	0.000126
 180	1.7811e+01	3.5658	36.709675	0.000527	5.269832	0.892734	0.000105
 181	1.7910e+01	3.5853	36.802529	0.000466	4.661775	0.789726	0.000093
 182	1.8009e+01	3.6044	36.984200	0.000912	9.120864	1.545116	0.000183
 183	1.8109e+01	3.6250	37.028609	0.000223	2.229544	0.377695	0.000045
 184	1.8209e+01	3.6452	37.169909	0.000709	7.094005	1.201757	0.000142
 185	1.8308e+01	3.6654	37.266800	0.000486	4.864461	0.824062	0.000097
 186	1.8407e+01	3.6855	37.339468	0.000365	3.648346	0.618046	0.000073
 187	1.8507e+01	3.7049	37.448471	0.000547	5.472518	0.927070	0.000110
 188	1.8607e+01	3.7255	37.561511	0.000568	5.675204	0.961406	0.000114
 189	1.8706e+01	3.7448	37.678588	0.000588	5.877890	0.995742	0.000118
 190	1.8805e+01	3.7651	37.836036	0.000790	7.904749	1.339101	0.000158
 191	1.8905e+01	3.7841	37.953113	0.000588	5.877890	0.995742	0.000118
 192	1.9005e+01	3.8038	38.037893	0.000426	4.256403	0.721054	0.000085
 193	1.9104e+01	3.8251	38.159007	0.000608	6.080576	1.030077	0.000122
 194	1.9203e+01	3.8445	38.272047	0.000568	5.675204	0.961406	0.000114
 195	1.9303e+01	3.8635	38.332604	0.000304	3.040288	0.515039	0.000061
 196	1.9402e+01	3.8839	38.453718	0.000608	6.080576	1.030077	0.000122
 197	1.9502e+01	3.9046	38.558683	0.000527	5.269832	0.892734	0.000105
 198	1.9602e+01	3.9239	38.663649	0.000527	5.269832	0.892734	0.000105
 199	1.9701e+01	3.9434	38.808986	0.000730	7.296691	1.236093	0.000146
 200	1.9800e+01	3.9639	38.869543	0.000304	3.040288	0.515039	0.000061
 201	1.9900e+01	3.9832	39.010843	0.000709	7.094005	1.201757	0.000142
 202	2.0000e+01	4.0041	39.115808	0.000527	5.269832	0.892734	0.000105
 203	2.0099e+01	4.0246	39.216737	0.000507	5.067147	0.858398	0.000101
 204	2.0198e+01	4.0437	39.341888	0.000628	6.283262	1.064413	0.000126
 205	2.0298e+01	4.0630	39.438779	0.000486	4.864461	0.824062	0.000097
 206	2.0398e+01	4.0829	39.511447	0.000365	3.648346	0.618046	0.000073
 207	2.0497e+01	4.1033	39.652747	0.000709	7.094005	1.201757	0.000142
 208	2.0596e+01	4.1227	39.802121	0.000750	7.499377	1.270429	0.000150
 209	2.0696e+01	4.1430	39.874790	0.000365	3.648346	0.618046	0.000073
 210	2.0796e+01	4.1634	39.995904	0.000608	6.080576	1.030077	0.000122
 211	2.0895e+01	4.1824	40.100869	0.000527	5.269832	0.892734	0.000105
 212	2.0994e+01	4.2031	40.217946	0.000588	5.877890	0.995742	0.000118
 213	2.1094e+01	4.2233	40.298689	0.000405	4.053717	0.686718	0.000081
 214	2.1194e+01	4.2425	40.427877	0.000649	6.485948	1.098749	0.000130
 215	2.1293e+01	4.2630	40.508620	0.000405	4.053717	0.686718	0.000081
 216	2.1392e+01	4.2832	40.613586	0.000527	5.269832	0.892734	0.000105
 217	2.1492e+01	4.3026	40.722588	0.000547	5.472518	0.927070	0.000110
 218	2.1591e+01	4.3218	40.823517	0.000507	5.067147	0.858398	0.000101
 219	2.1691e+01	4.3434	40.928482	0.000527	5.269832	0.892734	0.000105
 220	2.1791e+01	4.3616	41.049596	0.000608	6.080576	1.030077	0.000122
 221	2.1890e+01	4.3806	41.154562	0.000527	5.269832	0.892734	0.000105
 222	2.1989e+01	4.4025	41.231267	0.000385	3.851031	0.652382	0.000077
 223	2.2089e+01	4.4225	41.360456	0.000649	6.485948	1.098749	0.000130
 224	2.2189e+01	4.4418	41.453310	0.000466	4.661775	0.789726	0.000093
 225	2.2288e+01	4.4625	41.586535	0.000669	6.688633	1.133085	0.000134
 226	2.2387e+01	4.4813	41.683426	0.000486	4.864461	0.824062	0.000097
 227	2.2487e+01	4.5016	41.780318	0.000486	4.864461	0.824062	0.000097
 228	2.2587e+01	4.5215	41.921618	0.000709	7.094005	1.201757	0.000142
 229	2.2686e+01	4.5402	41.990249	0.000345	3.445660	0.583711	0.000069
 230	2.2785e+01	4.5615	42.127511	0.000689	6.891319	1.167421	0.000138
 231	2.2885e+01	4.5820	42.196143	0.000345	3.445660	0.583711	0.000069
 232	2.2985e+01	4.6014	42.297071	0.000507	5.067147	0.858398	0.000101
 233	2.3084e+01	4.6215	42.426259	0.000649	6.485948	1.098749	0.000130
 234	2.3183e+01	4.6410	42.511039	0.000426	4.256403	0.721054	0.000085
 235	2.3283e+01	4.6607	42.636191	0.000628	6.283262	1.064413	0.000126
 236	2.3383e+01	4.6806	42.733082	0.000486	4.864461	0.824062	0.000097
 237	2.3482e+01	4.7004	42.850159	0.000588	5.877890	0.995742	0.000118
 238	2.3581e+01	4.7215	42.934939	0.000426	4.256403	0.721054	0.000085
 239	2.3681e+01	4.7411	43.056053	0.000608	6.080576	1.030077	0.000122
 240	2.3780e+01	4.7601	43.144870	0.000446	4.459089	0.755390	0.000089
 241	2.3880e+01	4.7807	43.253872	0.000547	5.472518	0.927070	0.000110
 242	2.3980e+01	4.8009	43.350764	0.000486	4.864461	0.824062	0.000097
 243	2.4079e+01	4.8220	43.463803	0.000568	5.675204	0.961406	0.000114
 244	2.4178e+01	4.8400	43.536472	0.000365	3.648346	0.618046	0.000073
 245	2.4278e+01	4.8608	43.633363	0.000486	4.864461	0.824062	0.000097
 246	2.4378e+01	4.8800	43.754477	0.000608	6.080576	1.030077	0.000122
 247	2.4477e+01	4.9000	43.871554	0.000588	5.877890	0.995742	0.000118
 248	2.4576e+01	4.9197	43.964408	0.000466	4.661775	0.789726	0.000093
 249	2.4676e+01	4.9416	44.089559	0.000628	6.283262	1.064413	0.000126
 250	2.4776e+01	4.9596	44.178376	0.000446	4.459089	0.755390	0.000089
 251	2.4875e+01	4.9810	44.299490	0.000608	6.080576	1.030077	0.000122
 252	2.4974e+01	5.0002	44.404456	0.000527	5.269832	0.892734	0.000105
 253	2.5074e+01	5.0195	44.493273	0.000446	4.459089	0.755390	0.000089
 254	2.5174e+01	5.0363	44.606313	0.000568	5.675204	0.961406	0.000114
 255	2.5273e+01	5.0584	44.707241	0.000507	5.067147	0.858398	0.000101
 256	2.5372e+01	5.0783	44.787984	0.000405	4.053717	0.686718	0.000081
 257	2.5472e+01	5.0996	44.876801	0.000446	4.459089	0.755390	0.000089
 258	2.5572e+01	5.1192	45.001952	0.000628	6.283262	1.064413	0.000126
 259	2.5671e+01	5.1387	45.094806	0.000466	4.661775	0.789726	0.000093
 260	2.5770e+01	5.1583	45.163438	0.000345	3.445660	0.583711	0.000069
 261	2.5870e+01	5.1788	45.328960	0.000831	8.310120	1.407773	0.000166
