»»»»»»»»»»»»»»»»»»»»»»»»»»»»»»»»»»»» Hysteresis ««««««««««««««««««««««««««««««««««««
»»»  Executed Version:	5.48.1
»»»  Vision Version:	5.48.4 (R)
»»»  Vision Compiled:	9/18/24
»»»  Driver Version:	5.47.0
»»»  Windows Version:	Windows 8 or 8.1
»»»  Processor Information:	x86 (AMD or Intel) - 32 Processors
»»»  Tester Name:	PMF21124-494 (100V)
»»»  Tester S/N:	PMF21124-494
»»»  Internal Amp Type:	100V RevK 270k
»»»  Internal Amp S/N:	iAB2-596/K     
»»»  Execution Count:	1
»»»»»»»»»»»»»»»»»»»»»»»»»»»»»»»»»»»»»»»»»»««««««««««««««««««««««««««««««««««««««««««

Stored:	7/7/2025 - 14:2:39
Configured:	07/07/25 01:27:50 PM
Executed:	07/07/25 02:02:11 PM

»»»»»»»»»»»»»»»»»»»»»»»»»»»»»»»»»»» Sample Info ««««««««««««««««««««««««««««««««««««
Sample Name:	
Lot Name:	
Wafer Name:	
Die Row/Column:	0/0
Capacitor Number:	0
Sample Area (cm2):	1.00e-04
Sample Thickness (microns):	1.50e-01

Amplifier:	Internal

»»»»»»»»»»»»»»»»»»»»»»»»»»»»»»»»»»» Tester Info «««««««««««««««««««««««««««««««««««
Tester Name:	PMF21124-494 (100V)
Tester Serial Number:	PMF21124-494
Return Signal Amp. Level:	0.19 [Index: 3]

»»»»»»»»»»»»»»»»»»»»»»»»»»»»»»»» Hysteresis Info ««««««««««««««««««««««««««««««««««
Task Name:	Hyst-528
Volts:	10.00
Field:	666.67 (kV/cm)
DCBias:	0.00
DCField:	0.00 (kV/cm)
Hysteresis Period (ms):	2.00e+02
Preset:	Enabled
Preset Delay (ms):	1.00e+03
Profile:	Standard Bipolar

»»»»»»»»»»»»»»»»»»»»»»»»»»»»»»»»»»»»»» Data «««««««««««««««««««««««««««««««««««««««
Points:	2009

Valid Data

Point	Time (ms)	Drive Voltage	Measured Polarization (uC/cm2)	Capacitance (uF)	Normalized Capacitance (uF/cm2)	Dielectric Constant	Instantaneous Current (mA)
   1	0.0000e+00	0.0003	0.377472	0.000831	8.310025	1.407756	0.000166
   2	9.9500e-02	0.0193	0.542995	0.000831	8.310025	1.407756	0.000166
   3	1.9900e-01	0.0391	0.664109	0.000608	6.080506	1.030066	0.000122
   4	2.9850e-01	0.0630	0.813483	0.000750	7.499291	1.270414	0.000150
   5	3.9800e-01	0.0797	0.954783	0.000709	7.093924	1.201743	0.000142
   6	4.9750e-01	0.1001	1.071860	0.000588	5.877823	0.995730	0.000118
   7	5.9700e-01	0.1193	1.184899	0.000568	5.675139	0.961395	0.000114
   8	6.9650e-01	0.1382	1.334273	0.000750	7.499291	1.270414	0.000150
   9	7.9600e-01	0.1596	1.423090	0.000446	4.459038	0.755381	0.000089
  10	8.9550e-01	0.1781	1.580539	0.000790	7.904658	1.339085	0.000158
  11	9.9500e-01	0.1984	1.721838	0.000709	7.093924	1.201743	0.000142
  12	1.0945e+00	0.2187	1.798544	0.000385	3.850987	0.652375	0.000077
  13	1.1940e+00	0.2397	1.960029	0.000811	8.107342	1.373421	0.000162
  14	1.2935e+00	0.2586	2.121515	0.000811	8.107342	1.373421	0.000162
  15	1.3930e+00	0.2775	2.262815	0.000709	7.093924	1.201743	0.000142
  16	1.4925e+00	0.2979	2.351632	0.000446	4.459038	0.755381	0.000089
  17	1.5920e+00	0.3185	2.517154	0.000831	8.310025	1.407756	0.000166
  18	1.6915e+00	0.3383	2.654417	0.000689	6.891240	1.167408	0.000138
  19	1.7910e+00	0.3577	2.828014	0.000872	8.715392	1.476427	0.000174
  20	1.8905e+00	0.3786	2.937016	0.000547	5.472456	0.927059	0.000110
  21	1.9900e+00	0.3980	3.054093	0.000588	5.877823	0.995730	0.000118
  22	2.0895e+00	0.4179	3.203467	0.000750	7.499291	1.270414	0.000150
  23	2.1890e+00	0.4382	3.296321	0.000466	4.661721	0.789717	0.000093
  24	2.2885e+00	0.4582	3.449732	0.000770	7.701975	1.304750	0.000154
  25	2.3880e+00	0.4781	3.591032	0.000709	7.093924	1.201743	0.000142
  26	2.4875e+00	0.4983	3.764629	0.000872	8.715392	1.476427	0.000174
  27	2.5870e+00	0.5180	3.845372	0.000405	4.053671	0.686710	0.000081
  28	2.6865e+00	0.5382	4.010894	0.000831	8.310025	1.407756	0.000166
  29	2.7860e+00	0.5584	4.144120	0.000669	6.688557	1.133072	0.000134
  30	2.8855e+00	0.5776	4.337902	0.000973	9.728810	1.648105	0.000195
  31	2.9850e+00	0.5977	4.442868	0.000527	5.269772	0.892724	0.000105
  32	3.0845e+00	0.6175	4.568019	0.000628	6.283190	1.064401	0.000126
  33	3.1840e+00	0.6383	4.741616	0.000872	8.715392	1.476427	0.000174
  34	3.2835e+00	0.6570	4.846581	0.000527	5.269772	0.892724	0.000105
  35	3.3830e+00	0.6769	5.012104	0.000831	8.310025	1.407756	0.000166
  36	3.4825e+00	0.6960	5.141292	0.000649	6.485873	1.098737	0.000130
  37	3.5820e+00	0.7167	5.302778	0.000811	8.107342	1.373421	0.000162
  38	3.6815e+00	0.7372	5.403706	0.000507	5.067089	0.858388	0.000101
  39	3.7810e+00	0.7573	5.577303	0.000872	8.715392	1.476427	0.000174
  40	3.8805e+00	0.7765	5.686306	0.000547	5.472456	0.927059	0.000110
  41	3.9800e+00	0.7966	5.835680	0.000750	7.499291	1.270414	0.000150
  42	4.0795e+00	0.8169	6.013314	0.000892	8.918076	1.510763	0.000179
  43	4.1790e+00	0.8357	6.114242	0.000507	5.067089	0.858388	0.000101
  44	4.2785e+00	0.8566	6.271690	0.000790	7.904658	1.339085	0.000158
  45	4.3780e+00	0.8768	6.396842	0.000628	6.283190	1.064401	0.000126
  46	4.4775e+00	0.8965	6.513919	0.000588	5.877823	0.995730	0.000118
  47	4.5770e+00	0.9173	6.663293	0.000750	7.499291	1.270414	0.000150
  48	4.6765e+00	0.9366	6.828815	0.000831	8.310025	1.407756	0.000166
  49	4.7760e+00	0.9563	6.966078	0.000689	6.891240	1.167408	0.000138
  50	4.8755e+00	0.9763	7.123526	0.000790	7.904658	1.339085	0.000158
  51	4.9750e+00	0.9962	7.248677	0.000628	6.283190	1.064401	0.000126
  52	5.0745e+00	1.0156	7.373828	0.000628	6.283190	1.064401	0.000126
  53	5.1740e+00	1.0361	7.547425	0.000872	8.715392	1.476427	0.000174
  54	5.2735e+00	1.0565	7.688725	0.000709	7.093924	1.201743	0.000142
  55	5.3730e+00	1.0751	7.777542	0.000446	4.459038	0.755381	0.000089
  56	5.4725e+00	1.0965	7.959213	0.000912	9.120759	1.545098	0.000183
  57	5.5720e+00	1.1152	8.096476	0.000689	6.891240	1.167408	0.000138
  58	5.6715e+00	1.1354	8.209516	0.000568	5.675139	0.961395	0.000114
  59	5.7710e+00	1.1559	8.391187	0.000912	9.120759	1.545098	0.000183
  60	5.8705e+00	1.1758	8.540561	0.000750	7.499291	1.270414	0.000150
  61	5.9700e+00	1.1958	8.641489	0.000507	5.067089	0.858388	0.000101
  62	6.0695e+00	1.2156	8.802974	0.000811	8.107342	1.373421	0.000162
  63	6.1690e+00	1.2345	8.928126	0.000628	6.283190	1.064401	0.000126
  64	6.2685e+00	1.2550	9.089611	0.000811	8.107342	1.373421	0.000162
  65	6.3680e+00	1.2749	9.251097	0.000811	8.107342	1.373421	0.000162
  66	6.4675e+00	1.2946	9.380285	0.000649	6.485873	1.098737	0.000130
  67	6.5670e+00	1.3146	9.513510	0.000669	6.688557	1.133072	0.000134
  68	6.6665e+00	1.3342	9.691144	0.000892	8.918076	1.510763	0.000179
  69	6.7660e+00	1.3549	9.796110	0.000527	5.269772	0.892724	0.000105
  70	6.8655e+00	1.3741	9.925298	0.000649	6.485873	1.098737	0.000130
  71	6.9650e+00	1.3945	10.090821	0.000831	8.310025	1.407756	0.000166
  72	7.0645e+00	1.4141	10.248269	0.000790	7.904658	1.339085	0.000158
  73	7.1640e+00	1.4352	10.409755	0.000811	8.107342	1.373421	0.000162
  74	7.2635e+00	1.4543	10.522794	0.000568	5.675139	0.961395	0.000114
  75	7.3630e+00	1.4741	10.647946	0.000628	6.283190	1.064401	0.000126
  76	7.4625e+00	1.4938	10.825579	0.000892	8.918076	1.510763	0.000179
  77	7.5620e+00	1.5144	10.938619	0.000568	5.675139	0.961395	0.000114
  78	7.6615e+00	1.5337	11.144513	0.001034	10.336861	1.751112	0.000207
  79	7.7610e+00	1.5543	11.257553	0.000568	5.675139	0.961395	0.000114
  80	7.8605e+00	1.5735	11.354444	0.000486	4.864405	0.824053	0.000097
  81	7.9600e+00	1.5935	11.507855	0.000770	7.701975	1.304750	0.000154
  82	8.0595e+00	1.6129	11.689527	0.000912	9.120759	1.545098	0.000183
  83	8.1590e+00	1.6329	11.814678	0.000628	6.283190	1.064401	0.000126
  84	8.2585e+00	1.6531	11.955977	0.000709	7.093924	1.201743	0.000142
  85	8.3580e+00	1.6734	12.085166	0.000649	6.485873	1.098737	0.000130
  86	8.4575e+00	1.6929	12.250688	0.000831	8.310025	1.407756	0.000166
  87	8.5570e+00	1.7137	12.412174	0.000811	8.107342	1.373421	0.000162
  88	8.6565e+00	1.7327	12.500991	0.000446	4.459038	0.755381	0.000089
  89	8.7560e+00	1.7522	12.658439	0.000790	7.904658	1.339085	0.000158
  90	8.8555e+00	1.7733	12.815887	0.000790	7.904658	1.339085	0.000158
  91	8.9550e+00	1.7931	12.941039	0.000628	6.283190	1.064401	0.000126
  92	9.0545e+00	1.8130	13.102524	0.000811	8.107342	1.373421	0.000162
  93	9.1540e+00	1.8335	13.231712	0.000649	6.485873	1.098737	0.000130
  94	9.2535e+00	1.8524	13.393198	0.000811	8.107342	1.373421	0.000162
  95	9.3530e+00	1.8732	13.502200	0.000547	5.472456	0.927059	0.000110
  96	9.4525e+00	1.8922	13.679834	0.000892	8.918076	1.510763	0.000179
  97	9.5520e+00	1.9124	13.780763	0.000507	5.067089	0.858388	0.000101
  98	9.6515e+00	1.9319	13.942248	0.000811	8.107342	1.373421	0.000162
  99	9.7510e+00	1.9534	14.075474	0.000669	6.688557	1.133072	0.000134
 100	9.8505e+00	1.9713	14.212736	0.000689	6.891240	1.167408	0.000138
 101	9.9500e+00	1.9918	14.345962	0.000669	6.688557	1.133072	0.000134
 102	1.0050e+01	2.0113	14.503410	0.000790	7.904658	1.339085	0.000158
 103	1.0149e+01	2.0331	14.632598	0.000649	6.485873	1.098737	0.000130
 104	1.0248e+01	2.0525	14.786010	0.000770	7.701975	1.304750	0.000154
 105	1.0348e+01	2.0720	14.911161	0.000628	6.283190	1.064401	0.000126
 106	1.0447e+01	2.0917	15.052461	0.000709	7.093924	1.201743	0.000142
 107	1.0547e+01	2.1117	15.222020	0.000851	8.512709	1.442092	0.000170
 108	1.0646e+01	2.1317	15.298726	0.000385	3.850987	0.652375	0.000077
 109	1.0746e+01	2.1526	15.468286	0.000851	8.512709	1.442092	0.000170
 110	1.0845e+01	2.1722	15.613622	0.000730	7.296608	1.236079	0.000146
 111	1.0945e+01	2.1918	15.767034	0.000770	7.701975	1.304750	0.000154
 112	1.1044e+01	2.2106	15.920445	0.000770	7.701975	1.304750	0.000154
 113	1.1144e+01	2.2318	16.033485	0.000568	5.675139	0.961395	0.000114
 114	1.1243e+01	2.2519	16.150562	0.000588	5.877823	0.995730	0.000118
 115	1.1343e+01	2.2710	16.263601	0.000568	5.675139	0.961395	0.000114
 116	1.1443e+01	2.2906	16.445272	0.000912	9.120759	1.545098	0.000183
 117	1.1542e+01	2.3106	16.570424	0.000628	6.283190	1.064401	0.000126
 118	1.1642e+01	2.3301	16.715761	0.000730	7.296608	1.236079	0.000146
 119	1.1741e+01	2.3495	16.869172	0.000770	7.701975	1.304750	0.000154
 120	1.1841e+01	2.3719	16.978174	0.000547	5.472456	0.927059	0.000110
 121	1.1940e+01	2.3910	17.147734	0.000851	8.512709	1.442092	0.000170
 122	1.2040e+01	2.4114	17.272885	0.000628	6.283190	1.064401	0.000126
 123	1.2139e+01	2.4309	17.406111	0.000669	6.688557	1.133072	0.000134
 124	1.2239e+01	2.4503	17.571633	0.000831	8.310025	1.407756	0.000166
 125	1.2338e+01	2.4706	17.656413	0.000426	4.256354	0.721046	0.000085
 126	1.2438e+01	2.4899	17.834047	0.000892	8.918076	1.510763	0.000179
 127	1.2537e+01	2.5100	17.967273	0.000669	6.688557	1.133072	0.000134
 128	1.2636e+01	2.5295	18.128758	0.000811	8.107342	1.373421	0.000162
 129	1.2736e+01	2.5497	18.249872	0.000608	6.080506	1.030066	0.000122
 130	1.2835e+01	2.5693	18.383098	0.000669	6.688557	1.133072	0.000134
 131	1.2935e+01	2.5895	18.540546	0.000790	7.904658	1.339085	0.000158
 132	1.3034e+01	2.6092	18.673771	0.000669	6.688557	1.133072	0.000134
 133	1.3134e+01	2.6295	18.802960	0.000649	6.485873	1.098737	0.000130
 134	1.3233e+01	2.6494	18.948297	0.000730	7.296608	1.236079	0.000146
 135	1.3333e+01	2.6695	19.117856	0.000851	8.512709	1.442092	0.000170
 136	1.3432e+01	2.6890	19.186488	0.000345	3.445620	0.583704	0.000069
 137	1.3532e+01	2.7094	19.339899	0.000770	7.701975	1.304750	0.000154
 138	1.3632e+01	2.7290	19.509458	0.000851	8.512709	1.442092	0.000170
 139	1.3731e+01	2.7483	19.598275	0.000446	4.459038	0.755381	0.000089
 140	1.3831e+01	2.7695	19.804169	0.001034	10.336861	1.751112	0.000207
 141	1.3930e+01	2.7889	19.892986	0.000446	4.459038	0.755381	0.000089
 142	1.4030e+01	2.8088	20.070620	0.000892	8.918076	1.510763	0.000179
 143	1.4129e+01	2.8291	20.199809	0.000649	6.485873	1.098737	0.000130
 144	1.4229e+01	2.8483	20.300737	0.000507	5.067089	0.858388	0.000101
 145	1.4328e+01	2.8687	20.458185	0.000790	7.904658	1.339085	0.000158
 146	1.4428e+01	2.8883	20.575262	0.000588	5.877823	0.995730	0.000118
 147	1.4527e+01	2.9093	20.712525	0.000689	6.891240	1.167408	0.000138
 148	1.4627e+01	2.9288	20.898233	0.000932	9.323443	1.579434	0.000187
 149	1.4726e+01	2.9491	21.007236	0.000547	5.472456	0.927059	0.000110
 150	1.4825e+01	2.9684	21.124313	0.000588	5.877823	0.995730	0.000118
 151	1.4925e+01	2.9876	21.281761	0.000790	7.904658	1.339085	0.000158
 152	1.5024e+01	3.0087	21.398838	0.000588	5.877823	0.995730	0.000118
 153	1.5124e+01	3.0285	21.536101	0.000689	6.891240	1.167408	0.000138
 154	1.5223e+01	3.0482	21.653178	0.000588	5.877823	0.995730	0.000118
 155	1.5323e+01	3.0682	21.802552	0.000750	7.499291	1.270414	0.000150
 156	1.5422e+01	3.0877	21.968074	0.000831	8.310025	1.407756	0.000166
 157	1.5522e+01	3.1081	22.060928	0.000466	4.661721	0.789717	0.000093
 158	1.5621e+01	3.1271	22.226451	0.000831	8.310025	1.407756	0.000166
 159	1.5721e+01	3.1470	22.351602	0.000628	6.283190	1.064401	0.000126
 160	1.5820e+01	3.1674	22.509050	0.000790	7.904658	1.339085	0.000158
 161	1.5920e+01	3.1879	22.609979	0.000507	5.067089	0.858388	0.000101
 162	1.6020e+01	3.2073	22.743204	0.000669	6.688557	1.133072	0.000134
 163	1.6119e+01	3.2269	22.880467	0.000689	6.891240	1.167408	0.000138
 164	1.6218e+01	3.2478	23.037915	0.000790	7.904658	1.339085	0.000158
 165	1.6318e+01	3.2678	23.167103	0.000649	6.485873	1.098737	0.000130
 166	1.6418e+01	3.2872	23.284180	0.000588	5.877823	0.995730	0.000118
 167	1.6517e+01	3.3077	23.425480	0.000709	7.093924	1.201743	0.000142
 168	1.6616e+01	3.3266	23.607151	0.000912	9.120759	1.545098	0.000183
 169	1.6716e+01	3.3463	23.687894	0.000405	4.053671	0.686710	0.000081
 170	1.6816e+01	3.3665	23.813045	0.000628	6.283190	1.064401	0.000126
 171	1.6915e+01	3.3868	23.938196	0.000628	6.283190	1.064401	0.000126
 172	1.7015e+01	3.4068	24.091608	0.000770	7.701975	1.304750	0.000154
 173	1.7114e+01	3.4261	24.228870	0.000689	6.891240	1.167408	0.000138
 174	1.7213e+01	3.4463	24.394393	0.000831	8.310025	1.407756	0.000166
 175	1.7313e+01	3.4668	24.503395	0.000547	5.472456	0.927059	0.000110
 176	1.7413e+01	3.4866	24.660844	0.000790	7.904658	1.339085	0.000158
 177	1.7512e+01	3.5058	24.798106	0.000689	6.891240	1.167408	0.000138
 178	1.7611e+01	3.5265	24.927295	0.000649	6.485873	1.098737	0.000130
 179	1.7711e+01	3.5467	25.044372	0.000588	5.877823	0.995730	0.000118
 180	1.7811e+01	3.5659	25.185671	0.000709	7.093924	1.201743	0.000142
 181	1.7910e+01	3.5856	25.306785	0.000608	6.080506	1.030066	0.000122
 182	1.8009e+01	3.6056	25.448085	0.000709	7.093924	1.201743	0.000142
 183	1.8109e+01	3.6263	25.553051	0.000527	5.269772	0.892724	0.000105
 184	1.8209e+01	3.6458	25.738759	0.000932	9.323443	1.579434	0.000187
 185	1.8308e+01	3.6671	25.835650	0.000486	4.864405	0.824053	0.000097
 186	1.8407e+01	3.6865	26.025396	0.000953	9.526127	1.613770	0.000191
 187	1.8507e+01	3.7064	26.126324	0.000507	5.067089	0.858388	0.000101
 188	1.8607e+01	3.7257	26.271661	0.000730	7.296608	1.236079	0.000146
 189	1.8706e+01	3.7457	26.404886	0.000669	6.688557	1.133072	0.000134
 190	1.8805e+01	3.7655	26.554260	0.000750	7.499291	1.270414	0.000150
 191	1.8905e+01	3.7857	26.679412	0.000628	6.283190	1.064401	0.000126
 192	1.9005e+01	3.8049	26.840897	0.000811	8.107342	1.373421	0.000162
 193	1.9104e+01	3.8265	26.937788	0.000486	4.864405	0.824053	0.000097
 194	1.9203e+01	3.8447	27.083125	0.000730	7.296608	1.236079	0.000146
 195	1.9303e+01	3.8638	27.208276	0.000628	6.283190	1.064401	0.000126
 196	1.9402e+01	3.8842	27.365725	0.000790	7.904658	1.339085	0.000158
 197	1.9502e+01	3.9040	27.474727	0.000547	5.472456	0.927059	0.000110
 198	1.9602e+01	3.9251	27.616027	0.000709	7.093924	1.201743	0.000142
 199	1.9701e+01	3.9443	27.729067	0.000568	5.675139	0.961395	0.000114
 200	1.9800e+01	3.9648	27.886515	0.000790	7.904658	1.339085	0.000158
 201	1.9900e+01	3.9842	28.023778	0.000689	6.891240	1.167408	0.000138
 202	2.0000e+01	4.0046	28.140855	0.000588	5.877823	0.995730	0.000118
 203	2.0099e+01	4.0235	28.266006	0.000628	6.283190	1.064401	0.000126
 204	2.0198e+01	4.0441	28.435566	0.000851	8.512709	1.442092	0.000170
 205	2.0298e+01	4.0643	28.564754	0.000649	6.485873	1.098737	0.000130
 206	2.0398e+01	4.0835	28.641459	0.000385	3.850987	0.652375	0.000077
 207	2.0497e+01	4.1039	28.798908	0.000790	7.904658	1.339085	0.000158
 208	2.0596e+01	4.1236	28.960393	0.000811	8.107342	1.373421	0.000162
 209	2.0696e+01	4.1444	29.085544	0.000628	6.283190	1.064401	0.000126
 210	2.0796e+01	4.1634	29.206658	0.000608	6.080506	1.030066	0.000122
 211	2.0895e+01	4.1833	29.323735	0.000588	5.877823	0.995730	0.000118
 212	2.0994e+01	4.2027	29.444850	0.000608	6.080506	1.030066	0.000122
 213	2.1094e+01	4.2237	29.606335	0.000811	8.107342	1.373421	0.000162
 214	2.1194e+01	4.2426	29.711300	0.000527	5.269772	0.892724	0.000105
 215	2.1293e+01	4.2635	29.828377	0.000588	5.877823	0.995730	0.000118
 216	2.1392e+01	4.2839	29.965640	0.000689	6.891240	1.167408	0.000138
 217	2.1492e+01	4.3029	30.106940	0.000709	7.093924	1.201743	0.000142
 218	2.1591e+01	4.3229	30.179608	0.000365	3.648304	0.618039	0.000073
 219	2.1691e+01	4.3424	30.377428	0.000993	9.931494	1.682441	0.000199
 220	2.1791e+01	4.3637	30.490468	0.000568	5.675139	0.961395	0.000114
 221	2.1890e+01	4.3829	30.591396	0.000507	5.067089	0.858388	0.000101
 222	2.1989e+01	4.4025	30.769030	0.000892	8.918076	1.510763	0.000179
 223	2.2089e+01	4.4218	30.869958	0.000507	5.067089	0.858388	0.000101
 224	2.2189e+01	4.4415	31.015295	0.000730	7.296608	1.236079	0.000146
 225	2.2288e+01	4.4623	31.116224	0.000507	5.067089	0.858388	0.000101
 226	2.2387e+01	4.4833	31.249449	0.000669	6.688557	1.133072	0.000134
 227	2.2487e+01	4.5019	31.390749	0.000709	7.093924	1.201743	0.000142
 228	2.2587e+01	4.5223	31.479566	0.000446	4.459038	0.755381	0.000089
 229	2.2686e+01	4.5421	31.661237	0.000912	9.120759	1.545098	0.000183
 230	2.2785e+01	4.5618	31.758128	0.000486	4.864405	0.824053	0.000097
 231	2.2885e+01	4.5808	31.903465	0.000730	7.296608	1.236079	0.000146
 232	2.2985e+01	4.6014	32.016505	0.000568	5.675139	0.961395	0.000114
 233	2.3084e+01	4.6212	32.173953	0.000790	7.904658	1.339085	0.000158
 234	2.3183e+01	4.6416	32.299104	0.000628	6.283190	1.064401	0.000126
 235	2.3283e+01	4.6612	32.379847	0.000405	4.053671	0.686710	0.000081
 236	2.3383e+01	4.6816	32.545370	0.000831	8.310025	1.407756	0.000166
 237	2.3482e+01	4.7015	32.646298	0.000507	5.067089	0.858388	0.000101
 238	2.3581e+01	4.7228	32.795672	0.000750	7.499291	1.270414	0.000150
 239	2.3681e+01	4.7414	32.912749	0.000588	5.877823	0.995730	0.000118
 240	2.3780e+01	4.7615	33.017715	0.000527	5.269772	0.892724	0.000105
 241	2.3880e+01	4.7823	33.154977	0.000689	6.891240	1.167408	0.000138
 242	2.3980e+01	4.8011	33.272054	0.000588	5.877823	0.995730	0.000118
 243	2.4079e+01	4.8212	33.393168	0.000608	6.080506	1.030066	0.000122
 244	2.4178e+01	4.8403	33.538505	0.000730	7.296608	1.236079	0.000146
 245	2.4278e+01	4.8614	33.691916	0.000770	7.701975	1.304750	0.000154
 246	2.4378e+01	4.8806	33.808993	0.000588	5.877823	0.995730	0.000118
 247	2.4477e+01	4.9000	33.926070	0.000588	5.877823	0.995730	0.000118
 248	2.4576e+01	4.9212	34.071407	0.000730	7.296608	1.236079	0.000146
 249	2.4676e+01	4.9406	34.131964	0.000304	3.040253	0.515033	0.000061
 250	2.4776e+01	4.9598	34.289412	0.000790	7.904658	1.339085	0.000158
 251	2.4875e+01	4.9810	34.374192	0.000426	4.256354	0.721046	0.000085
 252	2.4974e+01	5.0007	34.531641	0.000790	7.904658	1.339085	0.000158
 253	2.5074e+01	5.0208	34.701200	0.000851	8.512709	1.442092	0.000170
 254	2.5174e+01	5.0406	34.773869	0.000365	3.648304	0.618039	0.000073
 255	2.5273e+01	5.0602	34.903057	0.000649	6.485873	1.098737	0.000130
 256	2.5372e+01	5.0793	35.008023	0.000527	5.269772	0.892724	0.000105
 257	2.5472e+01	5.1005	35.108951	0.000507	5.067089	0.858388	0.000101
 258	2.5572e+01	5.1189	35.250251	0.000709	7.093924	1.201743	0.000142
 259	2.5671e+01	5.1402	35.359253	0.000547	5.472456	0.927059	0.000110
 260	2.5770e+01	5.1600	35.508627	0.000750	7.499291	1.270414	0.000150
 261	2.5870e+01	5.1797	35.629741	0.000608	6.080506	1.030066	0.000122
 262	2.5970e+01	5.1994	35.746818	0.000588	5.877823	0.995730	0.000118
