»»»»»»»»»»»»»»»»»»»»»»»»»»»»»»»»»»»» Hysteresis ««««««««««««««««««««««««««««««««««««
»»»  Executed Version:	5.48.1
»»»  Vision Version:	5.48.4 (R)
»»»  Vision Compiled:	9/18/24
»»»  Driver Version:	5.47.0
»»»  Windows Version:	Windows 8 or 8.1
»»»  Processor Information:	x86 (AMD or Intel) - 32 Processors
»»»  Tester Name:	PMF21124-494 (100V)
»»»  Tester S/N:	PMF21124-494
»»»  Internal Amp Type:	100V RevK 270k
»»»  Internal Amp S/N:	iAB2-596/K     
»»»  Execution Count:	1
»»»»»»»»»»»»»»»»»»»»»»»»»»»»»»»»»»»»»»»»»»««««««««««««««««««««««««««««««««««««««««««

Stored:	7/9/2025 - 17:26:56
Configured:	07/09/25 02:06:30 PM
Executed:	07/09/25 05:26:18 PM

»»»»»»»»»»»»»»»»»»»»»»»»»»»»»»»»»»» Sample Info ««««««««««««««««««««««««««««««««««««
Sample Name:	
Lot Name:	
Wafer Name:	
Die Row/Column:	0/0
Capacitor Number:	0
Sample Area (cm2):	1.00e-04
Sample Thickness (microns):	1.50e-01

Amplifier:	Internal

»»»»»»»»»»»»»»»»»»»»»»»»»»»»»»»»»»» Tester Info «««««««««««««««««««««««««««««««««««
Tester Name:	PMF21124-494 (100V)
Tester Serial Number:	PMF21124-494
Return Signal Amp. Level:	0.19 [Index: 3]

»»»»»»»»»»»»»»»»»»»»»»»»»»»»»»»» Hysteresis Info ««««««««««««««««««««««««««««««««««
Task Name:	Hyst-900
Volts:	10.00
Field:	666.67 (kV/cm)
DCBias:	0.00
DCField:	0.00 (kV/cm)
Hysteresis Period (ms):	1.00e+00
Preset:	Enabled
Preset Delay (ms):	1.00e+03
Profile:	Standard Bipolar

»»»»»»»»»»»»»»»»»»»»»»»»»»»»»»»»»»»»»» Data «««««««««««««««««««««««««««««««««««««««
Points:	2001

Valid Data

Point	Time (ms)	Drive Voltage	Measured Polarization (uC/cm2)	Capacitance (uF)	Normalized Capacitance (uF/cm2)	Dielectric Constant	Instantaneous Current (mA)
   1	0.0000e+00	-0.0001	-5.898407	0.000464	4.644450	0.786791	0.018552
   2	5.0000e-04	0.0110	-5.805645	0.000464	4.644450	0.786791	0.018552
   3	1.0000e-03	0.0293	-5.733050	0.000363	3.634787	0.615750	0.014519
   4	1.5000e-03	0.0481	-5.628189	0.000525	5.250248	0.889416	0.020972
   5	2.0000e-03	0.0681	-5.462832	0.000828	8.279238	1.402541	0.033071
   6	2.5000e-03	0.0874	-5.374104	0.000444	4.442518	0.752583	0.017746
   7	3.0000e-03	0.1071	-5.285376	0.000444	4.442518	0.752583	0.017746
   8	3.5000e-03	0.1273	-5.168416	0.000586	5.856046	0.992041	0.023392
   9	4.0000e-03	0.1477	-5.035324	0.000666	6.663777	1.128874	0.026618
  10	4.5000e-03	0.1665	-4.938529	0.000485	4.846383	0.821000	0.019359
  11	5.0000e-03	0.1872	-4.813503	0.000626	6.259911	1.060458	0.025005
  12	5.5000e-03	0.2074	-4.644113	0.000848	8.481170	1.436749	0.033878
  13	6.0000e-03	0.2272	-4.539252	0.000525	5.250248	0.889416	0.020972
  14	6.5000e-03	0.2471	-4.462624	0.000384	3.836720	0.649958	0.015326
  15	7.0000e-03	0.2675	-4.341631	0.000606	6.057979	1.026249	0.024199
  16	7.5000e-03	0.2876	-4.232737	0.000545	5.452181	0.923624	0.021779
  17	8.0000e-03	0.3070	-4.131910	0.000505	5.048316	0.855208	0.020165
  18	8.5000e-03	0.3278	-4.023016	0.000545	5.452181	0.923624	0.021779
  19	9.0000e-03	0.3468	-3.906056	0.000586	5.856046	0.992041	0.023392
  20	9.5000e-03	0.3671	-3.776997	0.000646	6.461844	1.094666	0.025812
  21	1.0000e-02	0.3877	-3.647938	0.000646	6.461844	1.094666	0.025812
  22	1.0500e-02	0.4070	-3.567276	0.000404	4.038653	0.684166	0.016132
  23	1.1000e-02	0.4279	-3.434183	0.000666	6.663777	1.128874	0.026618
  24	1.1500e-02	0.4471	-3.317224	0.000586	5.856046	0.992041	0.023392
  25	1.2000e-02	0.4681	-3.200264	0.000586	5.856046	0.992041	0.023392
  26	1.2500e-02	0.4874	-3.063138	0.000687	6.865709	1.163083	0.027425
  27	1.3000e-02	0.5077	-2.962311	0.000505	5.048316	0.855208	0.020165
  28	1.3500e-02	0.5271	-2.853417	0.000545	5.452181	0.923624	0.021779
  29	1.4000e-02	0.5473	-2.748557	0.000525	5.250248	0.889416	0.020972
  30	1.4500e-02	0.5667	-2.627564	0.000606	6.057979	1.026249	0.024199
  31	1.5000e-02	0.5878	-2.530769	0.000485	4.846383	0.821000	0.019359
  32	1.5500e-02	0.6081	-2.417843	0.000565	5.654114	0.957833	0.022585
  33	1.6000e-02	0.6271	-2.264585	0.000767	7.673440	1.299916	0.030652
  34	1.6500e-02	0.6477	-2.183923	0.000404	4.038653	0.684166	0.016132
  35	1.7000e-02	0.6676	-2.075029	0.000545	5.452181	0.923624	0.021779
  36	1.7500e-02	0.6866	-1.929838	0.000727	7.269575	1.231499	0.029038
  37	1.8000e-02	0.7065	-1.784646	0.000727	7.269575	1.231499	0.029038
  38	1.8500e-02	0.7277	-1.716083	0.000343	3.432855	0.581541	0.013713
  39	1.9000e-02	0.7471	-1.591057	0.000626	6.259911	1.060458	0.025005
  40	1.9500e-02	0.7681	-1.466031	0.000626	6.259911	1.060458	0.025005
  41	2.0000e-02	0.7872	-1.357138	0.000545	5.452181	0.923624	0.021779
  42	2.0500e-02	0.8080	-1.187748	0.000848	8.481170	1.436749	0.033878
  43	2.1000e-02	0.8281	-1.115152	0.000363	3.634787	0.615750	0.014519
  44	2.1500e-02	0.8475	-0.969960	0.000727	7.269575	1.231499	0.029038
  45	2.2000e-02	0.8673	-0.893331	0.000384	3.836720	0.649958	0.015326
  46	2.2500e-02	0.8882	-0.715875	0.000889	8.885036	1.505166	0.035491
  47	2.3000e-02	0.9076	-0.651345	0.000323	3.230922	0.547333	0.012906
  48	2.3500e-02	0.9288	-0.538419	0.000565	5.654114	0.957833	0.022585
  49	2.4000e-02	0.9480	-0.409360	0.000646	6.461844	1.094666	0.025812
  50	2.4500e-02	0.9681	-0.332731	0.000384	3.836720	0.649958	0.015326
  51	2.5000e-02	0.9871	-0.288367	0.000222	2.221259	0.376291	0.008873
  52	2.5500e-02	1.0080	-0.018149	0.001353	13.529486	2.291957	0.054044
  53	2.6000e-02	1.0274	0.002017	0.000101	1.009663	0.171042	0.004033
  54	2.6500e-02	1.0474	0.171407	0.000848	8.481170	1.436749	0.033878
  55	2.7000e-02	1.0675	0.364995	0.000969	9.692766	1.641999	0.038718
  56	2.7500e-02	1.0880	0.417426	0.000263	2.625124	0.444708	0.010486
  57	2.8000e-02	1.1087	0.526319	0.000545	5.452181	0.923624	0.021779
  58	2.8500e-02	1.1284	0.627147	0.000505	5.048316	0.855208	0.020165
  59	2.9000e-02	1.1481	0.732007	0.000525	5.250248	0.889416	0.020972
  60	2.9500e-02	1.1680	0.881232	0.000747	7.471507	1.265708	0.029845
  61	3.0000e-02	1.1871	1.002225	0.000606	6.057979	1.026249	0.024199
  62	3.0500e-02	1.2081	1.123218	0.000606	6.057979	1.026249	0.024199
  63	3.1000e-02	1.2276	1.232112	0.000545	5.452181	0.923624	0.021779
  64	3.1500e-02	1.2477	1.353105	0.000606	6.057979	1.026249	0.024199
  65	3.2000e-02	1.2684	1.445866	0.000464	4.644450	0.786791	0.018552
  66	3.2500e-02	1.2872	1.566859	0.000606	6.057979	1.026249	0.024199
  67	3.3000e-02	1.3073	1.744315	0.000889	8.885036	1.505166	0.035491
  68	3.3500e-02	1.3278	1.788679	0.000222	2.221259	0.376291	0.008873
  69	3.4000e-02	1.3472	1.905639	0.000586	5.856046	0.992041	0.023392
  70	3.4500e-02	1.3676	2.050831	0.000727	7.269575	1.231499	0.029038
  71	3.5000e-02	1.3873	2.167790	0.000586	5.856046	0.992041	0.023392
  72	3.5500e-02	1.4080	2.272651	0.000525	5.250248	0.889416	0.020972
  73	3.6000e-02	1.4273	2.433975	0.000808	8.077305	1.368333	0.032265
  74	3.6500e-02	1.4473	2.526736	0.000464	4.644450	0.786791	0.018552
  75	3.7000e-02	1.4673	2.635630	0.000545	5.452181	0.923624	0.021779
  76	3.7500e-02	1.4864	2.744524	0.000545	5.452181	0.923624	0.021779
  77	3.8000e-02	1.5080	2.934079	0.000949	9.490833	1.607791	0.037911
  78	3.8500e-02	1.5274	3.022807	0.000444	4.442518	0.752583	0.017746
  79	3.9000e-02	1.5474	3.131701	0.000545	5.452181	0.923624	0.021779
  80	3.9500e-02	1.5675	3.260760	0.000646	6.461844	1.094666	0.025812
  81	4.0000e-02	1.5871	3.349488	0.000444	4.442518	0.752583	0.017746
  82	4.0500e-02	1.6071	3.522912	0.000868	8.683103	1.470957	0.034685
  83	4.1000e-02	1.6277	3.579375	0.000283	2.827057	0.478916	0.011293
  84	4.1500e-02	1.6469	3.708434	0.000646	6.461844	1.094666	0.025812
  85	4.2000e-02	1.6682	3.865725	0.000788	7.875372	1.334124	0.031458
  86	4.2500e-02	1.6876	3.982685	0.000586	5.856046	0.992041	0.023392
  87	4.3000e-02	1.7075	4.063347	0.000404	4.038653	0.684166	0.016132
  88	4.3500e-02	1.7280	4.184340	0.000606	6.057979	1.026249	0.024199
  89	4.4000e-02	1.7479	4.373895	0.000949	9.490833	1.607791	0.037911
  90	4.4500e-02	1.7678	4.454557	0.000404	4.038653	0.684166	0.016132
  91	4.5000e-02	1.7880	4.547319	0.000464	4.644450	0.786791	0.018552
  92	4.5500e-02	1.8073	4.696543	0.000747	7.471507	1.265708	0.029845
  93	4.6000e-02	1.8281	4.753007	0.000283	2.827057	0.478916	0.011293
  94	4.6500e-02	1.8475	4.861900	0.000545	5.452181	0.923624	0.021779
  95	4.7000e-02	1.8673	5.043390	0.000909	9.086968	1.539374	0.036298
  96	4.7500e-02	1.8878	5.160350	0.000586	5.856046	0.992041	0.023392
  97	4.8000e-02	1.9080	5.281343	0.000606	6.057979	1.026249	0.024199
  98	4.8500e-02	1.9276	5.390236	0.000545	5.452181	0.923624	0.021779
  99	4.9000e-02	1.9476	5.567693	0.000889	8.885036	1.505166	0.035491
 100	4.9500e-02	1.9670	5.700785	0.000666	6.663777	1.128874	0.026618
 101	5.0000e-02	1.9876	5.781447	0.000404	4.038653	0.684166	0.016132
 102	5.0500e-02	2.0071	5.850010	0.000343	3.432855	0.581541	0.013713
 103	5.1000e-02	2.0275	5.966969	0.000586	5.856046	0.992041	0.023392
 104	5.1500e-02	2.0483	6.120227	0.000767	7.673440	1.299916	0.030652
 105	5.2000e-02	2.0676	6.188790	0.000343	3.432855	0.581541	0.013713
 106	5.2500e-02	2.0878	6.350114	0.000808	8.077305	1.368333	0.032265
 107	5.3000e-02	2.1069	6.463041	0.000565	5.654114	0.957833	0.022585
 108	5.3500e-02	2.1273	6.584033	0.000606	6.057979	1.026249	0.024199
 109	5.4000e-02	2.1469	6.709060	0.000626	6.259911	1.060458	0.025005
 110	5.4500e-02	2.1675	6.830052	0.000606	6.057979	1.026249	0.024199
 111	5.5000e-02	2.1875	6.971211	0.000707	7.067642	1.197291	0.028232
 112	5.5500e-02	2.2073	7.132535	0.000808	8.077305	1.368333	0.032265
 113	5.6000e-02	2.2278	7.225296	0.000464	4.644450	0.786791	0.018552
 114	5.6500e-02	2.2470	7.338223	0.000565	5.654114	0.957833	0.022585
 115	5.7000e-02	2.2681	7.499547	0.000808	8.077305	1.368333	0.032265
 116	5.7500e-02	2.2879	7.600374	0.000505	5.048316	0.855208	0.020165
 117	5.8000e-02	2.3087	7.713301	0.000565	5.654114	0.957833	0.022585
 118	5.8500e-02	2.3277	7.862526	0.000747	7.471507	1.265708	0.029845
 119	5.9000e-02	2.3471	7.955287	0.000464	4.644450	0.786791	0.018552
 120	5.9500e-02	2.3669	8.080313	0.000626	6.259911	1.060458	0.025005
 121	6.0000e-02	2.3871	8.177107	0.000485	4.846383	0.821000	0.019359
 122	6.0500e-02	2.4068	8.302133	0.000626	6.259911	1.060458	0.025005
 123	6.1000e-02	2.4272	8.423126	0.000606	6.057979	1.026249	0.024199
 124	6.1500e-02	2.4481	8.560252	0.000687	6.865709	1.163083	0.027425
 125	6.2000e-02	2.4670	8.665112	0.000525	5.250248	0.889416	0.020972
 126	6.2500e-02	2.4869	8.749807	0.000424	4.240585	0.718375	0.016939
 127	6.3000e-02	2.5076	8.894999	0.000727	7.269575	1.231499	0.029038
 128	6.3500e-02	2.5278	8.979694	0.000424	4.240585	0.718375	0.016939
 129	6.4000e-02	2.5478	9.161183	0.000909	9.086968	1.539374	0.036298
 130	6.4500e-02	2.5681	9.262011	0.000505	5.048316	0.855208	0.020165
 131	6.5000e-02	2.5871	9.358805	0.000485	4.846383	0.821000	0.019359
 132	6.5500e-02	2.6074	9.516096	0.000788	7.875372	1.334124	0.031458
 133	6.6000e-02	2.6273	9.620957	0.000525	5.250248	0.889416	0.020972
 134	6.6500e-02	2.6465	9.697586	0.000384	3.836720	0.649958	0.015326
 135	6.7000e-02	2.6677	9.842777	0.000727	7.269575	1.231499	0.029038
 136	6.7500e-02	2.6868	9.935538	0.000464	4.644450	0.786791	0.018552
 137	6.8000e-02	2.7075	10.004101	0.000343	3.432855	0.581541	0.013713
 138	6.8500e-02	2.7283	10.233988	0.001151	11.510160	1.949874	0.045977
 139	6.9000e-02	2.7475	10.330782	0.000485	4.846383	0.821000	0.019359
 140	6.9500e-02	2.7673	10.443709	0.000565	5.654114	0.957833	0.022585
 141	7.0000e-02	2.7872	10.556636	0.000565	5.654114	0.957833	0.022585
 142	7.0500e-02	2.8072	10.641331	0.000424	4.240585	0.718375	0.016939
 143	7.1000e-02	2.8271	10.814754	0.000868	8.683103	1.470957	0.034685
 144	7.1500e-02	2.8471	10.955912	0.000707	7.067642	1.197291	0.028232
 145	7.2000e-02	2.8675	11.052707	0.000485	4.846383	0.821000	0.019359
 146	7.2500e-02	2.8864	11.197898	0.000727	7.269575	1.231499	0.029038
 147	7.3000e-02	2.9071	11.339057	0.000707	7.067642	1.197291	0.028232
 148	7.3500e-02	2.9272	11.359222	0.000101	1.009663	0.171042	0.004033
 149	7.4000e-02	2.9474	11.496348	0.000687	6.865709	1.163083	0.027425
 150	7.4500e-02	2.9672	11.657672	0.000808	8.077305	1.368333	0.032265
 151	7.5000e-02	2.9881	11.726234	0.000343	3.432855	0.581541	0.013713
 152	7.5500e-02	3.0069	11.879492	0.000767	7.673440	1.299916	0.030652
 153	7.6000e-02	3.0283	12.004518	0.000626	6.259911	1.060458	0.025005
 154	7.6500e-02	3.0465	12.121478	0.000586	5.856046	0.992041	0.023392
 155	7.7000e-02	3.0676	12.286835	0.000828	8.279238	1.402541	0.033071
 156	7.7500e-02	3.0875	12.399762	0.000565	5.654114	0.957833	0.022585
 157	7.8000e-02	3.1064	12.472357	0.000363	3.634787	0.615750	0.014519
 158	7.8500e-02	3.1277	12.597383	0.000626	6.259911	1.060458	0.025005
 159	7.9000e-02	3.1472	12.722410	0.000626	6.259911	1.060458	0.025005
 160	7.9500e-02	3.1668	12.819204	0.000485	4.846383	0.821000	0.019359
 161	8.0000e-02	3.1867	12.956329	0.000687	6.865709	1.163083	0.027425
 162	8.0500e-02	3.2068	13.145885	0.000949	9.490833	1.607791	0.037911
 163	8.1000e-02	3.2280	13.218481	0.000363	3.634787	0.615750	0.014519
 164	8.1500e-02	3.2465	13.359639	0.000707	7.067642	1.197291	0.028232
 165	8.2000e-02	3.2668	13.448367	0.000444	4.442518	0.752583	0.017746
 166	8.2500e-02	3.2877	13.545162	0.000485	4.846383	0.821000	0.019359
 167	8.3000e-02	3.3067	13.654055	0.000545	5.452181	0.923624	0.021779
 168	8.3500e-02	3.3273	13.779081	0.000626	6.259911	1.060458	0.025005
 169	8.4000e-02	3.3475	13.883942	0.000525	5.250248	0.889416	0.020972
 170	8.4500e-02	3.3679	13.996869	0.000565	5.654114	0.957833	0.022585
 171	8.5000e-02	3.3871	14.150126	0.000767	7.673440	1.299916	0.030652
 172	8.5500e-02	3.4076	14.259020	0.000545	5.452181	0.923624	0.021779
 173	8.6000e-02	3.4271	14.355814	0.000485	4.846383	0.821000	0.019359
 174	8.6500e-02	3.4473	14.464708	0.000545	5.452181	0.923624	0.021779
 175	8.7000e-02	3.4680	14.589734	0.000626	6.259911	1.060458	0.025005
 176	8.7500e-02	3.4869	14.734926	0.000727	7.269575	1.231499	0.029038
 177	8.8000e-02	3.5078	14.839786	0.000525	5.250248	0.889416	0.020972
 178	8.8500e-02	3.5278	14.888183	0.000242	2.423192	0.410500	0.009679
 179	8.9000e-02	3.5477	15.009176	0.000606	6.057979	1.026249	0.024199
 180	8.9500e-02	3.5681	15.118070	0.000545	5.452181	0.923624	0.021779
 181	9.0000e-02	3.5873	15.255195	0.000687	6.865709	1.163083	0.027425
 182	9.0500e-02	3.6079	15.400387	0.000727	7.269575	1.231499	0.029038
 183	9.1000e-02	3.6288	15.477016	0.000384	3.836720	0.649958	0.015326
 184	9.1500e-02	3.6478	15.654472	0.000889	8.885036	1.505166	0.035491
 185	9.2000e-02	3.6681	15.710936	0.000283	2.827057	0.478916	0.011293
 186	9.2500e-02	3.6874	15.844028	0.000666	6.663777	1.128874	0.026618
 187	9.3000e-02	3.7085	15.973087	0.000646	6.461844	1.094666	0.025812
 188	9.3500e-02	3.7280	16.073914	0.000505	5.048316	0.855208	0.020165
 189	9.4000e-02	3.7480	16.178775	0.000525	5.250248	0.889416	0.020972
 190	9.4500e-02	3.7686	16.336066	0.000788	7.875372	1.334124	0.031458
 191	9.5000e-02	3.7891	16.412695	0.000384	3.836720	0.649958	0.015326
 192	9.5500e-02	3.8077	16.553853	0.000707	7.067642	1.197291	0.028232
 193	9.6000e-02	3.8275	16.703078	0.000747	7.471507	1.265708	0.029845
 194	9.6500e-02	3.8469	16.787773	0.000424	4.240585	0.718375	0.016939
 195	9.7000e-02	3.8672	16.928931	0.000707	7.067642	1.197291	0.028232
 196	9.7500e-02	3.8873	16.989428	0.000303	3.028989	0.513125	0.012099
 197	9.8000e-02	3.9070	17.078156	0.000444	4.442518	0.752583	0.017746
 198	9.8500e-02	3.9282	17.219314	0.000707	7.067642	1.197291	0.028232
 199	9.9000e-02	3.9481	17.336274	0.000586	5.856046	0.992041	0.023392
 200	9.9500e-02	3.9679	17.473400	0.000687	6.865709	1.163083	0.027425
 201	1.0000e-01	3.9882	17.554062	0.000404	4.038653	0.684166	0.016132
 202	1.0050e-01	4.0076	17.715386	0.000808	8.077305	1.368333	0.032265
 203	1.0100e-01	4.0279	17.816213	0.000505	5.048316	0.855208	0.020165
 204	1.0150e-01	4.0472	17.929140	0.000565	5.654114	0.957833	0.022585
 205	1.0200e-01	4.0677	17.973504	0.000222	2.221259	0.376291	0.008873
 206	1.0250e-01	4.0887	18.114662	0.000707	7.067642	1.197291	0.028232
 207	1.0300e-01	4.1083	18.304218	0.000949	9.490833	1.607791	0.037911
 208	1.0350e-01	4.1277	18.332450	0.000141	1.413528	0.239458	0.005646
 209	1.0400e-01	4.1479	18.437310	0.000525	5.250248	0.889416	0.020972
 210	1.0450e-01	4.1670	18.622833	0.000929	9.288901	1.573582	0.037105
 211	1.0500e-01	4.1876	18.663164	0.000202	2.019326	0.342083	0.008066
 212	1.0550e-01	4.2081	18.836587	0.000868	8.683103	1.470957	0.034685
 213	1.0600e-01	4.2279	18.893050	0.000283	2.827057	0.478916	0.011293
 214	1.0650e-01	4.2487	18.993878	0.000505	5.048316	0.855208	0.020165
 215	1.0700e-01	4.2688	19.147136	0.000767	7.673440	1.299916	0.030652
 216	1.0750e-01	4.2879	19.231831	0.000424	4.240585	0.718375	0.016939
 217	1.0800e-01	4.3091	19.401221	0.000848	8.481170	1.436749	0.033878
 218	1.0850e-01	4.3271	19.514148	0.000565	5.654114	0.957833	0.022585
 219	1.0900e-01	4.3481	19.590776	0.000384	3.836720	0.649958	0.015326
 220	1.0950e-01	4.3677	19.719836	0.000646	6.461844	1.094666	0.025812
 221	1.1000e-01	4.3878	19.784365	0.000323	3.230922	0.547333	0.012906
 222	1.1050e-01	4.4080	20.078781	0.001474	14.741082	2.497207	0.058883
 223	1.1100e-01	4.4284	19.925524	-0.000767	-7.673440	-1.299916	-0.030652
 224	1.1150e-01	4.4478	20.163476	0.001191	11.914025	2.018290	0.047591
 225	1.1200e-01	4.4675	20.324800	0.000808	8.077305	1.368333	0.032265
 226	1.1250e-01	4.4885	20.381264	0.000283	2.827057	0.478916	0.011293
 227	1.1300e-01	4.5081	20.546621	0.000828	8.279238	1.402541	0.033071
 228	1.1350e-01	4.5276	20.595018	0.000242	2.423192	0.410500	0.009679
 229	1.1400e-01	4.5487	20.756342	0.000808	8.077305	1.368333	0.032265
 230	1.1450e-01	4.5685	20.841037	0.000424	4.240585	0.718375	0.016939
 231	1.1500e-01	4.5883	20.962030	0.000606	6.057979	1.026249	0.024199
 232	1.1550e-01	4.6088	21.087056	0.000626	6.259911	1.060458	0.025005
 233	1.1600e-01	4.6280	21.167718	0.000404	4.038653	0.684166	0.016132
 234	1.1650e-01	4.6490	21.288711	0.000606	6.057979	1.026249	0.024199
 235	1.1700e-01	4.6683	21.401638	0.000565	5.654114	0.957833	0.022585
 236	1.1750e-01	4.6887	21.498432	0.000485	4.846383	0.821000	0.019359
 237	1.1800e-01	4.7089	21.583127	0.000424	4.240585	0.718375	0.016939
 238	1.1850e-01	4.7284	21.724286	0.000707	7.067642	1.197291	0.028232
 239	1.1900e-01	4.7492	21.853345	0.000646	6.461844	1.094666	0.025812
 240	1.1950e-01	4.7693	21.917874	0.000323	3.230922	0.547333	0.012906
 241	1.2000e-01	4.7879	22.042900	0.000626	6.259911	1.060458	0.025005
 242	1.2050e-01	4.8083	22.131629	0.000444	4.442518	0.752583	0.017746
 243	1.2100e-01	4.8288	22.284886	0.000767	7.673440	1.299916	0.030652
 244	1.2150e-01	4.8486	22.389747	0.000525	5.250248	0.889416	0.020972
 245	1.2200e-01	4.8688	22.506707	0.000586	5.856046	0.992041	0.023392
 246	1.2250e-01	4.8889	22.591402	0.000424	4.240585	0.718375	0.016939
 247	1.2300e-01	4.9091	22.793057	0.001010	10.096631	1.710416	0.040331
 248	1.2350e-01	4.9283	22.821288	0.000141	1.413528	0.239458	0.005646
 249	1.2400e-01	4.9493	22.934215	0.000565	5.654114	0.957833	0.022585
 250	1.2450e-01	4.9699	23.031010	0.000485	4.846383	0.821000	0.019359
 251	1.2500e-01	4.9887	23.123771	0.000464	4.644450	0.786791	0.018552
 252	1.2550e-01	5.0082	23.289128	0.000828	8.279238	1.402541	0.033071
 253	1.2600e-01	5.0281	23.333492	0.000222	2.221259	0.376291	0.008873
 254	1.2650e-01	5.0504	23.458518	0.000626	6.259911	1.060458	0.025005
 255	1.2700e-01	5.0696	23.571445	0.000565	5.654114	0.957833	0.022585
 256	1.2750e-01	5.0882	23.668239	0.000485	4.846383	0.821000	0.019359
 257	1.2800e-01	5.1086	23.881993	0.001070	10.702429	1.813041	0.042751
 258	1.2850e-01	5.1291	23.958622	0.000384	3.836720	0.649958	0.015326
 259	1.2900e-01	5.1489	24.075582	0.000586	5.856046	0.992041	0.023392
 260	1.2950e-01	5.1691	24.156244	0.000404	4.038653	0.684166	0.016132
 261	1.3000e-01	5.1883	24.240939	0.000424	4.240585	0.718375	0.016939
 262	1.3050e-01	5.2078	24.357899	0.000586	5.856046	0.992041	0.023392
 263	1.3100e-01	5.2289	24.450660	0.000464	4.644450	0.786791	0.018552
 264	1.3150e-01	5.2492	24.563587	0.000565	5.654114	0.957833	0.022585
 265	1.3200e-01	5.2682	24.692646	0.000646	6.461844	1.094666	0.025812
 266	1.3250e-01	5.2888	24.761209	0.000343	3.432855	0.581541	0.013713
 267	1.3300e-01	5.3088	24.914467	0.000767	7.673440	1.299916	0.030652
