»»»»»»»»»»»»»»»»»»»»»»»»»»»»»»»»»»»» Hysteresis ««««««««««««««««««««««««««««««««««««
»»»  Executed Version:	5.48.1
»»»  Vision Version:	5.48.4 (R)
»»»  Vision Compiled:	9/18/24
»»»  Driver Version:	5.47.0
»»»  Windows Version:	Windows 8 or 8.1
»»»  Processor Information:	x86 (AMD or Intel) - 32 Processors
»»»  Tester Name:	PMF21124-494 (100V)
»»»  Tester S/N:	PMF21124-494
»»»  Internal Amp Type:	100V RevK 270k
»»»  Internal Amp S/N:	iAB2-596/K     
»»»  Execution Count:	1
»»»»»»»»»»»»»»»»»»»»»»»»»»»»»»»»»»»»»»»»»»««««««««««««««««««««««««««««««««««««««««««

Stored:	7/10/2025 - 14:24:25
Configured:	07/10/25 01:31:25 PM
Executed:	07/10/25 02:24:01 PM

»»»»»»»»»»»»»»»»»»»»»»»»»»»»»»»»»»» Sample Info ««««««««««««««««««««««««««««««««««««
Sample Name:	
Lot Name:	
Wafer Name:	
Die Row/Column:	0/0
Capacitor Number:	0
Sample Area (cm2):	1.00e-04
Sample Thickness (microns):	1.50e-01

Amplifier:	Internal

»»»»»»»»»»»»»»»»»»»»»»»»»»»»»»»»»»» Tester Info «««««««««««««««««««««««««««««««««««
Tester Name:	PMF21124-494 (100V)
Tester Serial Number:	PMF21124-494
Return Signal Amp. Level:	0.19 [Index: 3]

»»»»»»»»»»»»»»»»»»»»»»»»»»»»»»»» Hysteresis Info ««««««««««««««««««««««««««««««««««
Task Name:	Hyst-3361
Volts:	10.00
Field:	666.67 (kV/cm)
DCBias:	0.00
DCField:	0.00 (kV/cm)
Hysteresis Period (ms):	1.00e+00
Preset:	Enabled
Preset Delay (ms):	1.00e+03
Profile:	Standard Bipolar

»»»»»»»»»»»»»»»»»»»»»»»»»»»»»»»»»»»»»» Data «««««««««««««««««««««««««««««««««««««««
Points:	2001

Valid Data

Point	Time (ms)	Drive Voltage	Measured Polarization (uC/cm2)	Capacitance (uF)	Normalized Capacitance (uF/cm2)	Dielectric Constant	Instantaneous Current (mA)
   1	0.0000e+00	-0.0003	-0.030248	0.000707	7.066738	1.197138	0.028232
   2	5.0000e-04	0.0118	0.110910	0.000707	7.066738	1.197138	0.028232
   3	1.0000e-03	0.0288	0.159307	0.000242	2.422881	0.410447	0.009679
   4	1.5000e-03	0.0486	0.268201	0.000545	5.451483	0.923506	0.021779
   5	2.0000e-03	0.0677	0.393227	0.000626	6.259110	1.060322	0.025005
   6	2.5000e-03	0.0882	0.558584	0.000828	8.278178	1.402361	0.033071
   7	3.0000e-03	0.1093	0.635213	0.000384	3.836229	0.649875	0.015326
   8	3.5000e-03	0.1278	0.776371	0.000707	7.066738	1.197138	0.028232
   9	4.0000e-03	0.1483	0.901398	0.000626	6.259110	1.060322	0.025005
  10	4.5000e-03	0.1680	0.965927	0.000323	3.230509	0.547263	0.012906
  11	5.0000e-03	0.1886	1.147417	0.000909	9.085806	1.539177	0.036298
  12	5.5000e-03	0.2079	1.252277	0.000525	5.249577	0.889302	0.020972
  13	6.0000e-03	0.2278	1.381336	0.000646	6.461017	1.094526	0.025812
  14	6.5000e-03	0.2478	1.510395	0.000646	6.461017	1.094526	0.025812
  15	7.0000e-03	0.2683	1.643488	0.000666	6.662924	1.128730	0.026618
  16	7.5000e-03	0.2879	1.772547	0.000646	6.461017	1.094526	0.025812
  17	8.0000e-03	0.3093	1.921771	0.000747	7.470551	1.265546	0.029845
  18	8.5000e-03	0.3278	2.042764	0.000606	6.057204	1.026118	0.024199
  19	9.0000e-03	0.3475	2.183923	0.000707	7.066738	1.197138	0.028232
  20	9.5000e-03	0.3677	2.284750	0.000505	5.047670	0.855098	0.020165
  21	1.0000e-02	0.3883	2.413810	0.000646	6.461017	1.094526	0.025812
  22	1.0500e-02	0.4083	2.522703	0.000545	5.451483	0.923506	0.021779
  23	1.1000e-02	0.4285	2.647729	0.000626	6.259110	1.060322	0.025005
  24	1.1500e-02	0.4482	2.788888	0.000707	7.066738	1.197138	0.028232
  25	1.2000e-02	0.4684	2.946179	0.000787	7.874365	1.333954	0.031458
  26	1.2500e-02	0.4883	3.026841	0.000404	4.038136	0.684079	0.016132
  27	1.3000e-02	0.5085	3.143800	0.000586	5.855297	0.991914	0.023392
  28	1.3500e-02	0.5275	3.256727	0.000565	5.653390	0.957710	0.022585
  29	1.4000e-02	0.5486	3.418051	0.000808	8.076272	1.368157	0.032265
  30	1.4500e-02	0.5683	3.563243	0.000727	7.268644	1.231342	0.029038
  31	1.5000e-02	0.5881	3.676169	0.000565	5.653390	0.957710	0.022585
  32	1.5500e-02	0.6085	3.776997	0.000505	5.047670	0.855098	0.020165
  33	1.6000e-02	0.6285	3.861692	0.000424	4.240043	0.718283	0.016939
  34	1.6500e-02	0.6480	4.027049	0.000828	8.278178	1.402361	0.033071
  35	1.7000e-02	0.6689	4.164174	0.000686	6.864831	1.162934	0.027425
  36	1.7500e-02	0.6882	4.260969	0.000485	4.845763	0.820894	0.019359
  37	1.8000e-02	0.7079	4.446491	0.000929	9.287712	1.573381	0.037105
  38	1.8500e-02	0.7272	4.559418	0.000565	5.653390	0.957710	0.022585
  39	1.9000e-02	0.7477	4.680411	0.000606	6.057204	1.026118	0.024199
  40	1.9500e-02	0.7686	4.797371	0.000586	5.855297	0.991914	0.023392
  41	2.0000e-02	0.7890	4.938529	0.000707	7.066738	1.197138	0.028232
  42	2.0500e-02	0.8083	5.047423	0.000545	5.451483	0.923506	0.021779
  43	2.1000e-02	0.8279	5.152283	0.000525	5.249577	0.889302	0.020972
  44	2.1500e-02	0.8483	5.297475	0.000727	7.268644	1.231342	0.029038
  45	2.2000e-02	0.8684	5.438633	0.000707	7.066738	1.197138	0.028232
  46	2.2500e-02	0.8890	5.591891	0.000767	7.672458	1.299750	0.030652
  47	2.3000e-02	0.9082	5.724983	0.000666	6.662924	1.128730	0.026618
  48	2.3500e-02	0.9284	5.833877	0.000545	5.451483	0.923506	0.021779
  49	2.4000e-02	0.9492	6.007300	0.000868	8.681992	1.470769	0.034685
  50	2.4500e-02	0.9686	6.071830	0.000323	3.230509	0.547263	0.012906
  51	2.5000e-02	0.9879	6.221055	0.000747	7.470551	1.265546	0.029845
  52	2.5500e-02	1.0084	6.346081	0.000626	6.259110	1.060322	0.025005
  53	2.6000e-02	1.0287	6.507405	0.000808	8.076272	1.368157	0.032265
  54	2.6500e-02	1.0486	6.596133	0.000444	4.441949	0.752487	0.017746
  55	2.7000e-02	1.0687	6.757457	0.000808	8.076272	1.368157	0.032265
  56	2.7500e-02	1.0891	6.870383	0.000565	5.653390	0.957710	0.022585
  57	2.8000e-02	1.1093	7.015575	0.000727	7.268644	1.231342	0.029038
  58	2.8500e-02	1.1331	6.967178	-0.000242	-2.422881	-0.410447	-0.009679
  59	2.9000e-02	1.1493	7.265627	0.001494	14.941102	2.531091	0.059690
  60	2.9500e-02	1.1685	7.362421	0.000485	4.845763	0.820894	0.019359
  61	3.0000e-02	1.1885	7.495514	0.000666	6.662924	1.128730	0.026618
  62	3.0500e-02	1.2091	7.697169	0.001010	10.095339	1.710197	0.040331
  63	3.1000e-02	1.2280	7.797996	0.000505	5.047670	0.855098	0.020165
  64	3.1500e-02	1.2485	7.874625	0.000384	3.836229	0.649875	0.015326
  65	3.2000e-02	1.2688	8.084346	0.001050	10.499153	1.778605	0.041944
  66	3.2500e-02	1.2882	8.156942	0.000363	3.634322	0.615671	0.014519
  67	3.3000e-02	1.3075	8.362630	0.001030	10.297246	1.744401	0.041138
  68	3.3500e-02	1.3284	8.487656	0.000626	6.259110	1.060322	0.025005
  69	3.4000e-02	1.3483	8.580417	0.000464	4.643856	0.786691	0.018552
  70	3.4500e-02	1.3676	8.713510	0.000666	6.662924	1.128730	0.026618
  71	3.5000e-02	1.3877	8.858701	0.000727	7.268644	1.231342	0.029038
  72	3.5500e-02	1.4078	8.979694	0.000606	6.057204	1.026118	0.024199
  73	3.6000e-02	1.4287	9.112786	0.000666	6.662924	1.128730	0.026618
  74	3.6500e-02	1.4488	9.237812	0.000626	6.259110	1.060322	0.025005
  75	3.7000e-02	1.4680	9.330574	0.000464	4.643856	0.786691	0.018552
  76	3.7500e-02	1.4876	9.524162	0.000969	9.691526	1.641789	0.038718
  77	3.8000e-02	1.5083	9.633056	0.000545	5.451483	0.923506	0.021779
  78	3.8500e-02	1.5282	9.762115	0.000646	6.461017	1.094526	0.025812
  79	3.9000e-02	1.5479	9.931505	0.000848	8.480085	1.436565	0.033878
  80	3.9500e-02	1.5674	10.048465	0.000586	5.855297	0.991914	0.023392
  81	4.0000e-02	1.5883	10.149293	0.000505	5.047670	0.855098	0.020165
  82	4.0500e-02	1.6078	10.334815	0.000929	9.287712	1.573381	0.037105
  83	4.1000e-02	1.6284	10.431610	0.000485	4.845763	0.820894	0.019359
  84	4.1500e-02	1.6483	10.560669	0.000646	6.461017	1.094526	0.025812
  85	4.2000e-02	1.6678	10.697794	0.000686	6.864831	1.162934	0.027425
  86	4.2500e-02	1.6882	10.875250	0.000888	8.883899	1.504973	0.035491
  87	4.3000e-02	1.7084	10.943813	0.000343	3.432415	0.581467	0.013713
  88	4.3500e-02	1.7286	11.117236	0.000868	8.681992	1.470769	0.034685
  89	4.4000e-02	1.7487	11.226130	0.000545	5.451483	0.923506	0.021779
  90	4.4500e-02	1.7682	11.339057	0.000565	5.653390	0.957710	0.022585
  91	4.5000e-02	1.7882	11.504414	0.000828	8.278178	1.402361	0.033071
  92	4.5500e-02	1.8091	11.653638	0.000747	7.470551	1.265546	0.029845
  93	4.6000e-02	1.8282	11.738333	0.000424	4.240043	0.718283	0.016939
  94	4.6500e-02	1.8478	11.907724	0.000848	8.480085	1.436565	0.033878
  95	4.7000e-02	1.8687	12.036783	0.000646	6.461017	1.094526	0.025812
  96	4.7500e-02	1.8887	12.181974	0.000727	7.268644	1.231342	0.029038
  97	4.8000e-02	1.9090	12.319100	0.000686	6.864831	1.162934	0.027425
  98	4.8500e-02	1.9281	12.427993	0.000545	5.451483	0.923506	0.021779
  99	4.9000e-02	1.9482	12.577218	0.000747	7.470551	1.265546	0.029845
 100	4.9500e-02	1.9678	12.730476	0.000767	7.672458	1.299750	0.030652
 101	5.0000e-02	1.9886	12.843402	0.000565	5.653390	0.957710	0.022585
 102	5.0500e-02	2.0078	12.972462	0.000646	6.461017	1.094526	0.025812
 103	5.1000e-02	2.0282	13.149918	0.000888	8.883899	1.504973	0.035491
 104	5.1500e-02	2.0490	13.214448	0.000323	3.230509	0.547263	0.012906
 105	5.2000e-02	2.0679	13.375772	0.000808	8.076272	1.368157	0.032265
 106	5.2500e-02	2.0883	13.545162	0.000848	8.480085	1.436565	0.033878
 107	5.3000e-02	2.1088	13.637923	0.000464	4.643856	0.786691	0.018552
 108	5.3500e-02	2.1288	13.718585	0.000404	4.038136	0.684079	0.016132
 109	5.4000e-02	2.1484	13.908141	0.000949	9.489619	1.607585	0.037911
 110	5.4500e-02	2.1680	14.041233	0.000666	6.662924	1.128730	0.026618
 111	5.5000e-02	2.1881	14.101729	0.000303	3.028602	0.513059	0.012099
 112	5.5500e-02	2.2079	14.287252	0.000929	9.287712	1.573381	0.037105
 113	5.6000e-02	2.2286	14.444543	0.000787	7.874365	1.333954	0.031458
 114	5.6500e-02	2.2482	14.525205	0.000404	4.038136	0.684079	0.016132
 115	5.7000e-02	2.2681	14.686529	0.000808	8.076272	1.368157	0.032265
 116	5.7500e-02	2.2883	14.868018	0.000909	9.085806	1.539177	0.036298
 117	5.8000e-02	2.3094	14.968845	0.000505	5.047670	0.855098	0.020165
 118	5.8500e-02	2.3274	15.118070	0.000747	7.470551	1.265546	0.029845
 119	5.9000e-02	2.3485	15.255195	0.000686	6.864831	1.162934	0.027425
 120	5.9500e-02	2.3691	15.347957	0.000464	4.643856	0.786691	0.018552
 121	6.0000e-02	2.3886	15.517347	0.000848	8.480085	1.436565	0.033878
 122	6.0500e-02	2.4084	15.626241	0.000545	5.451483	0.923506	0.021779
 123	6.1000e-02	2.4281	15.755300	0.000646	6.461017	1.094526	0.025812
 124	6.1500e-02	2.4491	15.912591	0.000787	7.874365	1.333954	0.031458
 125	6.2000e-02	2.4689	16.025517	0.000565	5.653390	0.957710	0.022585
 126	6.2500e-02	2.4887	16.190874	0.000828	8.278178	1.402361	0.033071
 127	6.3000e-02	2.5089	16.319933	0.000646	6.461017	1.094526	0.025812
 128	6.3500e-02	2.5293	16.416728	0.000485	4.845763	0.820894	0.019359
 129	6.4000e-02	2.5482	16.582085	0.000828	8.278178	1.402361	0.033071
 130	6.4500e-02	2.5684	16.711144	0.000646	6.461017	1.094526	0.025812
 131	6.5000e-02	2.5881	16.828104	0.000586	5.855297	0.991914	0.023392
 132	6.5500e-02	2.6093	16.969262	0.000707	7.066738	1.197138	0.028232
 133	6.6000e-02	2.6279	17.122520	0.000767	7.672458	1.299750	0.030652
 134	6.6500e-02	2.6479	17.251579	0.000646	6.461017	1.094526	0.025812
 135	6.7000e-02	2.6678	17.384672	0.000666	6.662924	1.128730	0.026618
 136	6.7500e-02	2.6883	17.481466	0.000485	4.845763	0.820894	0.019359
 137	6.8000e-02	2.7090	17.646823	0.000828	8.278178	1.402361	0.033071
 138	6.8500e-02	2.7289	17.763783	0.000586	5.855297	0.991914	0.023392
 139	6.9000e-02	2.7481	17.904941	0.000707	7.066738	1.197138	0.028232
 140	6.9500e-02	2.7679	18.029967	0.000626	6.259110	1.060322	0.025005
 141	7.0000e-02	2.7890	18.183225	0.000767	7.672458	1.299750	0.030652
 142	7.0500e-02	2.8082	18.304218	0.000606	6.057204	1.026118	0.024199
 143	7.1000e-02	2.8284	18.372781	0.000343	3.432415	0.581467	0.013713
 144	7.1500e-02	2.8475	18.578469	0.001030	10.297246	1.744401	0.041138
 145	7.2000e-02	2.8671	18.675263	0.000485	4.845763	0.820894	0.019359
 146	7.2500e-02	2.8888	18.776091	0.000505	5.047670	0.855098	0.020165
 147	7.3000e-02	2.9089	18.816422	0.000202	2.019068	0.342039	0.008066
 148	7.3500e-02	2.9279	19.163268	0.001736	17.363984	2.941539	0.069369
 149	7.4000e-02	2.9485	19.187467	0.000121	1.211441	0.205224	0.004840
 150	7.4500e-02	2.9681	19.360890	0.000868	8.681992	1.470769	0.034685
 151	7.5000e-02	2.9889	19.538346	0.000888	8.883899	1.504973	0.035491
 152	7.5500e-02	3.0085	19.602876	0.000323	3.230509	0.547263	0.012906
 153	7.6000e-02	3.0292	19.719836	0.000586	5.855297	0.991914	0.023392
 154	7.6500e-02	3.0479	19.800498	0.000404	4.038136	0.684079	0.016132
 155	7.7000e-02	3.0688	19.981987	0.000909	9.085806	1.539177	0.036298
 156	7.7500e-02	3.0893	20.171543	0.000949	9.489619	1.607585	0.037911
 157	7.8000e-02	3.1075	20.248172	0.000384	3.836229	0.649875	0.015326
 158	7.8500e-02	3.1277	20.449826	0.001010	10.095339	1.710197	0.040331
 159	7.9000e-02	3.1500	20.518389	0.000343	3.432415	0.581467	0.013713
 160	7.9500e-02	3.1682	20.663581	0.000727	7.268644	1.231342	0.029038
 161	8.0000e-02	3.1888	20.740210	0.000384	3.836229	0.649875	0.015326
 162	8.0500e-02	3.2083	20.881368	0.000707	7.066738	1.197138	0.028232
 163	8.1000e-02	3.2285	20.978162	0.000485	4.845763	0.820894	0.019359
 164	8.1500e-02	3.2480	21.183850	0.001030	10.297246	1.744401	0.041138
 165	8.2000e-02	3.2681	21.292744	0.000545	5.451483	0.923506	0.021779
 166	8.2500e-02	3.2880	21.397605	0.000525	5.249577	0.889302	0.020972
 167	8.3000e-02	3.3092	21.550862	0.000767	7.672458	1.299750	0.030652
 168	8.3500e-02	3.3279	21.655723	0.000525	5.249577	0.889302	0.020972
 169	8.4000e-02	3.3487	21.784782	0.000646	6.461017	1.094526	0.025812
 170	8.4500e-02	3.3682	21.893676	0.000545	5.451483	0.923506	0.021779
 171	8.5000e-02	3.3887	22.030801	0.000686	6.864831	1.162934	0.027425
 172	8.5500e-02	3.4072	22.167926	0.000686	6.864831	1.162934	0.027425
 173	8.6000e-02	3.4296	22.317151	0.000747	7.470551	1.265546	0.029845
 174	8.6500e-02	3.4488	22.422012	0.000525	5.249577	0.889302	0.020972
 175	8.7000e-02	3.4686	22.595435	0.000868	8.681992	1.470769	0.034685
 176	8.7500e-02	3.4891	22.680130	0.000424	4.240043	0.718283	0.016939
 177	8.8000e-02	3.5080	22.805156	0.000626	6.259110	1.060322	0.025005
 178	8.8500e-02	3.5284	22.893884	0.000444	4.441949	0.752487	0.017746
 179	8.9000e-02	3.5481	23.051175	0.000787	7.874365	1.333954	0.031458
 180	8.9500e-02	3.5687	23.156036	0.000525	5.249577	0.889302	0.020972
 181	9.0000e-02	3.5880	23.289128	0.000666	6.662924	1.128730	0.026618
 182	9.0500e-02	3.6084	23.442386	0.000767	7.672458	1.299750	0.030652
 183	9.1000e-02	3.6287	23.555312	0.000565	5.653390	0.957710	0.022585
 184	9.1500e-02	3.6481	23.696471	0.000707	7.066738	1.197138	0.028232
 185	9.2000e-02	3.6688	23.837629	0.000707	7.066738	1.197138	0.028232
 186	9.2500e-02	3.6887	23.942490	0.000525	5.249577	0.889302	0.020972
 187	9.3000e-02	3.7085	24.091715	0.000747	7.470551	1.265546	0.029845
 188	9.3500e-02	3.7283	24.204641	0.000565	5.653390	0.957710	0.022585
 189	9.4000e-02	3.7485	24.240939	0.000182	1.817161	0.307835	0.007260
 190	9.4500e-02	3.7685	24.418395	0.000888	8.883899	1.504973	0.035491
 191	9.5000e-02	3.7904	24.587786	0.000848	8.480085	1.436565	0.033878
 192	9.5500e-02	3.8086	24.668448	0.000404	4.038136	0.684079	0.016132
 193	9.6000e-02	3.8287	24.825738	0.000787	7.874365	1.333954	0.031458
 194	9.6500e-02	3.8483	24.910434	0.000424	4.240043	0.718283	0.016939
 195	9.7000e-02	3.8690	25.023360	0.000565	5.653390	0.957710	0.022585
 196	9.7500e-02	3.8879	25.168552	0.000727	7.268644	1.231342	0.029038
 197	9.8000e-02	3.9087	25.289545	0.000606	6.057204	1.026118	0.024199
 198	9.8500e-02	3.9282	25.434736	0.000727	7.268644	1.231342	0.029038
 199	9.9000e-02	3.9484	25.571862	0.000686	6.864831	1.162934	0.027425
 200	9.9500e-02	3.9679	25.696888	0.000626	6.259110	1.060322	0.025005
 201	1.0000e-01	3.9893	25.789649	0.000464	4.643856	0.786691	0.018552
 202	1.0050e-01	4.0097	25.934841	0.000727	7.268644	1.231342	0.029038
 203	1.0100e-01	4.0277	26.023569	0.000444	4.441949	0.752487	0.017746
 204	1.0150e-01	4.0488	26.116330	0.000464	4.643856	0.786691	0.018552
 205	1.0200e-01	4.0681	26.285720	0.000848	8.480085	1.436565	0.033878
 206	1.0250e-01	4.0898	26.422845	0.000686	6.864831	1.162934	0.027425
 207	1.0300e-01	4.1092	26.564004	0.000707	7.066738	1.197138	0.028232
 208	1.0350e-01	4.1290	26.652732	0.000444	4.441949	0.752487	0.017746
 209	1.0400e-01	4.1492	26.769692	0.000586	5.855297	0.991914	0.023392
 210	1.0450e-01	4.1693	26.902784	0.000666	6.662924	1.128730	0.026618
 211	1.0500e-01	4.1889	27.007645	0.000525	5.249577	0.889302	0.020972
 212	1.0550e-01	4.2093	27.104439	0.000485	4.845763	0.820894	0.019359
 213	1.0600e-01	4.2291	27.193167	0.000444	4.441949	0.752487	0.017746
 214	1.0650e-01	4.2484	27.350458	0.000787	7.874365	1.333954	0.031458
 215	1.0700e-01	4.2697	27.503716	0.000767	7.672458	1.299750	0.030652
 216	1.0750e-01	4.2891	27.616643	0.000565	5.653390	0.957710	0.022585
 217	1.0800e-01	4.3085	27.769900	0.000767	7.672458	1.299750	0.030652
 218	1.0850e-01	4.3295	27.870728	0.000505	5.047670	0.855098	0.020165
 219	1.0900e-01	4.3488	27.935257	0.000323	3.230509	0.547263	0.012906
 220	1.0950e-01	4.3701	28.136912	0.001010	10.095339	1.710197	0.040331
 221	1.1000e-01	4.3898	28.261938	0.000626	6.259110	1.060322	0.025005
 222	1.1050e-01	4.4101	28.366799	0.000525	5.249577	0.889302	0.020972
 223	1.1100e-01	4.4293	28.459560	0.000464	4.643856	0.786691	0.018552
 224	1.1150e-01	4.4493	28.548288	0.000444	4.441949	0.752487	0.017746
 225	1.1200e-01	4.4704	28.729778	0.000909	9.085806	1.539177	0.036298
 226	1.1250e-01	4.4885	28.822539	0.000464	4.643856	0.786691	0.018552
 227	1.1300e-01	4.5093	28.923367	0.000505	5.047670	0.855098	0.020165
 228	1.1350e-01	4.5302	29.072591	0.000747	7.470551	1.265546	0.029845
 229	1.1400e-01	4.5490	29.173419	0.000505	5.047670	0.855098	0.020165
 230	1.1450e-01	4.5700	29.290379	0.000586	5.855297	0.991914	0.023392
 231	1.1500e-01	4.5892	29.379107	0.000444	4.441949	0.752487	0.017746
 232	1.1550e-01	4.6094	29.516232	0.000686	6.864831	1.162934	0.027425
 233	1.1600e-01	4.6299	29.608993	0.000464	4.643856	0.786691	0.018552
 234	1.1650e-01	4.6490	29.729986	0.000606	6.057204	1.026118	0.024199
 235	1.1700e-01	4.6700	29.891310	0.000808	8.076272	1.368157	0.032265
 236	1.1750e-01	4.6894	29.959873	0.000343	3.432415	0.581467	0.013713
 237	1.1800e-01	4.7095	30.117164	0.000787	7.874365	1.333954	0.031458
 238	1.1850e-01	4.7296	30.217991	0.000505	5.047670	0.855098	0.020165
 239	1.1900e-01	4.7498	30.379315	0.000808	8.076272	1.368157	0.032265
 240	1.1950e-01	4.7690	30.391415	0.000061	0.605720	0.102612	0.002420
 241	1.2000e-01	4.7891	30.629367	0.001191	11.912501	2.018032	0.047591
 242	1.2050e-01	4.8096	30.714062	0.000424	4.240043	0.718283	0.016939
 243	1.2100e-01	4.8288	30.770526	0.000283	2.826695	0.478855	0.011293
 244	1.2150e-01	4.8500	30.972181	0.001010	10.095339	1.710197	0.040331
 245	1.2200e-01	4.8701	31.060909	0.000444	4.441949	0.752487	0.017746
 246	1.2250e-01	4.8892	31.137538	0.000384	3.836229	0.649875	0.015326
 247	1.2300e-01	4.9097	31.294829	0.000787	7.874365	1.333954	0.031458
 248	1.2350e-01	4.9298	31.395656	0.000505	5.047670	0.855098	0.020165
 249	1.2400e-01	4.9493	31.520682	0.000626	6.259110	1.060322	0.025005
 250	1.2450e-01	4.9702	31.637642	0.000586	5.855297	0.991914	0.023392
 251	1.2500e-01	4.9896	31.750569	0.000565	5.653390	0.957710	0.022585
 252	1.2550e-01	5.0098	31.819131	0.000343	3.432415	0.581467	0.013713
 253	1.2600e-01	5.0293	31.915926	0.000485	4.845763	0.820894	0.019359
 254	1.2650e-01	5.0500	32.061117	0.000727	7.268644	1.231342	0.029038
 255	1.2700e-01	5.0693	32.170011	0.000545	5.451483	0.923506	0.021779
 256	1.2750e-01	5.0885	32.291004	0.000606	6.057204	1.026118	0.024199
 257	1.2800e-01	5.1099	32.395865	0.000525	5.249577	0.889302	0.020972
 258	1.2850e-01	5.1294	32.496692	0.000505	5.047670	0.855098	0.020165
 259	1.2900e-01	5.1495	32.625751	0.000646	6.461017	1.094526	0.025812
 260	1.2950e-01	5.1691	32.750777	0.000626	6.259110	1.060322	0.025005
 261	1.3000e-01	5.1892	32.847572	0.000485	4.845763	0.820894	0.019359
 262	1.3050e-01	5.2097	32.968565	0.000606	6.057204	1.026118	0.024199
 263	1.3100e-01	5.2295	33.101657	0.000666	6.662924	1.128730	0.026618
 264	1.3150e-01	5.2495	33.190385	0.000444	4.441949	0.752487	0.017746
 265	1.3200e-01	5.2704	33.258948	0.000343	3.432415	0.581467	0.013713
 266	1.3250e-01	5.2901	33.432371	0.000868	8.681992	1.470769	0.034685
