»»»»»»»»»»»»»»»»»»»»»»»»»»»»»»»»»»»» Hysteresis ««««««««««««««««««««««««««««««««««««
»»»  Executed Version:	5.48.1
»»»  Vision Version:	5.48.4 (R)
»»»  Vision Compiled:	9/18/24
»»»  Driver Version:	5.47.0
»»»  Windows Version:	Windows 8 or 8.1
»»»  Processor Information:	x86 (AMD or Intel) - 32 Processors
»»»  Tester Name:	PMF21124-494 (100V)
»»»  Tester S/N:	PMF21124-494
»»»  Internal Amp Type:	100V RevK 270k
»»»  Internal Amp S/N:	iAB2-596/K     
»»»  Execution Count:	1
»»»»»»»»»»»»»»»»»»»»»»»»»»»»»»»»»»»»»»»»»»««««««««««««««««««««««««««««««««««««««««««

Stored:	10/10/2025 - 11:34:12
Configured:	10/10/25 10:37:25 AM
Executed:	10/10/25 11:33:47 AM

»»»»»»»»»»»»»»»»»»»»»»»»»»»»»»»»»»» Sample Info ««««««««««««««««««««««««««««««««««««
Sample Name:	Int. Ref. Ferroelectric
Lot Name:	N/A
Wafer Name:	N/A
Die Row/Column:	0/0
Capacitor Number:	0
Sample Area (cm2):	1.00e-04
Sample Thickness (microns):	3.00e-01

Amplifier:	Internal

»»»»»»»»»»»»»»»»»»»»»»»»»»»»»»»»»»» Tester Info «««««««««««««««««««««««««««««««««««
Tester Name:	PMF21124-494 (100V)
Tester Serial Number:	PMF21124-494
Return Signal Amp. Level:	0.02 [Index: 2]

»»»»»»»»»»»»»»»»»»»»»»»»»»»»»»»» Hysteresis Info ««««««««««««««««««««««««««««««««««
Task Name:	Hyst-170
Volts:	20.00
Field:	666.67 (kV/cm)
DCBias:	0.00
DCField:	0.00 (kV/cm)
Hysteresis Period (ms):	5.00e-01
Preset:	Enabled
Preset Delay (ms):	1.00e+03
Profile:	Standard Monopolar

»»»»»»»»»»»»»»»»»»»»»»»»»»»»»»»»»»»»»» Data «««««««««««««««««««««««««««««««««««««««
Points:	1001

Valid Data

Point	Time (ms)	Drive Voltage	Measured Polarization (uC/cm2)	Capacitance (uF)	Normalized Capacitance (uF/cm2)	Dielectric Constant	Instantaneous Current (mA)
   1	0.0000e+00	0.0369	-28.289464	0.000726	7.264834	2.461392	0.058254
   2	5.0000e-04	0.0578	-27.998196	0.000726	7.264834	2.461392	0.058254
   3	1.0000e-03	0.1299	-28.107421	-0.000272	-2.724313	-0.923022	-0.021845
   4	1.5000e-03	0.1700	-27.743336	0.000908	9.081043	3.076741	0.072817
   5	2.0000e-03	0.1829	-27.706927	0.000091	0.908104	0.307674	0.007282
   6	2.5000e-03	0.2166	-27.160798	0.001362	13.621564	4.615111	0.109226
   7	3.0000e-03	0.2759	-27.233616	-0.000182	-1.816209	-0.615348	-0.014563
   8	3.5000e-03	0.3208	-27.160798	0.000182	1.816209	0.615348	0.014563
   9	4.0000e-03	0.3545	-26.869530	0.000726	7.264834	2.461392	0.058254
  10	4.5000e-03	0.3770	-26.869530	0.000000	0.000000	0.000000	0.000000
  11	5.0000e-03	0.4187	-26.578261	0.000726	7.264834	2.461392	0.058254
  12	5.5000e-03	0.4909	-26.323401	0.000636	6.356730	2.153718	0.050972
  13	6.0000e-03	0.4925	-26.396218	-0.000182	-1.816209	-0.615348	-0.014563
  14	6.5000e-03	0.5904	-26.432627	-0.000091	-0.908104	-0.307674	-0.007282
  15	7.0000e-03	0.6000	-25.959315	0.001181	11.805356	3.999763	0.094662
  16	7.5000e-03	0.6160	-25.704455	0.000636	6.356730	2.153718	0.050972
  17	8.0000e-03	0.6914	-25.668047	0.000091	0.908104	0.307674	0.007282
  18	8.5000e-03	0.7379	-25.995724	-0.000817	-8.172939	-2.769067	-0.065535
  19	9.0000e-03	0.7428	-25.376778	0.001544	15.437773	5.230459	0.123789
  20	9.5000e-03	0.7845	-25.558821	-0.000454	-4.540521	-1.538370	-0.036409
  21	1.0000e-02	0.8551	-25.522412	0.000091	0.908104	0.307674	0.007282
  22	1.0500e-02	0.8968	-24.939875	0.001453	14.529668	4.922785	0.116507
  23	1.1000e-02	0.9353	-24.976284	-0.000091	-0.908104	-0.307674	-0.007282
  24	1.1500e-02	0.9449	-24.757832	0.000545	5.448626	1.846044	0.043690
  25	1.2000e-02	0.9882	-24.539381	0.000545	5.448626	1.846044	0.043690
  26	1.2500e-02	1.0283	-24.685015	-0.000363	-3.632417	-1.230696	-0.029127
  27	1.3000e-02	1.0780	-24.393747	0.000726	7.264834	2.461392	0.058254
  28	1.3500e-02	1.1101	-24.102478	0.000726	7.264834	2.461392	0.058254
  29	1.4000e-02	1.1615	-24.102478	0.000000	0.000000	0.000000	0.000000
  30	1.4500e-02	1.2208	-23.884026	0.000545	5.448626	1.846044	0.043690
  31	1.5000e-02	1.2224	-23.847618	0.000091	0.908104	0.307674	0.007282
  32	1.5500e-02	1.2834	-23.519941	0.000817	8.172939	2.769067	0.065535
  33	1.6000e-02	1.2818	-23.301489	-0.000545	-5.448626	-1.846044	0.043690
  34	1.6500e-02	1.3395	-23.519941	-0.000545	-5.448626	-1.846044	-0.043690
  35	1.7000e-02	1.3796	-23.301489	0.000545	5.448626	1.846044	0.043690
  36	1.7500e-02	1.4294	-23.155855	0.000363	3.632417	1.230696	0.029127
  37	1.8000e-02	1.4743	-23.374306	-0.000545	-5.448626	-1.846044	-0.043690
  38	1.8500e-02	1.5144	-22.828178	0.001362	13.621564	4.615111	0.109226
  39	1.9000e-02	1.5609	-22.609726	0.000545	5.448626	1.846044	0.043690
  40	1.9500e-02	1.6010	-22.354866	0.000636	6.356730	2.153718	0.050972
  41	2.0000e-02	1.6331	-22.718952	-0.000908	-9.081043	-3.076741	-0.072817
  42	2.0500e-02	1.6909	-22.136415	0.001453	14.529668	4.922785	0.116507
  43	2.1000e-02	1.7133	-22.209232	-0.000182	-1.816209	-0.615348	-0.014563
  44	2.1500e-02	1.7647	-22.136415	0.000182	1.816209	0.615348	0.014563
  45	2.2000e-02	1.7919	-21.990780	0.000363	3.632417	1.230696	0.029127
  46	2.2500e-02	1.8304	-21.917963	0.000182	1.816209	0.615348	0.014563
  47	2.3000e-02	1.8818	-21.808738	0.000272	2.724313	0.923022	0.021845
  48	2.3500e-02	1.9267	-21.444652	0.000908	9.081043	3.076741	0.072817
  49	2.4000e-02	1.9604	-21.444652	0.000000	0.000000	0.000000	0.000000
  50	2.4500e-02	2.0005	-21.044157	0.000999	9.989147	3.384415	0.080099
  51	2.5000e-02	2.0310	-21.299018	-0.000636	-6.356730	-2.153718	-0.050972
  52	2.5500e-02	2.0935	-21.007749	0.000726	7.264834	2.461392	0.058254
  53	2.6000e-02	2.1240	-20.862115	0.000363	3.632417	1.230696	0.029127
  54	2.6500e-02	2.1449	-20.534437	0.000817	8.172939	2.769067	0.065535
  55	2.7000e-02	2.1737	-20.680072	-0.000363	-3.632417	-1.230696	-0.029127
  56	2.7500e-02	2.2315	-20.315986	0.000908	9.081043	3.076741	0.072817
  57	2.8000e-02	2.2844	-20.534437	-0.000545	-5.448626	-1.846044	-0.043690
  58	2.8500e-02	2.3277	-20.243169	0.000726	7.264834	2.461392	0.058254
  59	2.9000e-02	2.3566	-20.097534	0.000363	3.632417	1.230696	0.029127
  60	2.9500e-02	2.4112	-19.988309	0.000272	2.724313	0.923022	0.021845
  61	3.0000e-02	2.4400	-19.587814	0.000999	9.989147	3.384415	0.080099
  62	3.0500e-02	2.4721	-19.660632	-0.000182	-1.816209	-0.615348	-0.014563
  63	3.1000e-02	2.5219	-19.405772	0.000636	6.356730	2.153718	0.050972
  64	3.1500e-02	2.5427	-19.442180	-0.000091	-0.908104	-0.307674	-0.007282
  65	3.2000e-02	2.5860	-19.260137	0.000454	4.540521	1.538370	0.036409
  66	3.2500e-02	2.6374	-19.223729	0.000091	0.908104	0.307674	0.007282
  67	3.3000e-02	2.6646	-19.078094	0.000363	3.632417	1.230696	0.029127
  68	3.3500e-02	2.7208	-18.568374	0.001271	12.713460	4.307437	0.101944
  69	3.4000e-02	2.7673	-18.896051	-0.000817	-8.172939	-2.769067	-0.065535
  70	3.4500e-02	2.7962	-18.531966	0.000908	9.081043	3.076741	0.072817
  71	3.5000e-02	2.8267	-18.240697	0.000726	7.264834	2.461392	0.058254
  72	3.5500e-02	2.8860	-18.240697	0.000000	0.000000	0.000000	0.000000
  73	3.6000e-02	2.9261	-17.949428	0.000726	7.264834	2.461392	0.058254
  74	3.6500e-02	2.9277	-17.949428	0.000000	0.000000	0.000000	0.000000
  75	3.7000e-02	2.9871	-18.058654	-0.000272	-2.724313	-0.923022	-0.021845
  76	3.7500e-02	3.0256	-17.694568	0.000908	9.081043	3.076741	0.072817
  77	3.8000e-02	3.0962	-17.840203	-0.000363	-3.632417	-1.230696	-0.029127
  78	3.8500e-02	3.1283	-17.366891	0.001181	11.805356	3.999763	0.094662
  79	3.9000e-02	3.1668	-17.257665	0.000272	2.724313	0.923022	0.021845
  80	3.9500e-02	3.1940	-17.075623	0.000454	4.540521	1.538370	0.036409
  81	4.0000e-02	3.2406	-17.184848	-0.000272	-2.724313	-0.923022	-0.021845
  82	4.0500e-02	3.2710	-17.221257	-0.000091	-0.908104	-0.307674	-0.007282
  83	4.1000e-02	3.3127	-16.929988	0.000726	7.264834	2.461392	0.058254
  84	4.1500e-02	3.3416	-16.529494	0.000999	9.989147	3.384415	0.080099
  85	4.2000e-02	3.4106	-16.820763	-0.000726	-7.264834	-2.461392	-0.058254
  86	4.2500e-02	3.4282	-16.092591	0.001816	18.162086	6.153481	0.145634
  87	4.3000e-02	3.4700	-16.311042	-0.000545	-5.448626	-1.846044	-0.043690
  88	4.3500e-02	3.5149	-16.238225	0.000182	1.816209	0.615348	0.014563
  89	4.4000e-02	3.5341	-16.019774	0.000545	5.448626	1.846044	0.043690
  90	4.4500e-02	3.5823	-16.129000	-0.000272	-2.724313	-0.923022	-0.021845
  91	4.5000e-02	3.6464	-15.910548	0.000545	5.448626	1.846044	0.043690
  92	4.5500e-02	3.6689	-15.655688	0.000636	6.356730	2.153718	0.050972
  93	4.6000e-02	3.7250	-15.837731	-0.000454	-4.540521	-1.538370	-0.036409
  94	4.6500e-02	3.7459	-15.291602	0.001362	13.621564	4.615111	0.109226
  95	4.7000e-02	3.7892	-15.000334	0.000726	7.264834	2.461392	0.058254
  96	4.7500e-02	3.8245	-15.145968	-0.000363	-3.632417	-1.230696	-0.029127
  97	4.8000e-02	3.8774	-15.437237	-0.000726	-7.264834	-2.461392	-0.058254
  98	4.8500e-02	3.9207	-14.963925	0.001181	11.805356	3.999763	0.094662
  99	4.9000e-02	3.9480	-14.672657	0.000726	7.264834	2.461392	0.058254
 100	4.9500e-02	4.0026	-14.672657	0.000000	0.000000	0.000000	0.000000
 101	5.0000e-02	4.0379	-14.563431	0.000272	2.724313	0.923022	0.021845
 102	5.0500e-02	4.0764	-14.563431	0.000000	0.000000	0.000000	0.000000
 103	5.1000e-02	4.1181	-14.235754	0.000817	8.172939	2.769067	0.065535
 104	5.1500e-02	4.1662	-13.762442	0.001181	11.805356	3.999763	0.094662
 105	5.2000e-02	4.2095	-14.235754	-0.001181	-11.805356	-3.999763	-0.094662
 106	5.2500e-02	4.2320	-13.689625	0.001362	13.621564	4.615111	0.109226
 107	5.3000e-02	4.2993	-13.689625	0.000000	0.000000	0.000000	0.000000
 108	5.3500e-02	4.3218	-13.762442	-0.000182	-1.816209	-0.615348	-0.014563
 109	5.4000e-02	4.3523	-13.398356	0.000908	9.081043	3.076741	0.072817
 110	5.4500e-02	4.4020	-13.580399	-0.000454	-4.540521	-1.538370	-0.036409
 111	5.5000e-02	4.4405	-13.034271	0.001362	13.621564	4.615111	0.109226
 112	5.5500e-02	4.4774	-13.179905	-0.000363	-3.632417	-1.230696	-0.029127
 113	5.6000e-02	4.5031	-12.961453	0.000545	5.448626	1.846044	0.043690
 114	5.6500e-02	4.5705	-12.524550	0.001090	10.897251	3.692089	0.087381
 115	5.7000e-02	4.5977	-12.670185	-0.000363	-3.632417	-1.230696	-0.029127
 116	5.7500e-02	4.6571	-12.925045	-0.000636	-6.356730	-2.153718	-0.050972
 117	5.8000e-02	4.6924	-12.925045	0.000000	0.000000	0.000000	0.000000
 118	5.8500e-02	4.7261	-12.633776	0.000726	7.264834	2.461392	0.058254
 119	5.9000e-02	4.7614	-12.269690	0.000908	9.081043	3.076741	0.072817
 120	5.9500e-02	4.7918	-12.160465	0.000272	2.724313	0.923022	0.021845
 121	6.0000e-02	4.8464	-12.160465	0.000000	0.000000	0.000000	0.000000
 122	6.0500e-02	4.8688	-12.160465	0.000000	0.000000	0.000000	0.000000
 123	6.1000e-02	4.9009	-11.723562	0.001090	10.897251	3.692089	0.087381
 124	6.1500e-02	4.9587	-11.905605	-0.000454	-4.540521	-1.538370	-0.036409
 125	6.2000e-02	5.0052	-11.286659	0.001544	15.437773	5.230459	0.123789
 126	6.2500e-02	5.0469	-11.541519	-0.000636	-6.356730	-2.153718	-0.050972
 127	6.3000e-02	5.0902	-11.541519	0.000000	0.000000	0.000000	0.000000
 128	6.3500e-02	5.1127	-10.995390	0.001362	13.621564	4.615111	0.109226
 129	6.4000e-02	5.1656	-11.031799	-0.000091	-0.908104	-0.307674	-0.007282
 130	6.4500e-02	5.1977	-11.031799	0.000000	0.000000	0.000000	0.000000
 131	6.5000e-02	5.2539	-10.704122	0.000817	8.172939	2.769067	0.065535
 132	6.5500e-02	5.2843	-10.849756	-0.000363	-3.632417	-1.230696	-0.029127
 133	6.6000e-02	5.3261	-10.704122	0.000363	3.632417	1.230696	0.029127
 134	6.6500e-02	5.3662	-10.594896	0.000272	2.724313	0.923022	0.021845
 135	6.7000e-02	5.3918	-10.267219	0.000817	8.172939	2.769067	0.065535
 136	6.7500e-02	5.4480	-10.340036	-0.000182	-1.816209	-0.615348	-0.014563
 137	6.8000e-02	5.4608	-10.485670	-0.000363	-3.632417	-1.230696	-0.029127
 138	6.8500e-02	5.4945	-9.611864	0.002179	21.794503	7.384177	0.174761
 139	6.9000e-02	5.5603	-9.830316	-0.000545	-5.448626	-1.846044	-0.043690
 140	6.9500e-02	5.6004	-9.866724	-0.000091	-0.908104	-0.307674	-0.007282
 141	7.0000e-02	5.6421	-9.611864	0.000636	6.356730	2.153718	0.050972
 142	7.0500e-02	5.6998	-9.393413	0.000545	5.448626	1.846044	0.043690
 143	7.1000e-02	5.7095	-9.174961	0.000545	5.448626	1.846044	0.043690
 144	7.1500e-02	5.7656	-9.211370	-0.000091	-0.908104	-0.307674	-0.007282
 145	7.2000e-02	5.7993	-9.102144	0.000272	2.724313	0.923022	0.021845
 146	7.2500e-02	5.8298	-9.393413	-0.000726	-7.264834	-2.461392	-0.058254
 147	7.3000e-02	5.8747	-8.847284	0.001362	13.621564	4.615111	0.109226
 148	7.3500e-02	5.9116	-8.774467	0.000182	1.816209	0.615348	0.014563
 149	7.4000e-02	5.9597	-8.483198	0.000726	7.264834	2.461392	0.058254
 150	7.4500e-02	6.0062	-8.155521	0.000817	8.172939	2.769067	0.065535
 151	7.5000e-02	6.0367	-8.410381	-0.000636	-6.356730	-2.153718	-0.050972
 152	7.5500e-02	6.0881	-8.082704	0.000817	8.172939	2.769067	0.065535
 153	7.6000e-02	6.1298	-8.046296	0.000091	0.908104	0.307674	0.007282
 154	7.6500e-02	6.1635	-8.119113	-0.000182	-1.816209	-0.615348	-0.014563
 155	7.7000e-02	6.1972	-8.046296	0.000182	1.816209	0.615348	0.014563
 156	7.7500e-02	6.2373	-7.572984	0.001181	11.805356	3.999763	0.094662
 157	7.8000e-02	6.2742	-7.645801	-0.000182	-1.816209	-0.615348	-0.014563
 158	7.8500e-02	6.3287	-7.536575	0.000272	2.724313	0.923022	0.021845
 159	7.9000e-02	6.3528	-7.463758	0.000182	1.816209	0.615348	0.014563
 160	7.9500e-02	6.4185	-7.099673	0.000908	9.081043	3.076741	0.072817
 161	8.0000e-02	6.4346	-6.844812	0.000636	6.356730	2.153718	0.050972
 162	8.0500e-02	6.4747	-7.390941	-0.001362	-13.621564	-4.615111	-0.109226
 163	8.1000e-02	6.4923	-6.626361	0.001907	19.070190	6.461155	0.152916
 164	8.1500e-02	6.5629	-7.026855	-0.000999	-9.989147	-3.384415	-0.080099
 165	8.2000e-02	6.6062	-6.808404	0.000545	5.448626	1.846044	0.043690
 166	8.2500e-02	6.6592	-6.553544	0.000636	6.356730	2.153718	0.050972
 167	8.3000e-02	6.6800	-6.444318	0.000272	2.724313	0.923022	0.021845
 168	8.3500e-02	6.6977	-6.371501	0.000182	1.816209	0.615348	0.014563
 169	8.4000e-02	6.7683	-6.116641	0.000636	6.356730	2.153718	0.050972
 170	8.4500e-02	6.7955	-6.080232	0.000091	0.908104	0.307674	0.007282
 171	8.5000e-02	6.8228	-5.679738	0.000999	9.989147	3.384415	0.080099
 172	8.5500e-02	6.8806	-6.007415	-0.000817	-8.172939	-2.769067	-0.065535
 173	8.6000e-02	6.9046	-5.352061	0.001635	16.345877	5.538133	0.131071
 174	8.6500e-02	6.9560	-5.606921	-0.000636	-6.356730	-2.153718	-0.050972
 175	8.7000e-02	6.9977	-5.388469	0.000545	5.448626	1.846044	0.043690
 176	8.7500e-02	7.0586	-5.315652	0.000182	1.816209	0.615348	0.014563
 177	8.8000e-02	7.1003	-5.097201	0.000545	5.448626	1.846044	0.043690
 178	8.8500e-02	7.1068	-4.951566	0.000363	3.632417	1.230696	0.029127
 179	8.9000e-02	7.1581	-5.133609	-0.000454	-4.540521	-1.538370	-0.036409
 180	8.9500e-02	7.2062	-4.915158	0.000545	5.448626	1.846044	0.043690
 181	9.0000e-02	7.2158	-4.514664	0.000999	9.989147	3.384415	0.080099
 182	9.0500e-02	7.2672	-4.733115	-0.000545	-5.448626	-1.846044	-0.043690
 183	9.1000e-02	7.2961	-4.551072	0.000454	4.540521	1.538370	0.036409
 184	9.1500e-02	7.3474	-4.623889	-0.000182	-1.816209	-0.615348	-0.014563
 185	9.2000e-02	7.3907	-4.441846	0.000454	4.540521	1.538370	0.036409
 186	9.2500e-02	7.4468	-4.223395	0.000545	5.448626	1.846044	0.043690
 187	9.3000e-02	7.4886	-3.786492	0.001090	10.897251	3.692089	0.087381
 188	9.3500e-02	7.5126	-4.041352	-0.000636	-6.356730	-2.153718	-0.050972
 189	9.4000e-02	7.5559	-3.495223	0.001362	13.621564	4.615111	0.109226
 190	9.4500e-02	7.6105	-3.822901	-0.000817	-8.172939	-2.769067	-0.065535
 191	9.5000e-02	7.6474	-3.313181	0.001271	12.713460	4.307437	0.101944
 192	9.5500e-02	7.6795	-3.349589	-0.000091	-0.908104	-0.307674	-0.007282
 193	9.6000e-02	7.7308	-2.949095	0.000999	9.989147	3.384415	0.080099
 194	9.6500e-02	7.7436	-3.313181	-0.000908	-9.081043	-3.076741	-0.072817
 195	9.7000e-02	7.7966	-3.021912	0.000726	7.264834	2.461392	0.058254
 196	9.7500e-02	7.8062	-2.621418	0.000999	9.989147	3.384415	0.080099
 197	9.8000e-02	7.8736	-2.876278	-0.000636	-6.356730	-2.153718	-0.050972
 198	9.8500e-02	7.9201	-2.730643	0.000363	3.632417	1.230696	0.029127
 199	9.9000e-02	7.9666	-2.730643	0.000000	0.000000	0.000000	0.000000
 200	9.9500e-02	7.9875	-2.439375	0.000726	7.264834	2.461392	0.058254
 201	1.0000e-01	8.0500	-2.439375	0.000000	0.000000	0.000000	0.000000
 202	1.0050e-01	8.0901	-2.439375	0.000000	0.000000	0.000000	0.000000
 203	1.0100e-01	8.0982	-1.820429	0.001544	15.437773	5.230459	0.123789
 204	1.0150e-01	8.1511	-1.929655	-0.000272	-2.724313	-0.923022	-0.021845
 205	1.0200e-01	8.1864	-1.784020	0.000363	3.632417	1.230696	0.029127
 206	1.0250e-01	8.2409	-1.856837	-0.000182	-1.816209	-0.615348	-0.014563
 207	1.0300e-01	8.2714	-1.492752	0.000908	9.081043	3.076741	0.072817
 208	1.0350e-01	8.3163	-1.747612	-0.000636	-6.356730	-2.153718	-0.050972
 209	1.0400e-01	8.3661	-1.128666	0.001544	15.437773	5.230459	0.123789
 210	1.0450e-01	8.3982	-1.966063	-0.002089	-20.886398	-7.076503	-0.167479
 211	1.0500e-01	8.4078	-1.201483	0.001907	19.070190	6.461155	0.152916
 212	1.0550e-01	8.4687	-0.910214	0.000726	7.264834	2.461392	0.058254
 213	1.0600e-01	8.5233	-1.165074	-0.000636	-6.356730	-2.153718	-0.050972
 214	1.0650e-01	8.5441	-0.728172	0.001090	10.897251	3.692089	0.087381
 215	1.0700e-01	8.5826	-1.019440	-0.000726	-7.264834	-2.461392	-0.058254
 216	1.0750e-01	8.6308	-0.582537	0.001090	10.897251	3.692089	0.087381
 217	1.0800e-01	8.6789	-0.291269	0.000726	7.264834	2.461392	0.058254
 218	1.0850e-01	8.7254	-0.109226	0.000454	4.540521	1.538370	0.036409
 219	1.0900e-01	8.7575	-0.182043	-0.000182	-1.816209	-0.615348	-0.014563
 220	1.0950e-01	8.7896	0.072817	0.000636	6.356730	2.153718	0.050972
 221	1.1000e-01	8.8361	-0.109226	-0.000454	-4.540521	-1.538370	-0.036409
 222	1.1050e-01	8.8923	-0.218451	-0.000272	-2.724313	-0.923022	-0.021845
 223	1.1100e-01	8.9436	0.036409	0.000636	6.356730	2.153718	0.050972
 224	1.1150e-01	8.9500	0.218451	0.000454	4.540521	1.538370	0.036409
 225	1.1200e-01	8.9901	0.400494	0.000454	4.540521	1.538370	0.036409
 226	1.1250e-01	9.0415	0.546129	0.000363	3.632417	1.230696	0.029127
 227	1.1300e-01	9.0767	0.837397	0.000726	7.264834	2.461392	0.058254
 228	1.1350e-01	9.1169	0.546129	-0.000726	-7.264834	-2.461392	-0.058254
 229	1.1400e-01	9.1377	1.055849	0.001271	12.713460	4.307437	0.101944
 230	1.1450e-01	9.1923	1.055849	0.000000	0.000000	0.000000	0.000000
 231	1.1500e-01	9.2420	1.165074	0.000272	2.724313	0.923022	0.021845
 232	1.1550e-01	9.2869	1.092257	-0.000182	-1.816209	-0.615348	-0.014563
 233	1.1600e-01	9.3174	1.128666	0.000091	0.908104	0.307674	0.007282
 234	1.1650e-01	9.3719	1.456343	0.000817	8.172939	2.769067	0.065535
 235	1.1700e-01	9.4217	2.002472	0.001362	13.621564	4.615111	0.109226
 236	1.1750e-01	9.4441	1.383526	-0.001544	-15.437773	-5.230459	-0.123789
 237	1.1800e-01	9.4778	1.638386	0.000636	6.356730	2.153718	0.050972
 238	1.1850e-01	9.5131	2.038880	0.000999	9.989147	3.384415	0.080099
 239	1.1900e-01	9.5388	1.820429	-0.000545	-5.448626	-1.846044	-0.043690
 240	1.1950e-01	9.5885	2.075289	0.000636	6.356730	2.153718	0.050972
 241	1.2000e-01	9.6222	2.075289	0.000000	0.000000	0.000000	0.000000
 242	1.2050e-01	9.6559	2.293740	0.000545	5.448626	1.846044	0.043690
 243	1.2100e-01	9.7120	2.548600	0.000636	6.356730	2.153718	0.050972
 244	1.2150e-01	9.7361	2.767052	0.000545	5.448626	1.846044	0.043690
 245	1.2200e-01	9.8115	2.876278	0.000272	2.724313	0.923022	0.021845
 246	1.2250e-01	9.8323	2.876278	0.000000	0.000000	0.000000	0.000000
 247	1.2300e-01	9.8660	2.475783	-0.000999	-9.989147	-3.384415	-0.080099
 248	1.2350e-01	9.9190	3.203955	0.001816	18.162086	6.153481	0.145634
 249	1.2400e-01	9.9607	3.094729	-0.000272	-2.724313	-0.923022	-0.021845
 250	1.2450e-01	9.9960	3.568041	0.001181	11.805356	3.999763	0.094662
 251	1.2500e-01	10.0393	3.203955	-0.000908	-9.081043	-3.076741	-0.072817
 252	1.2550e-01	10.0698	3.313181	0.000272	2.724313	0.923022	0.021845
 253	1.2600e-01	10.1019	3.895718	0.001453	14.529668	4.922785	0.116507
 254	1.2650e-01	10.1323	3.859309	-0.000091	-0.908104	-0.307674	-0.007282
 255	1.2700e-01	10.1901	4.041352	0.000454	4.540521	1.538370	0.036409
 256	1.2750e-01	10.1997	3.677266	-0.000908	-9.081043	-3.076741	-0.072817
 257	1.2800e-01	10.2510	4.114169	0.001090	10.897251	3.692089	0.087381
 258	1.2850e-01	10.3248	4.186986	0.000182	1.816209	0.615348	0.014563
