»»»»»»»»»»»»»»»»»»»»»»»»»»»»»»»»»»»» Hysteresis ««««««««««««««««««««««««««««««««««««
»»»  Executed Version:	5.48.1
»»»  Vision Version:	5.48.4 (R)
»»»  Vision Compiled:	9/18/24
»»»  Driver Version:	5.47.0
»»»  Windows Version:	Windows 8 or 8.1
»»»  Processor Information:	x86 (AMD or Intel) - 32 Processors
»»»  Tester Name:	PMF21124-494 (100V)
»»»  Tester S/N:	PMF21124-494
»»»  Internal Amp Type:	100V RevK 270k
»»»  Internal Amp S/N:	iAB2-596/K     
»»»  Execution Count:	1
»»»»»»»»»»»»»»»»»»»»»»»»»»»»»»»»»»»»»»»»»»««««««««««««««««««««««««««««««««««««««««««

Stored:	10/10/2025 - 11:39:21
Configured:	10/10/25 10:37:25 AM
Executed:	10/10/25 11:38:50 AM

»»»»»»»»»»»»»»»»»»»»»»»»»»»»»»»»»»» Sample Info ««««««««««««««««««««««««««««««««««««
Sample Name:	Int. Ref. Ferroelectric
Lot Name:	N/A
Wafer Name:	N/A
Die Row/Column:	0/0
Capacitor Number:	0
Sample Area (cm2):	1.00e-04
Sample Thickness (microns):	3.00e-01

Amplifier:	Internal

»»»»»»»»»»»»»»»»»»»»»»»»»»»»»»»»»»» Tester Info «««««««««««««««««««««««««««««««««««
Tester Name:	PMF21124-494 (100V)
Tester Serial Number:	PMF21124-494
Return Signal Amp. Level:	0.02 [Index: 2]

»»»»»»»»»»»»»»»»»»»»»»»»»»»»»»»» Hysteresis Info ««««««««««««««««««««««««««««««««««
Task Name:	Hyst-170
Volts:	20.00
Field:	666.67 (kV/cm)
DCBias:	0.00
DCField:	0.00 (kV/cm)
Hysteresis Period (ms):	5.00e-01
Preset:	Enabled
Preset Delay (ms):	1.00e+03
Profile:	Standard Monopolar

»»»»»»»»»»»»»»»»»»»»»»»»»»»»»»»»»»»»»» Data «««««««««««««««««««««««««««««««««««««««
Points:	1001

Valid Data

Point	Time (ms)	Drive Voltage	Measured Polarization (uC/cm2)	Capacitance (uF)	Normalized Capacitance (uF/cm2)	Dielectric Constant	Instantaneous Current (mA)
   1	0.0000e+00	0.0112	-27.397454	-0.000179	-1.791997	-0.607145	-0.014563
   2	5.0000e-04	0.0337	-27.470271	-0.000179	-1.791997	-0.607145	-0.014563
   3	1.0000e-03	0.1203	-27.506680	-0.000090	-0.895999	-0.303573	-0.007282
   4	1.5000e-03	0.1797	-27.179003	0.000806	8.063988	2.732153	0.065535
   5	2.0000e-03	0.2134	-27.506680	-0.000806	-8.063988	-2.732153	-0.065535
   6	2.5000e-03	0.2551	-27.179003	0.000806	8.063988	2.732153	0.065535
   7	3.0000e-03	0.2807	-26.924143	0.000627	6.271990	2.125008	0.050972
   8	3.5000e-03	0.3112	-26.669283	0.000627	6.271990	2.125008	0.050972
   9	4.0000e-03	0.3690	-26.778508	-0.000269	-2.687996	-0.910718	-0.021845
  10	4.5000e-03	0.4155	-26.341605	0.001075	10.751984	3.642871	0.087381
  11	5.0000e-03	0.4476	-26.159563	0.000448	4.479993	1.517863	0.036409
  12	5.5000e-03	0.4797	-26.450831	-0.000717	-7.167989	-2.428580	-0.058254
  13	6.0000e-03	0.5246	-25.941111	0.001254	12.543981	4.250016	0.101944
  14	6.5000e-03	0.5615	-25.722660	0.000538	5.375992	1.821435	0.043690
  15	7.0000e-03	0.5952	-25.722660	0.000000	0.000000	0.000000	0.000000
  16	7.5000e-03	0.6048	-25.577025	0.000358	3.583995	1.214290	0.029127
  17	8.0000e-03	0.7091	-25.759068	-0.000448	-4.479993	-1.517863	-0.036409
  18	8.5000e-03	0.7283	-25.322165	0.001075	10.751984	3.642871	0.087381
  19	9.0000e-03	0.7460	-25.431391	-0.000269	-2.687996	-0.910718	-0.021845
  20	9.5000e-03	0.8133	-24.848854	0.001434	14.335978	4.857161	0.116507
  21	1.0000e-02	0.8551	-24.776037	0.000179	1.791997	0.607145	0.014563
  22	1.0500e-02	0.8695	-24.484768	0.000717	7.167989	2.428580	0.058254
  23	1.1000e-02	0.9289	-25.176531	-0.001702	-17.023974	-5.767879	-0.138353
  24	1.1500e-02	0.9593	-24.521177	0.001613	16.127975	5.464306	0.131071
  25	1.2000e-02	0.9754	-24.484768	0.000090	0.895999	0.303573	0.007282
  26	1.2500e-02	1.0379	-24.339134	0.000358	3.583995	1.214290	0.029127
  27	1.3000e-02	1.0556	-24.120682	0.000538	5.375992	1.821435	0.043690
  28	1.3500e-02	1.1005	-23.720188	0.000986	9.855985	3.339298	0.080099
  29	1.4000e-02	1.1615	-23.793005	-0.000179	-1.791997	-0.607145	-0.014563
  30	1.4500e-02	1.2096	-23.647371	0.000358	3.583995	1.214290	0.029127
  31	1.5000e-02	1.2337	-23.501736	0.000358	3.583995	1.214290	0.029127
  32	1.5500e-02	1.2818	-23.610962	-0.000269	-2.687996	-0.910718	-0.021845
  33	1.6000e-02	1.3171	-23.392511	0.000538	5.375992	1.821435	0.043690
  34	1.6500e-02	1.3524	-23.428919	-0.000090	-0.895999	-0.303573	-0.007282
  35	1.7000e-02	1.3925	-22.773565	0.001613	16.127975	5.464306	0.131071
  36	1.7500e-02	1.4550	-23.356102	-0.001434	-14.335978	-4.857161	-0.116507
  37	1.8000e-02	1.4743	-22.846382	0.001254	12.543981	4.250016	0.101944
  38	1.8500e-02	1.5320	-22.664339	0.000448	4.479993	1.517863	0.036409
  39	1.9000e-02	1.5545	-22.373071	0.000717	7.167989	2.428580	0.058254
  40	1.9500e-02	1.6139	-22.227436	0.000358	3.583995	1.214290	0.029127
  41	2.0000e-02	1.6283	-22.118211	0.000269	2.687996	0.910718	0.021845
  42	2.0500e-02	1.6636	-22.336662	-0.000538	-5.375992	-1.821435	-0.043690
  43	2.1000e-02	1.7213	-21.826942	0.001254	12.543981	4.250016	0.101944
  44	2.1500e-02	1.7663	-21.754125	0.000179	1.791997	0.607145	0.014563
  45	2.2000e-02	1.8144	-21.572082	0.000448	4.479993	1.517863	0.036409
  46	2.2500e-02	1.8529	-21.754125	-0.000448	-4.479993	-1.517863	-0.036409
  47	2.3000e-02	1.8914	-21.244405	0.001254	12.543981	4.250016	0.101944
  48	2.3500e-02	1.9363	-21.390039	-0.000358	-3.583995	-1.214290	-0.029127
  49	2.4000e-02	1.9636	-21.135179	0.000627	6.271990	2.125008	0.050972
  50	2.4500e-02	1.9925	-20.953136	0.000448	4.479993	1.517863	0.036409
  51	2.5000e-02	2.0518	-20.807502	0.000358	3.583995	1.214290	0.029127
  52	2.5500e-02	2.0775	-21.171588	-0.000896	-8.959986	-3.035726	-0.072817
  53	2.6000e-02	2.1048	-20.625459	0.001344	13.439980	4.553588	0.109226
  54	2.6500e-02	2.1384	-20.334190	0.000717	7.167989	2.428580	0.058254
  55	2.7000e-02	2.1914	-20.407007	-0.000179	-1.791997	-0.607145	-0.014563
  56	2.7500e-02	2.2379	-20.152147	0.000627	6.271990	2.125008	0.050972
  57	2.8000e-02	2.3005	-20.334190	-0.000448	-4.479993	-1.517863	-0.036409
  58	2.8500e-02	2.3358	-19.970104	0.000896	8.959986	3.035726	0.072817
  59	2.9000e-02	2.3598	-19.824470	0.000358	3.583995	1.214290	0.029127
  60	2.9500e-02	2.3871	-19.751653	0.000179	1.791997	0.607145	0.014563
  61	3.0000e-02	2.4336	-19.423976	0.000806	8.063988	2.732153	0.065535
  62	3.0500e-02	2.4866	-19.314750	0.000269	2.687996	0.910718	0.021845
  63	3.1000e-02	2.5283	-19.096299	0.000538	5.375992	1.821435	0.043690
  64	3.1500e-02	2.5571	-19.314750	-0.000538	-5.375992	-1.821435	-0.043690
  65	3.2000e-02	2.6005	-18.987073	0.000806	8.063988	2.732153	0.065535
  66	3.2500e-02	2.6422	-18.805030	0.000448	4.479993	1.517863	0.036409
  67	3.3000e-02	2.6550	-18.732213	0.000179	1.791997	0.607145	0.014563
  68	3.3500e-02	2.7304	-18.659396	0.000179	1.791997	0.607145	0.014563
  69	3.4000e-02	2.7641	-18.440944	0.000538	5.375992	1.821435	0.043690
  70	3.4500e-02	2.7994	-18.550170	-0.000269	-2.687996	-0.910718	-0.021845
  71	3.5000e-02	2.8234	-18.076858	0.001165	11.647982	3.946443	0.094662
  72	3.5500e-02	2.8716	-18.258901	-0.000448	-4.479993	-1.517863	-0.036409
  73	3.6000e-02	2.9181	-18.149676	0.000269	2.687996	0.910718	0.021845
  74	3.6500e-02	2.9678	-17.712773	0.001075	10.751984	3.642871	0.087381
  75	3.7000e-02	2.9967	-17.749181	-0.000090	-0.895999	-0.303573	-0.007282
  76	3.7500e-02	3.0111	-17.494321	0.000627	6.271990	2.125008	0.050972
  77	3.8000e-02	3.0641	-17.530730	-0.000090	-0.895999	-0.303573	-0.007282
  78	3.8500e-02	3.1170	-17.275870	0.000627	6.271990	2.125008	0.050972
  79	3.9000e-02	3.1555	-17.385096	-0.000269	-2.687996	-0.910718	-0.021845
  80	3.9500e-02	3.2229	-17.239461	0.000358	3.583995	1.214290	0.029127
  81	4.0000e-02	3.2261	-17.093827	0.000358	3.583995	1.214290	0.029127
  82	4.0500e-02	3.2470	-16.802558	0.000717	7.167989	2.428580	0.058254
  83	4.1000e-02	3.3304	-16.729741	0.000179	1.791997	0.607145	0.014563
  84	4.1500e-02	3.3721	-16.547698	0.000448	4.479993	1.517863	0.036409
  85	4.2000e-02	3.4122	-16.511290	0.000090	0.895999	0.303573	0.007282
  86	4.2500e-02	3.4154	-16.110795	0.000986	9.855985	3.339298	0.080099
  87	4.3000e-02	3.4844	-15.783118	0.000806	8.063988	2.732153	0.065535
  88	4.3500e-02	3.5181	-16.147204	-0.000896	-8.959986	-3.035726	-0.072817
  89	4.4000e-02	3.5245	-15.892344	0.000627	6.271990	2.125008	0.050972
  90	4.4500e-02	3.5951	-15.673892	0.000538	5.375992	1.821435	0.043690
  91	4.5000e-02	3.6224	-15.673892	0.000000	0.000000	0.000000	0.000000
  92	4.5500e-02	3.6753	-15.564667	0.000269	2.687996	0.910718	0.021845
  93	4.6000e-02	3.7202	-15.528258	0.000090	0.895999	0.303573	0.007282
  94	4.6500e-02	3.7523	-15.091355	0.001075	10.751984	3.642871	0.087381
  95	4.7000e-02	3.7812	-15.455441	-0.000896	-8.959986	-3.035726	-0.072817
  96	4.7500e-02	3.8181	-15.164172	0.000717	7.167989	2.428580	0.058254
  97	4.8000e-02	3.8774	-14.727269	0.001075	10.751984	3.642871	0.087381
  98	4.8500e-02	3.9111	-15.018538	-0.000717	-7.167989	-2.428580	-0.058254
  99	4.9000e-02	3.9817	-14.836495	0.000448	4.479993	1.517863	0.036409
 100	4.9500e-02	3.9913	-14.618044	0.000538	5.375992	1.821435	0.043690
 101	5.0000e-02	4.0619	-14.144732	0.001165	11.647982	3.946443	0.094662
 102	5.0500e-02	4.1020	-14.581635	-0.001075	-10.751984	-3.642871	-0.087381
 103	5.1000e-02	4.1245	-13.817055	0.001882	18.815971	6.375024	0.152916
 104	5.1500e-02	4.1485	-13.999098	-0.000448	-4.479993	-1.517863	-0.036409
 105	5.2000e-02	4.1887	-13.853464	0.000358	3.583995	1.214290	0.029127
 106	5.2500e-02	4.1951	-13.817055	0.000090	0.895999	0.303573	0.007282
 107	5.3000e-02	4.2801	-13.707829	0.000269	2.687996	0.910718	0.021845
 108	5.3500e-02	4.3122	-13.343743	0.000896	8.959986	3.035726	0.072817
 109	5.4000e-02	4.3539	-13.744238	-0.000986	-9.855985	-3.339298	-0.080099
 110	5.4500e-02	4.3956	-13.125292	0.001523	15.231977	5.160733	0.123789
 111	5.5000e-02	4.4453	-13.161701	-0.000090	-0.895999	-0.303573	-0.007282
 112	5.5500e-02	4.4886	-13.016066	0.000358	3.583995	1.214290	0.029127
 113	5.6000e-02	4.4967	-12.688389	0.000806	8.063988	2.732153	0.065535
 114	5.6500e-02	4.5673	-12.834023	-0.000358	-3.583995	-1.214290	-0.029127
 115	5.7000e-02	4.6282	-12.688389	0.000358	3.583995	1.214290	0.029127
 116	5.7500e-02	4.6491	-12.287895	0.000986	9.855985	3.339298	0.080099
 117	5.8000e-02	4.6619	-12.397120	-0.000269	-2.687996	-0.910718	-0.021845
 118	5.8500e-02	4.7309	-12.506346	-0.000269	-2.687996	-0.910718	-0.021845
 119	5.9000e-02	4.7549	-12.105852	0.000986	9.855985	3.339298	0.080099
 120	5.9500e-02	4.8271	-12.069443	0.000090	0.895999	0.303573	0.007282
 121	6.0000e-02	4.8239	-11.887400	-0.000448	-4.479993	-1.517863	0.036409
 122	6.0500e-02	4.8705	-12.105852	-0.000538	-5.375992	-1.821435	-0.043690
 123	6.1000e-02	4.9154	-11.741766	0.000896	8.959986	3.035726	0.072817
 124	6.1500e-02	4.9603	-11.341272	0.000986	9.855985	3.339298	0.080099
 125	6.2000e-02	5.0084	-11.377680	-0.000090	-0.895999	-0.303573	-0.007282
 126	6.2500e-02	5.0132	-11.304863	0.000179	1.791997	0.607145	0.014563
 127	6.3000e-02	5.0678	-11.086412	0.000538	5.375992	1.821435	0.043690
 128	6.3500e-02	5.1031	-10.940777	0.000358	3.583995	1.214290	0.029127
 129	6.4000e-02	5.1656	-11.122820	-0.000448	-4.479993	-1.517863	-0.036409
 130	6.4500e-02	5.1993	-10.795143	0.000806	8.063988	2.732153	0.065535
 131	6.5000e-02	5.2346	-10.503874	0.000717	7.167989	2.428580	0.058254
 132	6.5500e-02	5.3084	-11.122820	-0.001523	-15.231977	-5.160733	-0.123789
 133	6.6000e-02	5.3180	-10.467466	0.001613	16.127975	5.464306	0.131071
 134	6.6500e-02	5.3662	-10.321832	0.000358	3.583995	1.214290	0.029127
 135	6.7000e-02	5.3822	-9.812111	0.001254	12.543981	4.250016	0.101944
 136	6.7500e-02	5.4464	-10.066972	-0.000627	-6.271990	-2.125008	-0.050972
 137	6.8000e-02	5.4897	-9.884929	0.000448	4.479993	1.517863	0.036409
 138	6.8500e-02	5.5378	-10.030563	-0.000358	-3.583995	-1.214290	-0.029127
 139	6.9000e-02	5.5539	-9.812111	0.000538	5.375992	1.821435	0.043690
 140	6.9500e-02	5.5795	-9.520843	0.000717	7.167989	2.428580	0.058254
 141	7.0000e-02	5.6309	-9.702886	-0.000448	-4.479993	-1.517863	-0.036409
 142	7.0500e-02	5.6854	-9.193166	0.001254	12.543981	4.250016	0.101944
 143	7.1000e-02	5.7351	-9.193166	0.000000	0.000000	0.000000	0.000000
 144	7.1500e-02	5.7496	-9.375209	-0.000448	-4.479993	-1.517863	-0.036409
 145	7.2000e-02	5.7945	-8.719854	0.001613	16.127975	5.464306	0.131071
 146	7.2500e-02	5.8266	-9.156757	-0.001075	-10.751984	-3.642871	-0.087381
 147	7.3000e-02	5.8875	-8.355768	0.001971	19.711970	6.678596	0.160198
 148	7.3500e-02	5.9180	-8.792671	-0.001075	-10.751984	-3.642871	-0.087381
 149	7.4000e-02	5.9629	-8.719854	0.000179	1.791997	0.607145	0.014563
 150	7.4500e-02	5.9918	-8.246543	0.001165	11.647982	3.946443	0.094662
 151	7.5000e-02	6.0431	-8.173726	0.000179	1.791997	0.607145	0.014563
 152	7.5500e-02	6.0977	-8.064500	0.000269	2.687996	0.910718	0.021845
 153	7.6000e-02	6.1105	-8.064500	0.000000	0.000000	0.000000	0.000000
 154	7.6500e-02	6.1667	-7.991683	0.000179	1.791997	0.607145	0.014563
 155	7.7000e-02	6.1939	-7.518371	0.001165	11.647982	3.946443	0.094662
 156	7.7500e-02	6.2373	-7.627597	-0.000269	-2.687996	-0.910718	-0.021845
 157	7.8000e-02	6.2886	-7.554780	0.000179	1.791997	0.607145	0.014563
 158	7.8500e-02	6.3014	-7.627597	-0.000179	-1.791997	-0.607145	-0.014563
 159	7.9000e-02	6.3271	-7.299920	0.000806	8.063988	2.732153	0.065535
 160	7.9500e-02	6.3865	-7.299920	0.000000	0.000000	0.000000	0.000000
 161	8.0000e-02	6.4346	-7.299920	0.000000	0.000000	0.000000	0.000000
 162	8.0500e-02	6.4731	-7.045060	0.000627	6.271990	2.125008	0.050972
 163	8.1000e-02	6.5004	-6.790200	0.000627	6.271990	2.125008	0.050972
 164	8.1500e-02	6.5645	-6.498931	0.000717	7.167989	2.428580	0.058254
 165	8.2000e-02	6.6014	-6.680974	-0.000448	-4.479993	-1.517863	-0.036409
 166	8.2500e-02	6.6255	-6.462522	0.000538	5.375992	1.821435	0.043690
 167	8.3000e-02	6.6736	-6.353297	0.000269	2.687996	0.910718	0.021845
 168	8.3500e-02	6.7073	-6.462522	-0.000269	-2.687996	-0.910718	-0.021845
 169	8.4000e-02	6.7602	-6.025619	0.001075	10.751984	3.642871	0.087381
 170	8.4500e-02	6.8196	-6.025619	0.000000	0.000000	0.000000	0.000000
 171	8.5000e-02	6.8453	-6.025619	0.000000	0.000000	0.000000	0.000000
 172	8.5500e-02	6.8613	-5.661534	0.000896	8.959986	3.035726	0.072817
 173	8.6000e-02	6.9014	-5.406674	0.000627	6.271990	2.125008	0.050972
 174	8.6500e-02	6.9592	-5.552308	-0.000358	-3.583995	-1.214290	-0.029127
 175	8.7000e-02	6.9929	-5.333857	0.000538	5.375992	1.821435	0.043690
 176	8.7500e-02	7.0666	-5.479491	-0.000358	-3.583995	-1.214290	-0.029127
 177	8.8000e-02	7.1084	-5.261039	0.000538	5.375992	1.821435	0.043690
 178	8.8500e-02	7.1276	-5.370265	-0.000269	-2.687996	-0.910718	-0.021845
 179	8.9000e-02	7.1613	-4.860545	0.001254	12.543981	4.250016	0.101944
 180	8.9500e-02	7.1934	-4.714911	0.000358	3.583995	1.214290	0.029127
 181	9.0000e-02	7.2431	-4.896954	-0.000448	-4.479993	-1.517863	-0.036409
 182	9.0500e-02	7.2896	-4.642094	0.000627	6.271990	2.125008	0.050972
 183	9.1000e-02	7.3105	-4.278008	0.000896	8.959986	3.035726	0.072817
 184	9.1500e-02	7.3554	-4.496459	-0.000538	-5.375992	-1.821435	-0.043690
 185	9.2000e-02	7.4019	-4.241599	0.000627	6.271990	2.125008	0.050972
 186	9.2500e-02	7.4292	-4.132373	0.000269	2.687996	0.910718	0.021845
 187	9.3000e-02	7.4805	-3.913922	0.000538	5.375992	1.821435	0.043690
 188	9.3500e-02	7.5303	-4.059556	-0.000358	-3.583995	-1.214290	-0.029127
 189	9.4000e-02	7.5832	-3.731879	0.000806	8.063988	2.732153	0.065535
 190	9.4500e-02	7.6041	-3.768288	-0.000090	-0.895999	-0.303573	-0.007282
 191	9.5000e-02	7.6458	-3.258568	0.001254	12.543981	4.250016	0.101944
 192	9.5500e-02	7.6795	-3.768288	-0.001254	-12.543981	-4.250016	-0.101944
 193	9.6000e-02	7.6907	-3.331385	0.001075	10.751984	3.642871	0.087381
 194	9.6500e-02	7.7549	-3.112933	0.000538	5.375992	1.821435	0.043690
 195	9.7000e-02	7.7966	-3.003708	0.000269	2.687996	0.910718	0.021845
 196	9.7500e-02	7.8351	-3.003708	0.000000	0.000000	0.000000	0.000000
 197	9.8000e-02	7.9025	-2.967299	0.000090	0.895999	0.303573	0.007282
 198	9.8500e-02	7.9297	-2.967299	0.000000	0.000000	0.000000	0.000000
 199	9.9000e-02	7.9586	-2.894482	0.000179	1.791997	0.607145	0.014563
 200	9.9500e-02	8.0099	-2.421170	0.001165	11.647982	3.946443	0.094662
 201	1.0000e-01	8.0484	-2.421170	0.000000	0.000000	0.000000	0.000000
 202	1.0050e-01	8.0773	-2.493988	-0.000179	-1.791997	-0.607145	-0.014563
 203	1.0100e-01	8.0934	-2.348353	0.000358	3.583995	1.214290	0.029127
 204	1.0150e-01	8.1639	-2.129902	0.000538	5.375992	1.821435	0.043690
 205	1.0200e-01	8.1976	-2.093493	0.000090	0.895999	0.303573	0.007282
 206	1.0250e-01	8.2618	-1.838633	0.000627	6.271990	2.125008	0.050972
 207	1.0300e-01	8.2907	-1.620182	0.000538	5.375992	1.821435	0.043690
 208	1.0350e-01	8.3051	-1.620182	0.000000	0.000000	0.000000	0.000000
 209	1.0400e-01	8.3308	-1.401730	0.000538	5.375992	1.821435	0.043690
 210	1.0450e-01	8.3789	-1.183279	0.000538	5.375992	1.821435	0.043690
 211	1.0500e-01	8.4335	-1.110462	0.000179	1.791997	0.607145	0.014563
 212	1.0550e-01	8.4736	-1.256096	-0.000358	-3.583995	-1.214290	-0.029127
 213	1.0600e-01	8.5281	-0.964827	0.000717	7.167989	2.428580	0.058254
 214	1.0650e-01	8.5602	-1.001236	-0.000090	-0.895999	-0.303573	-0.007282
 215	1.0700e-01	8.6003	-0.782784	0.000538	5.375992	1.821435	0.043690
 216	1.0750e-01	8.6324	-0.892010	-0.000269	-2.687996	-0.910718	-0.021845
 217	1.0800e-01	8.6885	-0.418699	0.001165	11.647982	3.946443	0.094662
 218	1.0850e-01	8.7334	-0.345881	0.000179	1.791997	0.607145	0.014563
 219	1.0900e-01	8.7816	-0.564333	-0.000538	-5.375992	-1.821435	-0.043690
 220	1.0950e-01	8.7816	-0.200247	-0.000896	-8.959986	-3.035726	0.072817
 221	1.1000e-01	8.8329	-0.054613	0.000358	3.583995	1.214290	0.029127
 222	1.1050e-01	8.8810	-0.091021	-0.000090	-0.895999	-0.303573	-0.007282
 223	1.1100e-01	8.9131	0.345881	0.001075	10.751984	3.642871	0.087381
 224	1.1150e-01	8.9596	0.200247	-0.000358	-3.583995	-1.214290	-0.029127
 225	1.1200e-01	9.0062	0.455107	0.000627	6.271990	2.125008	0.050972
 226	1.1250e-01	9.0527	0.309473	-0.000358	-3.583995	-1.214290	-0.029127
 227	1.1300e-01	9.0719	0.600742	0.000717	7.167989	2.428580	0.058254
 228	1.1350e-01	9.1265	0.819193	0.000538	5.375992	1.821435	0.043690
 229	1.1400e-01	9.1345	0.709967	-0.000269	-2.687996	-0.910718	-0.021845
 230	1.1450e-01	9.1971	0.964827	0.000627	6.271990	2.125008	0.050972
 231	1.1500e-01	9.2275	1.146870	0.000448	4.479993	1.517863	0.036409
 232	1.1550e-01	9.2725	1.219687	0.000179	1.791997	0.607145	0.014563
 233	1.1600e-01	9.3158	1.292504	0.000179	1.791997	0.607145	0.014563
 234	1.1650e-01	9.3607	1.219687	-0.000179	-1.791997	-0.607145	-0.014563
 235	1.1700e-01	9.4056	1.547365	0.000806	8.063988	2.732153	0.065535
 236	1.1750e-01	9.4489	1.474547	-0.000179	-1.791997	-0.607145	-0.014563
 237	1.1800e-01	9.4746	1.692999	0.000538	5.375992	1.821435	0.043690
 238	1.1850e-01	9.5243	1.947859	0.000627	6.271990	2.125008	0.050972
 239	1.1900e-01	9.5644	1.838633	-0.000269	-2.687996	-0.910718	-0.021845
 240	1.1950e-01	9.5821	1.692999	-0.000358	-3.583995	-1.214290	-0.029127
 241	1.2000e-01	9.6318	2.057085	0.000896	8.959986	3.035726	0.072817
 242	1.2050e-01	9.6864	1.875042	-0.000448	-4.479993	-1.517863	-0.036409
 243	1.2100e-01	9.6976	2.457579	0.001434	14.335978	4.857161	0.116507
 244	1.2150e-01	9.7361	2.384762	-0.000179	-1.791997	-0.607145	-0.014563
 245	1.2200e-01	9.7826	2.603213	0.000538	5.375992	1.821435	0.043690
 246	1.2250e-01	9.8436	2.676030	0.000179	1.791997	0.607145	0.014563
 247	1.2300e-01	9.9029	2.603213	-0.000179	-1.791997	-0.607145	-0.014563
 248	1.2350e-01	9.9430	2.748848	0.000358	3.583995	1.214290	0.029127
 249	1.2400e-01	9.9591	2.858073	0.000269	2.687996	0.910718	0.021845
 250	1.2450e-01	10.0040	3.222159	0.000896	8.959986	3.035726	0.072817
 251	1.2500e-01	10.0281	2.894482	-0.000806	-8.063988	-2.732153	-0.065535
 252	1.2550e-01	10.0970	3.222159	0.000806	8.063988	2.732153	0.065535
 253	1.2600e-01	10.1147	3.149342	-0.000179	-1.791997	-0.607145	-0.014563
 254	1.2650e-01	10.1644	3.659062	0.001254	12.543981	4.250016	0.101944
 255	1.2700e-01	10.2045	3.659062	0.000000	0.000000	0.000000	0.000000
 256	1.2750e-01	10.2254	3.622653	-0.000090	-0.895999	-0.303573	-0.007282
 257	1.2800e-01	10.2895	3.549836	-0.000179	-1.791997	-0.607145	-0.014563
 258	1.2850e-01	10.3184	4.059556	0.001254	12.543981	4.250016	0.101944
