»»»»»»»»»»»»»»»»»»»»»»»»»»»»»»»»»»»» Hysteresis ««««««««««««««««««««««««««««««««««««
»»»  Executed Version:	5.48.1
»»»  Vision Version:	5.48.4 (R)
»»»  Vision Compiled:	9/18/24
»»»  Driver Version:	5.47.0
»»»  Windows Version:	Windows 8 or 8.1
»»»  Processor Information:	x86 (AMD or Intel) - 32 Processors
»»»  Tester Name:	PMF21124-494 (100V)
»»»  Tester S/N:	PMF21124-494
»»»  Internal Amp Type:	100V RevK 270k
»»»  Internal Amp S/N:	iAB2-596/K     
»»»  Execution Count:	1
»»»»»»»»»»»»»»»»»»»»»»»»»»»»»»»»»»»»»»»»»»««««««««««««««««««««««««««««««««««««««««««

Stored:	10/10/2025 - 10:54:42
Configured:	10/10/25 10:37:25 AM
Executed:	10/10/25 10:53:51 AM

»»»»»»»»»»»»»»»»»»»»»»»»»»»»»»»»»»» Sample Info ««««««««««««««««««««««««««««««««««««
Sample Name:	Int. Ref. Ferroelectric
Lot Name:	N/A
Wafer Name:	N/A
Die Row/Column:	0/0
Capacitor Number:	0
Sample Area (cm2):	1.00e-04
Sample Thickness (microns):	3.00e-01

Amplifier:	Internal

»»»»»»»»»»»»»»»»»»»»»»»»»»»»»»»»»»» Tester Info «««««««««««««««««««««««««««««««««««
Tester Name:	PMF21124-494 (100V)
Tester Serial Number:	PMF21124-494
Return Signal Amp. Level:	0.02 [Index: 2]

»»»»»»»»»»»»»»»»»»»»»»»»»»»»»»»» Hysteresis Info ««««««««««««««««««««««««««««««««««
Task Name:	Hyst-170
Volts:	20.00
Field:	666.67 (kV/cm)
DCBias:	0.00
DCField:	0.00 (kV/cm)
Hysteresis Period (ms):	5.00e-01
Preset:	Enabled
Preset Delay (ms):	1.00e+03
Profile:	Standard Monopolar

»»»»»»»»»»»»»»»»»»»»»»»»»»»»»»»»»»»»»» Data «««««««««««««««««««««««««««««««««««««««
Points:	1001

Valid Data

Point	Time (ms)	Drive Voltage	Measured Polarization (uC/cm2)	Capacitance (uF)	Normalized Capacitance (uF/cm2)	Dielectric Constant	Instantaneous Current (mA)
   1	0.0000e+00	0.0321	-22.336662	-0.000361	-3.610764	-1.223360	0.029127
   2	5.0000e-04	0.0241	-22.191028	-0.000361	-3.610764	-1.223360	0.029127
   3	1.0000e-03	0.1027	-22.191028	0.000000	0.000000	0.000000	0.000000
   4	1.5000e-03	0.1460	-21.717716	0.001173	11.734982	3.975919	0.094662
   5	2.0000e-03	0.1845	-21.826942	-0.000271	-2.708073	-0.917520	-0.021845
   6	2.5000e-03	0.2358	-21.462856	0.000903	9.026909	3.058400	0.072817
   7	3.0000e-03	0.2583	-21.244405	0.000542	5.416145	1.835040	0.043690
   8	3.5000e-03	0.3192	-21.572082	-0.000812	-8.124218	-2.752560	-0.065535
   9	4.0000e-03	0.3593	-21.535673	0.000090	0.902691	0.305840	0.007282
  10	4.5000e-03	0.3866	-21.317222	0.000542	5.416145	1.835040	0.043690
  11	5.0000e-03	0.4203	-20.880319	0.001083	10.832291	3.670079	0.087381
  12	5.5000e-03	0.4749	-20.953136	-0.000181	-1.805382	-0.611680	-0.014563
  13	6.0000e-03	0.5069	-20.953136	0.000000	0.000000	0.000000	0.000000
  14	6.5000e-03	0.5422	-20.297782	0.001625	16.248436	5.505119	0.131071
  15	7.0000e-03	0.5920	-21.135179	-0.002076	-20.761891	-7.034319	-0.167479
  16	7.5000e-03	0.6305	-20.734685	0.000993	9.929600	3.364240	0.080099
  17	8.0000e-03	0.6625	-20.443416	0.000722	7.221527	2.446720	0.058254
  18	8.5000e-03	0.7139	-19.897287	0.001354	13.540364	4.587599	0.109226
  19	9.0000e-03	0.7331	-20.297782	-0.000993	-9.929600	-3.364240	-0.080099
  20	9.5000e-03	0.7668	-19.715244	0.001444	14.443054	4.893439	0.116507
  21	1.0000e-02	0.8326	-20.115739	-0.000993	-9.929600	-3.364240	-0.080099
  22	1.0500e-02	0.8984	-20.006513	0.000271	2.708073	0.917520	0.021845
  23	1.1000e-02	0.9192	-19.933696	0.000181	1.805382	0.611680	0.014563
  24	1.1500e-02	0.9192	-19.314750	-0.001535	-15.345745	-5.199279	0.123789
  25	1.2000e-02	0.9802	-19.460384	-0.000361	-3.610764	-1.223360	-0.029127
  26	1.2500e-02	1.0219	-19.096299	0.000903	9.026909	3.058400	0.072817
  27	1.3000e-02	1.0636	-19.606019	-0.001264	-12.637673	-4.281759	-0.101944
  28	1.3500e-02	1.1085	-19.314750	0.000722	7.221527	2.446720	0.058254
  29	1.4000e-02	1.1518	-19.023481	0.000722	7.221527	2.446720	0.058254
  30	1.4500e-02	1.1823	-18.695804	0.000812	8.124218	2.752560	0.065535
  31	1.5000e-02	1.2337	-18.987073	-0.000722	-7.221527	-2.446720	-0.058254
  32	1.5500e-02	1.2497	-18.732213	0.000632	6.318836	2.140880	0.050972
  33	1.6000e-02	1.3074	-18.186084	0.001354	13.540364	4.587599	0.109226
  34	1.6500e-02	1.3508	-18.477353	-0.000722	-7.221527	-2.446720	-0.058254
  35	1.7000e-02	1.4021	-18.368127	0.000271	2.708073	0.917520	0.021845
  36	1.7500e-02	1.4711	-18.440944	-0.000181	-1.805382	-0.611680	-0.014563
  37	1.8000e-02	1.4615	-18.331719	-0.000271	-2.708073	-0.917520	0.021845
  38	1.8500e-02	1.5016	-17.894816	0.001083	10.832291	3.670079	0.087381
  39	1.9000e-02	1.5641	-17.931224	-0.000090	-0.902691	-0.305840	-0.007282
  40	1.9500e-02	1.6058	-17.821998	0.000271	2.708073	0.917520	0.021845
  41	2.0000e-02	1.6443	-17.676364	0.000361	3.610764	1.223360	0.029127
  42	2.0500e-02	1.6492	-17.275870	0.000993	9.929600	3.364240	0.080099
  43	2.1000e-02	1.7053	-17.348687	-0.000181	-1.805382	-0.611680	-0.014563
  44	2.1500e-02	1.7534	-17.530730	-0.000451	-4.513455	-1.529200	-0.036409
  45	2.2000e-02	1.7695	-17.166644	0.000903	9.026909	3.058400	0.072817
  46	2.2500e-02	1.8208	-17.239461	-0.000181	-1.805382	-0.611680	-0.014563
  47	2.3000e-02	1.8625	-16.802558	0.001083	10.832291	3.670079	0.087381
  48	2.3500e-02	1.8978	-16.911784	-0.000271	-2.708073	-0.917520	-0.021845
  49	2.4000e-02	1.9668	-16.766150	0.000361	3.610764	1.223360	0.029127
  50	2.4500e-02	1.9941	-16.402064	0.000903	9.026909	3.058400	0.072817
  51	2.5000e-02	2.0278	-16.729741	-0.000812	-8.124218	-2.752560	-0.065535
  52	2.5500e-02	2.0646	-16.292838	0.001083	10.832291	3.670079	0.087381
  53	2.6000e-02	2.1080	-16.584107	-0.000722	-7.221527	-2.446720	-0.058254
  54	2.6500e-02	2.1449	-16.074387	0.001264	12.637673	4.281759	0.101944
  55	2.7000e-02	2.2074	-16.110795	-0.000090	-0.902691	-0.305840	-0.007282
  56	2.7500e-02	2.2556	-15.783118	0.000812	8.124218	2.752560	0.065535
  57	2.8000e-02	2.2716	-16.001570	-0.000542	-5.416145	-1.835040	-0.043690
  58	2.8500e-02	2.2924	-15.710301	0.000722	7.221527	2.446720	0.058254
  59	2.9000e-02	2.3566	-15.928752	-0.000542	-5.416145	-1.835040	-0.043690
  60	2.9500e-02	2.3823	-15.491849	0.001083	10.832291	3.670079	0.087381
  61	3.0000e-02	2.4320	-15.528258	-0.000090	-0.902691	-0.305840	-0.007282
  62	3.0500e-02	2.4545	-15.236989	0.000722	7.221527	2.446720	0.058254
  63	3.1000e-02	2.4769	-15.236989	0.000000	0.000000	0.000000	0.000000
  64	3.1500e-02	2.5539	-14.800087	0.001083	10.832291	3.670079	0.087381
  65	3.2000e-02	2.5716	-15.236989	-0.001083	-10.832291	-3.670079	-0.087381
  66	3.2500e-02	2.6358	-14.763678	0.001173	11.734982	3.975919	0.094662
  67	3.3000e-02	2.6727	-14.800087	-0.000090	-0.902691	-0.305840	-0.007282
  68	3.3500e-02	2.7160	-14.545226	0.000632	6.318836	2.140880	0.050972
  69	3.4000e-02	2.7432	-14.690861	-0.000361	-3.610764	-1.223360	-0.029127
  70	3.4500e-02	2.7721	-14.326775	0.000903	9.026909	3.058400	0.072817
  71	3.5000e-02	2.8363	-13.926281	0.000993	9.929600	3.364240	0.080099
  72	3.5500e-02	2.8844	-14.326775	-0.000993	-9.929600	-3.364240	-0.080099
  73	3.6000e-02	2.9261	-13.926281	0.000993	9.929600	3.364240	0.080099
  74	3.6500e-02	2.9550	-14.181141	-0.000632	-6.318836	-2.140880	-0.050972
  75	3.7000e-02	2.9999	-13.926281	0.000632	6.318836	2.140880	0.050972
  76	3.7500e-02	3.0288	-13.926281	0.000000	0.000000	0.000000	0.000000
  77	3.8000e-02	3.0849	-13.671421	0.000632	6.318836	2.140880	0.050972
  78	3.8500e-02	3.0914	-13.707829	-0.000090	-0.902691	-0.305840	-0.007282
  79	3.9000e-02	3.1587	-13.343743	0.000903	9.026909	3.058400	0.072817
  80	3.9500e-02	3.1732	-13.307335	0.000090	0.902691	0.305840	0.007282
  81	4.0000e-02	3.2069	-13.161701	0.000361	3.610764	1.223360	0.029127
  82	4.0500e-02	3.2502	-13.125292	0.000090	0.902691	0.305840	0.007282
  83	4.1000e-02	3.3095	-12.469938	0.001625	16.248436	5.505119	0.131071
  84	4.1500e-02	3.3416	-13.161701	-0.001715	-17.151127	-5.810959	-0.138353
  85	4.2000e-02	3.3753	-12.469938	0.001715	17.151127	5.810959	0.138353
  86	4.2500e-02	3.4250	-12.979658	-0.001264	-12.637673	-4.281759	-0.101944
  87	4.3000e-02	3.4411	-12.651980	0.000812	8.124218	2.752560	0.065535
  88	4.3500e-02	3.5052	-12.506346	0.000361	3.610764	1.223360	0.029127
  89	4.4000e-02	3.5566	-12.724798	-0.000542	-5.416145	-1.835040	-0.043690
  90	4.4500e-02	3.5839	-12.542755	0.000451	4.513455	1.529200	0.036409
  91	4.5000e-02	3.6127	-11.923809	0.001535	15.345745	5.199279	0.123789
  92	4.5500e-02	3.6641	-12.105852	-0.000451	-4.513455	-1.529200	-0.036409
  93	4.6000e-02	3.7042	-12.324303	-0.000542	-5.416145	-1.835040	-0.043690
  94	4.6500e-02	3.7539	-11.778175	0.001354	13.540364	4.587599	0.109226
  95	4.7000e-02	3.7876	-12.142260	-0.000903	-9.026909	-3.058400	-0.072817
  96	4.7500e-02	3.8357	-11.741766	0.000993	9.929600	3.364240	0.080099
  97	4.8000e-02	3.8646	-11.668949	0.000181	1.805382	0.611680	0.014563
  98	4.8500e-02	3.9079	-11.450497	0.000542	5.416145	1.835040	0.043690
  99	4.9000e-02	3.9496	-11.159229	0.000722	7.221527	2.446720	0.058254
 100	4.9500e-02	3.9689	-11.414089	-0.000632	-6.318836	-2.140880	-0.050972
 101	5.0000e-02	4.0138	-11.195637	0.000542	5.416145	1.835040	0.043690
 102	5.0500e-02	4.0603	-11.268455	-0.000181	-1.805382	-0.611680	-0.014563
 103	5.1000e-02	4.0908	-10.904369	0.000903	9.026909	3.058400	0.072817
 104	5.1500e-02	4.1437	-10.758734	0.000361	3.610764	1.223360	0.029127
 105	5.2000e-02	4.2095	-10.904369	-0.000361	-3.610764	-1.223360	-0.029127
 106	5.2500e-02	4.2544	-10.722326	0.000451	4.513455	1.529200	0.036409
 107	5.3000e-02	4.2721	-10.722326	0.000000	0.000000	0.000000	0.000000
 108	5.3500e-02	4.2849	-10.358240	0.000903	9.026909	3.058400	0.072817
 109	5.4000e-02	4.3266	-10.576692	-0.000542	-5.416145	-1.835040	-0.043690
 110	5.4500e-02	4.3796	-9.994154	0.001444	14.443054	4.893439	0.116507
 111	5.5000e-02	4.4068	-10.467466	-0.001173	-11.734982	-3.975919	-0.094662
 112	5.5500e-02	4.4758	-9.666477	0.001986	19.859200	6.728479	0.160198
 113	5.6000e-02	4.5127	-10.249014	-0.001444	-14.443054	-4.893439	-0.116507
 114	5.6500e-02	4.5400	-10.030563	0.000542	5.416145	1.835040	0.043690
 115	5.7000e-02	4.5721	-9.448026	0.001444	14.443054	4.893439	0.116507
 116	5.7500e-02	4.6250	-9.593660	-0.000361	-3.610764	-1.223360	-0.029127
 117	5.8000e-02	4.6539	-9.448026	0.000361	3.610764	1.223360	0.029127
 118	5.8500e-02	4.7084	-9.375209	0.000181	1.805382	0.611680	0.014563
 119	5.9000e-02	4.7614	-9.593660	-0.000542	-5.416145	-1.835040	-0.043690
 120	5.9500e-02	4.7918	-9.120349	0.001173	11.734982	3.975919	0.094662
 121	6.0000e-02	4.8127	-9.193166	-0.000181	-1.805382	-0.611680	-0.014563
 122	6.0500e-02	4.8769	-9.193166	0.000000	0.000000	0.000000	0.000000
 123	6.1000e-02	4.9009	-8.719854	0.001173	11.734982	3.975919	0.094662
 124	6.1500e-02	4.9362	-9.047531	-0.000812	-8.124218	-2.752560	-0.065535
 125	6.2000e-02	5.0020	-8.719854	0.000812	8.124218	2.752560	0.065535
 126	6.2500e-02	5.0485	-8.501403	0.000542	5.416145	1.835040	0.043690
 127	6.3000e-02	5.0774	-8.647037	-0.000361	-3.610764	-1.223360	-0.029127
 128	6.3500e-02	5.0790	-8.574220	0.000181	1.805382	0.611680	0.014563
 129	6.4000e-02	5.1368	-8.355768	0.000542	5.416145	1.835040	0.043690
 130	6.4500e-02	5.1656	-8.392177	-0.000090	-0.902691	-0.305840	-0.007282
 131	6.5000e-02	5.2346	-8.064500	0.000812	8.124218	2.752560	0.065535
 132	6.5500e-02	5.2507	-8.028091	0.000090	0.902691	0.305840	0.007282
 133	6.6000e-02	5.3244	-7.773231	0.000632	6.318836	2.140880	0.050972
 134	6.6500e-02	5.3549	-7.882457	-0.000271	-2.708073	-0.917520	-0.021845
 135	6.7000e-02	5.3822	-7.591188	0.000722	7.221527	2.446720	0.058254
 136	6.7500e-02	5.4143	-7.299920	0.000722	7.221527	2.446720	0.058254
 137	6.8000e-02	5.4544	-7.882457	-0.001444	-14.443054	-4.893439	-0.116507
 138	6.8500e-02	5.5137	-7.336328	0.001354	13.540364	4.587599	0.109226
 139	6.9000e-02	5.5522	-7.045060	0.000722	7.221527	2.446720	0.058254
 140	6.9500e-02	5.5827	-7.700414	-0.001625	-16.248436	-5.505119	-0.131071
 141	7.0000e-02	5.6437	-7.008651	0.001715	17.151127	5.810959	0.138353
 142	7.0500e-02	5.6758	-7.190694	-0.000451	-4.513455	-1.529200	-0.036409
 143	7.1000e-02	5.7143	-6.717382	0.001173	11.734982	3.975919	0.094662
 144	7.1500e-02	5.7432	-6.935834	-0.000542	-5.416145	-1.835040	-0.043690
 145	7.2000e-02	5.7801	-6.753791	0.000451	4.513455	1.529200	0.036409
 146	7.2500e-02	5.8202	-6.899425	-0.000361	-3.610764	-1.223360	-0.029127
 147	7.3000e-02	5.8474	-6.498931	0.000993	9.929600	3.364240	0.080099
 148	7.3500e-02	5.8956	-6.535340	-0.000090	-0.902691	-0.305840	-0.007282
 149	7.4000e-02	5.9453	-6.134845	0.000993	9.929600	3.364240	0.080099
 150	7.4500e-02	5.9806	-6.244071	-0.000271	-2.708073	-0.917520	-0.021845
 151	7.5000e-02	6.0159	-6.062028	0.000451	4.513455	1.529200	0.036409
 152	7.5500e-02	6.0528	-5.734351	0.000812	8.124218	2.752560	0.065535
 153	7.6000e-02	6.1266	-5.879985	-0.000361	-3.610764	-1.223360	-0.029127
 154	7.6500e-02	6.1394	-5.989211	-0.000271	-2.708073	-0.917520	-0.021845
 155	7.7000e-02	6.2036	-5.552308	0.001083	10.832291	3.670079	0.087381
 156	7.7500e-02	6.2164	-6.062028	-0.001264	-12.637673	-4.281759	-0.101944
 157	7.8000e-02	6.2790	-5.661534	0.000993	9.929600	3.364240	0.080099
 158	7.8500e-02	6.2854	-5.770759	-0.000271	-2.708073	-0.917520	-0.021845
 159	7.9000e-02	6.3528	-5.115405	0.001625	16.248436	5.505119	0.131071
 160	7.9500e-02	6.4185	-5.443082	-0.000812	-8.124218	-2.752560	-0.065535
 161	8.0000e-02	6.4474	-5.078996	0.000903	9.026909	3.058400	0.072817
 162	8.0500e-02	6.4635	-4.496459	0.001444	14.443054	4.893439	0.116507
 163	8.1000e-02	6.4570	-5.078996	0.001444	14.443054	4.893439	-0.116507
 164	8.1500e-02	6.5324	-4.896954	0.000451	4.513455	1.529200	0.036409
 165	8.2000e-02	6.5934	-4.751319	0.000361	3.610764	1.223360	0.029127
 166	8.2500e-02	6.6143	-4.496459	0.000632	6.318836	2.140880	0.050972
 167	8.3000e-02	6.6528	-4.460051	0.000090	0.902691	0.305840	0.007282
 168	8.3500e-02	6.7073	-4.460051	0.000000	0.000000	0.000000	0.000000
 169	8.4000e-02	6.7634	-4.496459	-0.000090	-0.902691	-0.305840	-0.007282
 170	8.4500e-02	6.7715	-4.460051	0.000090	0.902691	0.305840	0.007282
 171	8.5000e-02	6.8148	-4.023148	0.001083	10.832291	3.670079	0.087381
 172	8.5500e-02	6.8629	-4.168782	-0.000361	-3.610764	-1.223360	-0.029127
 173	8.6000e-02	6.9030	-3.986739	0.000451	4.513455	1.529200	0.036409
 174	8.6500e-02	6.9383	-3.440611	0.001354	13.540364	4.587599	0.109226
 175	8.7000e-02	6.9929	-3.731879	-0.000722	-7.221527	-2.446720	-0.058254
 176	8.7500e-02	7.0330	-3.586245	0.000361	3.610764	1.223360	0.029127
 177	8.8000e-02	7.0586	-3.804696	-0.000542	-5.416145	-1.835040	-0.043690
 178	8.8500e-02	7.0907	-3.477019	0.000812	8.124218	2.752560	0.065535
 179	8.9000e-02	7.1436	-3.404202	0.000181	1.805382	0.611680	0.014563
 180	8.9500e-02	7.1789	-3.185750	0.000542	5.416145	1.835040	0.043690
 181	9.0000e-02	7.2303	-3.149342	0.000090	0.902691	0.305840	0.007282
 182	9.0500e-02	7.2640	-3.149342	0.000000	0.000000	0.000000	0.000000
 183	9.1000e-02	7.2993	-2.930890	0.000542	5.416145	1.835040	0.043690
 184	9.1500e-02	7.3426	-2.967299	-0.000090	-0.902691	-0.305840	-0.007282
 185	9.2000e-02	7.3859	-3.294976	-0.000812	-8.124218	-2.752560	-0.065535
 186	9.2500e-02	7.4276	-2.093493	0.002979	29.788800	10.092719	0.240297
 187	9.3000e-02	7.4629	-2.603213	-0.001264	-12.637673	-4.281759	-0.101944
 188	9.3500e-02	7.5222	-2.785256	-0.000451	-4.513455	-1.529200	-0.036409
 189	9.4000e-02	7.5463	-2.530396	0.000632	6.318836	2.140880	0.050972
 190	9.4500e-02	7.5495	-2.348353	0.000451	4.513455	1.529200	0.036409
 191	9.5000e-02	7.6201	-2.421170	-0.000181	-1.805382	-0.611680	-0.014563
 192	9.5500e-02	7.6329	-2.129902	0.000722	7.221527	2.446720	0.058254
 193	9.6000e-02	7.6827	-2.202719	-0.000181	-1.805382	-0.611680	-0.014563
 194	9.6500e-02	7.7372	-1.875042	0.000812	8.124218	2.752560	0.065535
 195	9.7000e-02	7.7709	-1.401730	0.001173	11.734982	3.975919	0.094662
 196	9.7500e-02	7.8415	-1.729407	-0.000812	-8.124218	-2.752560	-0.065535
 197	9.8000e-02	7.8639	-1.692999	0.000090	0.902691	0.305840	0.007282
 198	9.8500e-02	7.9089	-1.474547	0.000542	5.416145	1.835040	0.043690
 199	9.9000e-02	7.9458	-1.401730	0.000181	1.805382	0.611680	0.014563
 200	9.9500e-02	7.9859	-1.547365	-0.000361	-3.610764	-1.223360	-0.029127
 201	1.0000e-01	8.0372	-1.037644	0.001264	12.637673	4.281759	0.101944
 202	1.0050e-01	8.0549	-1.328913	-0.000722	-7.221527	-2.446720	-0.058254
 203	1.0100e-01	8.0837	-1.292504	0.000090	0.902691	0.305840	0.007282
 204	1.0150e-01	8.1078	-1.328913	-0.000090	-0.902691	-0.305840	-0.007282
 205	1.0200e-01	8.1720	-1.001236	0.000812	8.124218	2.752560	0.065535
 206	1.0250e-01	8.2313	-0.455107	0.001354	13.540364	4.587599	0.109226
 207	1.0300e-01	8.2570	-0.746376	-0.000722	-7.221527	-2.446720	-0.058254
 208	1.0350e-01	8.3212	-0.637150	0.000271	2.708073	0.917520	0.021845
 209	1.0400e-01	8.3516	-0.527924	0.000271	2.708073	0.917520	0.021845
 210	1.0450e-01	8.3869	-0.527924	0.000000	0.000000	0.000000	0.000000
 211	1.0500e-01	8.4222	-0.564333	-0.000090	-0.902691	-0.305840	-0.007282
 212	1.0550e-01	8.4800	-0.527924	0.000090	0.902691	0.305840	0.007282
 213	1.0600e-01	8.4944	-0.127430	0.000993	9.929600	3.364240	0.080099
 214	1.0650e-01	8.5281	-0.018204	0.000271	2.708073	0.917520	0.021845
 215	1.0700e-01	8.5682	0.018204	0.000090	0.902691	0.305840	0.007282
 216	1.0750e-01	8.6099	-0.018204	-0.000090	-0.902691	-0.305840	-0.007282
 217	1.0800e-01	8.6420	-0.200247	-0.000451	-4.513455	-1.529200	-0.036409
 218	1.0850e-01	8.7062	0.163839	0.000903	9.026909	3.058400	0.072817
 219	1.0900e-01	8.7431	0.491516	0.000812	8.124218	2.752560	0.065535
 220	1.0950e-01	8.7864	0.491516	0.000000	0.000000	0.000000	0.000000
 221	1.1000e-01	8.8329	0.491516	0.000000	0.000000	0.000000	0.000000
 222	1.1050e-01	8.8586	0.673559	0.000451	4.513455	1.529200	0.036409
 223	1.1100e-01	8.8858	0.928419	0.000632	6.318836	2.140880	0.050972
 224	1.1150e-01	8.9468	0.964827	0.000090	0.902691	0.305840	0.007282
 225	1.1200e-01	8.9837	0.928419	-0.000090	-0.902691	-0.305840	-0.007282
 226	1.1250e-01	9.0350	1.001236	0.000181	1.805382	0.611680	0.014563
 227	1.1300e-01	9.0591	1.510956	0.001264	12.637673	4.281759	0.101944
 228	1.1350e-01	9.0928	0.855602	-0.001625	-16.248436	-5.505119	-0.131071
 229	1.1400e-01	9.1361	1.583773	0.001805	18.053818	6.116799	0.145634
 230	1.1450e-01	9.1890	1.365322	-0.000542	-5.416145	-1.835040	-0.043690
 231	1.1500e-01	9.2259	1.365322	0.000000	0.000000	0.000000	0.000000
 232	1.1550e-01	9.2580	1.583773	0.000542	5.416145	1.835040	0.043690
 233	1.1600e-01	9.3270	1.729407	0.000361	3.610764	1.223360	0.029127
 234	1.1650e-01	9.3334	1.947859	0.000542	5.416145	1.835040	0.043690
 235	1.1700e-01	9.3751	1.947859	0.000000	0.000000	0.000000	0.000000
 236	1.1750e-01	9.4329	1.947859	0.000000	0.000000	0.000000	0.000000
 237	1.1800e-01	9.4586	1.838633	-0.000271	-2.708073	-0.917520	-0.021845
 238	1.1850e-01	9.4826	2.384762	0.001354	13.540364	4.587599	0.109226
 239	1.1900e-01	9.5211	2.057085	-0.000812	-8.124218	-2.752560	-0.065535
 240	1.1950e-01	9.5965	2.129902	0.000181	1.805382	0.611680	0.014563
 241	1.2000e-01	9.6142	2.202719	0.000181	1.805382	0.611680	0.014563
 242	1.2050e-01	9.6799	2.311945	0.000271	2.708073	0.917520	0.021845
 243	1.2100e-01	9.7200	2.639622	0.000812	8.124218	2.752560	0.065535
 244	1.2150e-01	9.7200	2.603213	0.000090	0.902691	0.305840	-0.007282
 245	1.2200e-01	9.7826	2.930890	0.000812	8.124218	2.752560	0.065535
 246	1.2250e-01	9.8211	2.530396	-0.000993	-9.929600	-3.364240	-0.080099
 247	1.2300e-01	9.8692	2.894482	0.000903	9.026909	3.058400	0.072817
 248	1.2350e-01	9.9029	2.785256	-0.000271	-2.708073	-0.917520	-0.021845
 249	1.2400e-01	9.9430	3.185750	0.000993	9.929600	3.364240	0.080099
 250	1.2450e-01	9.9559	2.967299	-0.000542	-5.416145	-1.835040	-0.043690
 251	1.2500e-01	10.0265	3.294976	0.000812	8.124218	2.752560	0.065535
 252	1.2550e-01	10.0329	3.294976	0.000000	0.000000	0.000000	0.000000
 253	1.2600e-01	10.0986	3.513428	0.000542	5.416145	1.835040	0.043690
 254	1.2650e-01	10.1371	3.003708	-0.001264	-12.637673	-4.281759	-0.101944
 255	1.2700e-01	10.1692	3.768288	0.001896	18.956509	6.422639	0.152916
 256	1.2750e-01	10.2366	3.695471	-0.000181	-1.805382	-0.611680	-0.014563
 257	1.2800e-01	10.2735	4.023148	0.000812	8.124218	2.752560	0.065535
 258	1.2850e-01	10.3216	4.423642	0.000993	9.929600	3.364240	0.080099
