»»»»»»»»»»»»»»»»»»»»»»»»»»»»»»»»»»»» Hysteresis ««««««««««««««««««««««««««««««««««««
»»»  Executed Version:	5.48.1
»»»  Vision Version:	5.48.4 (R)
»»»  Vision Compiled:	9/18/24
»»»  Driver Version:	5.47.0
»»»  Windows Version:	Windows 8 or 8.1
»»»  Processor Information:	x86 (AMD or Intel) - 32 Processors
»»»  Tester Name:	PMF21124-494 (100V)
»»»  Tester S/N:	PMF21124-494
»»»  Internal Amp Type:	100V RevK 270k
»»»  Internal Amp S/N:	iAB2-596/K     
»»»  Execution Count:	1
»»»»»»»»»»»»»»»»»»»»»»»»»»»»»»»»»»»»»»»»»»««««««««««««««««««««««««««««««««««««««««««

Stored:	10/10/2025 - 11:15:43
Configured:	10/10/25 10:37:25 AM
Executed:	10/10/25 11:15:12 AM

»»»»»»»»»»»»»»»»»»»»»»»»»»»»»»»»»»» Sample Info ««««««««««««««««««««««««««««««««««««
Sample Name:	Int. Ref. Ferroelectric
Lot Name:	N/A
Wafer Name:	N/A
Die Row/Column:	0/0
Capacitor Number:	0
Sample Area (cm2):	1.00e-04
Sample Thickness (microns):	3.00e-01

Amplifier:	Internal

»»»»»»»»»»»»»»»»»»»»»»»»»»»»»»»»»»» Tester Info «««««««««««««««««««««««««««««««««««
Tester Name:	PMF21124-494 (100V)
Tester Serial Number:	PMF21124-494
Return Signal Amp. Level:	0.02 [Index: 2]

»»»»»»»»»»»»»»»»»»»»»»»»»»»»»»»» Hysteresis Info ««««««««««««««««««««««««««««««««««
Task Name:	Hyst-170
Volts:	20.00
Field:	666.67 (kV/cm)
DCBias:	0.00
DCField:	0.00 (kV/cm)
Hysteresis Period (ms):	5.00e-01
Preset:	Enabled
Preset Delay (ms):	1.00e+03
Profile:	Standard Monopolar

»»»»»»»»»»»»»»»»»»»»»»»»»»»»»»»»»»»»»» Data «««««««««««««««««««««««««««««««««««««««
Points:	1001

Valid Data

Point	Time (ms)	Drive Voltage	Measured Polarization (uC/cm2)	Capacitance (uF)	Normalized Capacitance (uF/cm2)	Dielectric Constant	Instantaneous Current (mA)
   1	0.0000e+00	0.0144	-31.893913	0.000271	2.706408	0.916956	0.021845
   2	5.0000e-04	0.0321	-31.784688	0.000271	2.706408	0.916956	0.021845
   3	1.0000e-03	0.0995	-31.711871	0.000180	1.804272	0.611304	0.014563
   4	1.5000e-03	0.1348	-31.566236	0.000361	3.608544	1.222608	0.029127
   5	2.0000e-03	0.1973	-31.202150	0.000902	9.021360	3.056520	0.072817
   6	2.5000e-03	0.2406	-31.566236	-0.000902	-9.021360	-3.056520	-0.072817
   7	3.0000e-03	0.2888	-30.910882	0.001624	16.238449	5.501735	0.131071
   8	3.5000e-03	0.3385	-31.092925	-0.000451	-4.510680	-1.528260	-0.036409
   9	4.0000e-03	0.3529	-30.838065	0.000631	6.314952	2.139564	0.050972
  10	4.5000e-03	0.3882	-30.583205	0.000631	6.314952	2.139564	0.050972
  11	5.0000e-03	0.4123	-30.583205	0.000000	0.000000	0.000000	0.000000
  12	5.5000e-03	0.4604	-30.182710	0.000992	9.923496	3.362172	0.080099
  13	6.0000e-03	0.5118	-30.401162	-0.000541	-5.412816	-1.833912	-0.043690
  14	6.5000e-03	0.5631	-29.818625	0.001443	14.434177	4.890431	0.116507
  15	7.0000e-03	0.5904	-29.672990	0.000361	3.608544	1.222608	0.029127
  16	7.5000e-03	0.6080	-29.308904	0.000902	9.021360	3.056520	0.072817
  17	8.0000e-03	0.6898	-29.527356	-0.000541	-5.412816	-1.833912	-0.043690
  18	8.5000e-03	0.7171	-29.163270	0.000902	9.021360	3.056520	0.072817
  19	9.0000e-03	0.7668	-29.126862	0.000090	0.902136	0.305652	0.007282
  20	9.5000e-03	0.7973	-28.653550	0.001173	11.727769	3.973476	0.094662
  21	1.0000e-02	0.8390	-28.908410	-0.000631	-6.314952	-2.139564	-0.050972
  22	1.0500e-02	0.8775	-28.398690	0.001263	12.629905	4.279128	0.101944
  23	1.1000e-02	0.8968	-28.507916	-0.000271	-2.706408	-0.916956	-0.021845
  24	1.1500e-02	0.9593	-28.726367	-0.000541	-5.412816	-1.833912	-0.043690
  25	1.2000e-02	1.0123	-27.852561	0.002165	21.651265	7.335647	0.174761
  26	1.2500e-02	1.0508	-28.143830	-0.000722	-7.217088	-2.445216	-0.058254
  27	1.3000e-02	1.0925	-27.597701	0.001353	13.532041	4.584779	0.109226
  28	1.3500e-02	1.1149	-27.561293	0.000090	0.902136	0.305652	0.007282
  29	1.4000e-02	1.1567	-27.452067	0.000271	2.706408	0.916956	0.021845
  30	1.4500e-02	1.1919	-27.051573	0.000992	9.923496	3.362172	0.080099
  31	1.5000e-02	1.2337	-26.978756	0.000180	1.804272	0.611304	0.014563
  32	1.5500e-02	1.2593	-27.051573	-0.000180	-1.804272	-0.611304	-0.014563
  33	1.6000e-02	1.3074	-27.124390	-0.000180	-1.804272	-0.611304	-0.014563
  34	1.6500e-02	1.3427	-26.796713	0.000812	8.119224	2.750868	0.065535
  35	1.7000e-02	1.3957	-26.505444	0.000722	7.217088	2.445216	0.058254
  36	1.7500e-02	1.4358	-26.541853	-0.000090	-0.902136	-0.305652	-0.007282
  37	1.8000e-02	1.4711	-26.432627	0.000271	2.706408	0.916956	0.021845
  38	1.8500e-02	1.5240	-25.959315	0.001173	11.727769	3.973476	0.094662
  39	1.9000e-02	1.5577	-25.777272	0.000451	4.510680	1.528260	0.036409
  40	1.9500e-02	1.5673	-25.995724	-0.000541	-5.412816	-1.833912	-0.043690
  41	2.0000e-02	1.6684	-25.413187	0.001443	14.434177	4.890431	0.116507
  42	2.0500e-02	1.6459	-25.158327	-0.000631	-6.314952	-2.139564	0.050972
  43	2.1000e-02	1.7246	-25.340370	-0.000451	-4.510680	-1.528260	-0.036409
  44	2.1500e-02	1.7631	-25.049101	0.000722	7.217088	2.445216	0.058254
  45	2.2000e-02	1.7791	-25.049101	0.000000	0.000000	0.000000	0.000000
  46	2.2500e-02	1.8417	-24.466564	0.001443	14.434177	4.890431	0.116507
  47	2.3000e-02	1.8962	-24.757832	-0.000722	-7.217088	-2.445216	-0.058254
  48	2.3500e-02	1.9187	-24.539381	0.000541	5.412816	1.833912	0.043690
  49	2.4000e-02	1.9459	-24.211704	0.000812	8.119224	2.750868	0.065535
  50	2.4500e-02	2.0037	-24.211704	0.000000	0.000000	0.000000	0.000000
  51	2.5000e-02	2.0646	-24.029661	0.000451	4.510680	1.528260	0.036409
  52	2.5500e-02	2.0614	-23.519941	-0.001263	-12.629905	-4.279128	0.101944
  53	2.6000e-02	2.1320	-23.738392	-0.000541	-5.412816	-1.833912	-0.043690
  54	2.6500e-02	2.1673	-23.665575	0.000180	1.804272	0.611304	0.014563
  55	2.7000e-02	2.1802	-23.519941	0.000361	3.608544	1.222608	0.029127
  56	2.7500e-02	2.2395	-23.374306	0.000361	3.608544	1.222608	0.029127
  57	2.8000e-02	2.2957	-23.046629	0.000812	8.119224	2.750868	0.065535
  58	2.8500e-02	2.3358	-22.864586	0.000451	4.510680	1.528260	0.036409
  59	2.9000e-02	2.3534	-22.682543	0.000451	4.510680	1.528260	0.036409
  60	2.9500e-02	2.4128	-22.682543	0.000000	0.000000	0.000000	0.000000
  61	3.0000e-02	2.4432	-22.609726	0.000180	1.804272	0.611304	0.014563
  62	3.0500e-02	2.4850	-22.136415	0.001173	11.727769	3.973476	0.094662
  63	3.1000e-02	2.5042	-22.209232	-0.000180	-1.804272	-0.611304	-0.014563
  64	3.1500e-02	2.5684	-21.735920	0.001173	11.727769	3.973476	0.094662
  65	3.2000e-02	2.6277	-21.772329	-0.000090	-0.902136	-0.305652	-0.007282
  66	3.2500e-02	2.6406	-21.772329	0.000000	0.000000	0.000000	0.000000
  67	3.3000e-02	2.6839	-21.262609	0.001263	12.629905	4.279128	0.101944
  68	3.3500e-02	2.7304	-21.335426	-0.000180	-1.804272	-0.611304	-0.014563
  69	3.4000e-02	2.7464	-21.153383	0.000451	4.510680	1.528260	0.036409
  70	3.4500e-02	2.8106	-21.080566	0.000180	1.804272	0.611304	0.014563
  71	3.5000e-02	2.8331	-21.080566	0.000000	0.000000	0.000000	0.000000
  72	3.5500e-02	2.8892	-20.789297	0.000722	7.217088	2.445216	0.058254
  73	3.6000e-02	2.9245	-20.825706	-0.000090	-0.902136	-0.305652	-0.007282
  74	3.6500e-02	2.9422	-20.425212	0.000992	9.923496	3.362172	0.080099
  75	3.7000e-02	2.9983	-20.243169	0.000451	4.510680	1.528260	0.036409
  76	3.7500e-02	3.0400	-20.243169	0.000000	0.000000	0.000000	0.000000
  77	3.8000e-02	3.0801	-20.170352	0.000180	1.804272	0.611304	0.014563
  78	3.8500e-02	3.1283	-19.769857	0.000992	9.923496	3.362172	0.080099
  79	3.9000e-02	3.1507	-20.024717	-0.000631	-6.314952	-2.139564	-0.050972
  80	3.9500e-02	3.2037	-19.551406	0.001173	11.727769	3.973476	0.094662
  81	4.0000e-02	3.2486	-19.405772	0.000361	3.608544	1.222608	0.029127
  82	4.0500e-02	3.2502	-19.296546	0.000271	2.706408	0.916956	0.021845
  83	4.1000e-02	3.3304	-18.859643	0.001083	10.825633	3.667824	0.087381
  84	4.1500e-02	3.3384	-18.932460	-0.000180	-1.804272	-0.611304	-0.014563
  85	4.2000e-02	3.4186	-18.823234	0.000271	2.706408	0.916956	0.021845
  86	4.2500e-02	3.4298	-19.041686	-0.000541	-5.412816	-1.833912	-0.043690
  87	4.3000e-02	3.4908	-18.531966	0.001263	12.629905	4.279128	0.101944
  88	4.3500e-02	3.5421	-18.641191	-0.000271	-2.706408	-0.916956	-0.021845
  89	4.4000e-02	3.5550	-18.058654	0.001443	14.434177	4.890431	0.116507
  90	4.4500e-02	3.5871	-17.913020	0.000361	3.608544	1.222608	0.029127
  91	4.5000e-02	3.6288	-18.095063	-0.000451	-4.510680	-1.528260	-0.036409
  92	4.5500e-02	3.7122	-17.730977	0.000902	9.021360	3.056520	0.072817
  93	4.6000e-02	3.7234	-17.949428	-0.000541	-5.412816	-1.833912	-0.043690
  94	4.6500e-02	3.7491	-17.366891	0.001443	14.434177	4.890431	0.116507
  95	4.7000e-02	3.7892	-17.366891	0.000000	0.000000	0.000000	0.000000
  96	4.7500e-02	3.8534	-17.294074	0.000180	1.804272	0.611304	0.014563
  97	4.8000e-02	3.8486	-17.039214	-0.000631	-6.314952	-2.139564	0.050972
  98	4.8500e-02	3.9143	-17.112031	-0.000180	-1.804272	-0.611304	-0.014563
  99	4.9000e-02	3.9609	-16.274634	0.002075	20.749129	7.029995	0.167479
 100	4.9500e-02	4.0026	-16.784354	-0.001263	-12.629905	-4.279128	-0.101944
 101	5.0000e-02	4.0427	-16.311042	0.001173	11.727769	3.973476	0.094662
 102	5.0500e-02	4.0555	-16.493085	-0.000451	-4.510680	-1.528260	-0.036409
 103	5.1000e-02	4.1036	-15.983365	0.001263	12.629905	4.279128	0.101944
 104	5.1500e-02	4.1758	-16.311042	-0.000812	-8.119224	-2.750868	-0.065535
 105	5.2000e-02	4.1983	-15.728505	0.001443	14.434177	4.890431	0.116507
 106	5.2500e-02	4.2368	-15.910548	-0.000451	-4.510680	-1.528260	-0.036409
 107	5.3000e-02	4.2673	-15.546462	0.000902	9.021360	3.056520	0.072817
 108	5.3500e-02	4.3266	-15.364419	0.000451	4.510680	1.528260	0.036409
 109	5.4000e-02	4.3491	-15.328011	0.000090	0.902136	0.305652	0.007282
 110	5.4500e-02	4.3940	-15.255194	0.000180	1.804272	0.611304	0.014563
 111	5.5000e-02	4.4341	-15.073151	0.000451	4.510680	1.528260	0.036409
 112	5.5500e-02	4.4742	-14.781882	0.000722	7.217088	2.445216	0.058254
 113	5.6000e-02	4.4902	-14.781882	0.000000	0.000000	0.000000	0.000000
 114	5.6500e-02	4.5576	-14.709065	0.000180	1.804272	0.611304	0.014563
 115	5.7000e-02	4.5753	-14.017302	0.001714	17.140585	5.807387	0.138353
 116	5.7500e-02	4.6378	-14.090119	-0.000180	-1.804272	-0.611304	-0.014563
 117	5.8000e-02	4.6844	-14.417796	-0.000812	-8.119224	-2.750868	-0.065535
 118	5.8500e-02	4.7052	-13.944485	0.001173	11.727769	3.973476	0.094662
 119	5.9000e-02	4.7453	-13.798851	0.000361	3.608544	1.222608	0.029127
 120	5.9500e-02	4.7951	-13.871668	-0.000180	-1.804272	-0.611304	-0.014563
 121	6.0000e-02	4.8448	-13.653216	0.000541	5.412816	1.833912	0.043690
 122	6.0500e-02	4.8737	-13.434765	0.000541	5.412816	1.833912	0.043690
 123	6.1000e-02	4.9266	-13.689625	-0.000631	-6.314952	-2.139564	-0.050972
 124	6.1500e-02	4.9475	-13.143496	0.001353	13.532041	4.584779	0.109226
 125	6.2000e-02	5.0116	-12.633776	0.001263	12.629905	4.279128	0.101944
 126	6.2500e-02	5.0549	-13.252722	-0.001534	-15.336313	-5.196083	-0.123789
 127	6.3000e-02	5.0790	-12.597368	0.001624	16.238449	5.501735	0.131071
 128	6.3500e-02	5.1159	-12.706593	-0.000271	-2.706408	-0.916956	-0.021845
 129	6.4000e-02	5.1704	-12.560959	0.000361	3.608544	1.222608	0.029127
 130	6.4500e-02	5.1961	-12.269690	0.000722	7.217088	2.445216	0.058254
 131	6.5000e-02	5.2346	-12.014830	0.000631	6.314952	2.139564	0.050972
 132	6.5500e-02	5.2876	-12.124056	-0.000271	-2.706408	-0.916956	-0.021845
 133	6.6000e-02	5.3244	-11.942013	0.000451	4.510680	1.528260	0.036409
 134	6.6500e-02	5.3469	-11.905605	0.000090	0.902136	0.305652	0.007282
 135	6.7000e-02	5.3886	-11.723562	0.000451	4.510680	1.528260	0.036409
 136	6.7500e-02	5.4111	-11.650745	0.000180	1.804272	0.611304	0.014563
 137	6.8000e-02	5.4865	-11.213842	0.001083	10.825633	3.667824	0.087381
 138	6.8500e-02	5.5250	-11.432293	-0.000541	-5.412816	-1.833912	-0.043690
 139	6.9000e-02	5.5843	-10.740530	0.001714	17.140585	5.807387	0.138353
 140	6.9500e-02	5.6100	-10.849756	-0.000271	-2.706408	-0.916956	-0.021845
 141	7.0000e-02	5.6565	-10.704122	0.000361	3.608544	1.222608	0.029127
 142	7.0500e-02	5.6662	-10.813347	-0.000271	-2.706408	-0.916956	-0.021845
 143	7.1000e-02	5.6918	-10.194402	0.001534	15.336313	5.196083	0.123789
 144	7.1500e-02	5.7656	-10.740530	-0.001353	-13.532041	-4.584779	-0.109226
 145	7.2000e-02	5.8057	-9.611864	0.002797	27.966217	9.475211	0.225733
 146	7.2500e-02	5.8458	-10.194402	-0.001443	-14.434177	-4.890431	-0.116507
 147	7.3000e-02	5.9292	-10.012359	0.000451	4.510680	1.528260	0.036409
 148	7.3500e-02	5.9228	-9.684681	-0.000812	-8.119224	-2.750868	0.065535
 149	7.4000e-02	5.9469	-9.684681	0.000000	0.000000	0.000000	0.000000
 150	7.4500e-02	5.9758	-9.611864	0.000180	1.804272	0.611304	0.014563
 151	7.5000e-02	6.0383	-8.883693	0.001804	18.042721	6.113039	0.145634
 152	7.5500e-02	6.0816	-9.502639	-0.001534	-15.336313	-5.196083	-0.123789
 153	7.6000e-02	6.1025	-8.992919	0.001263	12.629905	4.279128	0.101944
 154	7.6500e-02	6.1570	-8.774467	0.000541	5.412816	1.833912	0.043690
 155	7.7000e-02	6.1875	-9.065736	-0.000722	-7.217088	-2.445216	-0.058254
 156	7.7500e-02	6.2292	-8.701650	0.000902	9.021360	3.056520	0.072817
 157	7.8000e-02	6.2629	-8.519607	0.000451	4.510680	1.528260	0.036409
 158	7.8500e-02	6.3367	-8.738058	-0.000541	-5.412816	-1.833912	-0.043690
 159	7.9000e-02	6.3479	-8.410381	0.000812	8.119224	2.750868	0.065535
 160	7.9500e-02	6.4266	-7.900661	0.001263	12.629905	4.279128	0.101944
 161	8.0000e-02	6.4474	-8.264747	-0.000902	-9.021360	-3.056520	-0.072817
 162	8.0500e-02	6.4923	-7.791435	0.001173	11.727769	3.973476	0.094662
 163	8.1000e-02	6.5004	-8.119113	-0.000812	-8.119224	-2.750868	-0.065535
 164	8.1500e-02	6.5629	-7.281715	0.002075	20.749129	7.029995	0.167479
 165	8.2000e-02	6.5758	-7.755027	-0.001173	-11.727769	-3.973476	-0.094662
 166	8.2500e-02	6.6463	-6.881221	0.002165	21.651265	7.335647	0.174761
 167	8.3000e-02	6.6736	-7.172490	-0.000722	-7.217088	-2.445216	-0.058254
 168	8.3500e-02	6.7137	-6.881221	0.000722	7.217088	2.445216	0.058254
 169	8.4000e-02	6.7634	-7.099673	-0.000541	-5.412816	-1.833912	-0.043690
 170	8.4500e-02	6.8084	-7.026855	0.000180	1.804272	0.611304	0.014563
 171	8.5000e-02	6.8164	-6.407910	0.001534	15.336313	5.196083	0.123789
 172	8.5500e-02	6.8709	-6.371501	0.000090	0.902136	0.305652	0.007282
 173	8.6000e-02	6.8982	-6.335092	0.000090	0.902136	0.305652	0.007282
 174	8.6500e-02	6.9608	-5.971007	0.000902	9.021360	3.056520	0.072817
 175	8.7000e-02	7.0009	-6.480727	-0.001263	-12.629905	-4.279128	-0.101944
 176	8.7500e-02	7.0330	-5.752555	0.001804	18.042721	6.113039	0.145634
 177	8.8000e-02	7.0923	-6.080232	-0.000812	-8.119224	-2.750868	-0.065535
 178	8.8500e-02	7.1084	-5.752555	0.000812	8.119224	2.750868	0.065535
 179	8.9000e-02	7.1549	-5.133609	0.001534	15.336313	5.196083	0.123789
 180	8.9500e-02	7.1709	-5.424878	-0.000722	-7.217088	-2.445216	-0.058254
 181	9.0000e-02	7.2543	-5.206427	0.000541	5.412816	1.833912	0.043690
 182	9.0500e-02	7.2624	-5.097201	0.000271	2.706408	0.916956	0.021845
 183	9.1000e-02	7.3281	-5.315652	-0.000541	-5.412816	-1.833912	-0.043690
 184	9.1500e-02	7.3795	-4.696706	0.001534	15.336313	5.196083	0.123789
 185	9.2000e-02	7.3843	-4.660298	0.000090	0.902136	0.305652	0.007282
 186	9.2500e-02	7.4533	-4.769524	-0.000271	-2.706408	-0.916956	-0.021845
 187	9.3000e-02	7.4645	-4.332621	0.001083	10.825633	3.667824	0.087381
 188	9.3500e-02	7.5094	-4.441846	-0.000271	-2.706408	-0.916956	-0.021845
 189	9.4000e-02	7.5319	-4.259804	0.000451	4.510680	1.528260	0.036409
 190	9.4500e-02	7.5928	-4.150578	0.000271	2.706408	0.916956	0.021845
 191	9.5000e-02	7.6410	-3.895718	0.000631	6.314952	2.139564	0.050972
 192	9.5500e-02	7.6698	-3.822901	0.000180	1.804272	0.611304	0.014563
 193	9.6000e-02	7.7115	-3.640858	0.000451	4.510680	1.528260	0.036409
 194	9.6500e-02	7.7998	-3.531632	0.000271	2.706408	0.916956	0.021845
 195	9.7000e-02	7.7886	-3.385998	-0.000361	-3.608544	-1.222608	0.029127
 196	9.7500e-02	7.8190	-3.313181	0.000180	1.804272	0.611304	0.014563
 197	9.8000e-02	7.8688	-2.876278	0.001083	10.825633	3.667824	0.087381
 198	9.8500e-02	7.9185	-2.657826	0.000541	5.412816	1.833912	0.043690
 199	9.9000e-02	7.9281	-3.094729	-0.001083	-10.825633	-3.667824	-0.087381
 200	9.9500e-02	7.9955	-2.512192	0.001443	14.434177	4.890431	0.116507
 201	1.0000e-01	8.0228	-2.585009	-0.000180	-1.804272	-0.611304	-0.014563
 202	1.0050e-01	8.0853	-2.366558	0.000541	5.412816	1.833912	0.043690
 203	1.0100e-01	8.1254	-2.548600	-0.000451	-4.510680	-1.528260	-0.036409
 204	1.0150e-01	8.1495	-1.929655	0.001534	15.336313	5.196083	0.123789
 205	1.0200e-01	8.1896	-2.002472	-0.000180	-1.804272	-0.611304	-0.014563
 206	1.0250e-01	8.2506	-1.929655	0.000180	1.804272	0.611304	0.014563
 207	1.0300e-01	8.2714	-1.711203	0.000541	5.412816	1.833912	0.043690
 208	1.0350e-01	8.3115	-1.784020	-0.000180	-1.804272	-0.611304	-0.014563
 209	1.0400e-01	8.3597	-1.492752	0.000722	7.217088	2.445216	0.058254
 210	1.0450e-01	8.3677	-1.674795	-0.000451	-4.510680	-1.528260	-0.036409
 211	1.0500e-01	8.4415	-0.873806	0.001985	19.846993	6.724343	0.160198
 212	1.0550e-01	8.4736	-1.347117	-0.001173	-11.727769	-3.973476	-0.094662
 213	1.0600e-01	8.5121	-0.910214	0.001083	10.825633	3.667824	0.087381
 214	1.0650e-01	8.5666	-0.983032	-0.000180	-1.804272	-0.611304	-0.014563
 215	1.0700e-01	8.6051	-0.837397	0.000361	3.608544	1.222608	0.029127
 216	1.0750e-01	8.6308	-0.291269	0.001353	13.532041	4.584779	0.109226
 217	1.0800e-01	8.6982	-0.509720	-0.000541	-5.412816	-1.833912	-0.043690
 218	1.0850e-01	8.7206	-0.364086	0.000361	3.608544	1.222608	0.029127
 219	1.0900e-01	8.7687	-0.291269	0.000180	1.804272	0.611304	0.014563
 220	1.0950e-01	8.8008	0.036409	0.000812	8.119224	2.750868	0.065535
 221	1.1000e-01	8.8313	0.182043	0.000361	3.608544	1.222608	0.029127
 222	1.1050e-01	8.8457	0.182043	0.000000	0.000000	0.000000	0.000000
 223	1.1100e-01	8.9051	0.655354	0.001173	11.727769	3.973476	0.094662
 224	1.1150e-01	8.9596	0.254860	-0.000992	-9.923496	-3.362172	-0.080099
 225	1.1200e-01	9.0110	0.618946	0.000902	9.021360	3.056520	0.072817
 226	1.1250e-01	9.0399	1.165074	0.001353	13.532041	4.584779	0.109226
 227	1.1300e-01	9.0848	0.655354	-0.001263	-12.629905	-4.279128	-0.101944
 228	1.1350e-01	9.1297	0.946623	0.000722	7.217088	2.445216	0.058254
 229	1.1400e-01	9.1554	0.655354	-0.000722	-7.217088	-2.445216	-0.058254
 230	1.1450e-01	9.1858	1.419935	0.001894	18.944857	6.418691	0.152916
 231	1.1500e-01	9.2500	1.201483	-0.000541	-5.412816	-1.833912	-0.043690
 232	1.1550e-01	9.2949	1.638386	0.001083	10.825633	3.667824	0.087381
 233	1.1600e-01	9.3334	1.565569	-0.000180	-1.804272	-0.611304	-0.014563
 234	1.1650e-01	9.3511	1.966063	0.000992	9.923496	3.362172	0.080099
 235	1.1700e-01	9.3751	1.929655	-0.000090	-0.902136	-0.305652	-0.007282
 236	1.1750e-01	9.4377	1.820429	-0.000271	-2.706408	-0.916956	-0.021845
 237	1.1800e-01	9.4746	2.111697	0.000722	7.217088	2.445216	0.058254
 238	1.1850e-01	9.5147	2.512192	0.000992	9.923496	3.362172	0.080099
 239	1.1900e-01	9.5580	2.184515	-0.000812	-8.119224	-2.750868	-0.065535
 240	1.1950e-01	9.5933	2.657826	0.001173	11.727769	3.973476	0.094662
 241	1.2000e-01	9.6270	2.767052	0.000271	2.706408	0.916956	0.021845
 242	1.2050e-01	9.6767	2.657826	-0.000271	-2.706408	-0.916956	-0.021845
 243	1.2100e-01	9.7040	3.058320	0.000992	9.923496	3.362172	0.080099
 244	1.2150e-01	9.7425	3.094729	0.000090	0.902136	0.305652	0.007282
 245	1.2200e-01	9.7762	3.203955	0.000271	2.706408	0.916956	0.021845
 246	1.2250e-01	9.8500	3.131138	-0.000180	-1.804272	-0.611304	-0.014563
 247	1.2300e-01	9.8708	3.458815	0.000812	8.119224	2.750868	0.065535
 248	1.2350e-01	9.9254	3.713675	0.000631	6.314952	2.139564	0.050972
 249	1.2400e-01	9.9543	3.604449	-0.000271	-2.706408	-0.916956	-0.021845
 250	1.2450e-01	10.0008	3.895718	0.000722	7.217088	2.445216	0.058254
 251	1.2500e-01	10.0184	4.223395	0.000812	8.119224	2.750868	0.065535
 252	1.2550e-01	10.0810	3.750083	-0.001173	-11.727769	-3.973476	-0.094662
 253	1.2600e-01	10.0890	4.150578	0.000992	9.923496	3.362172	0.080099
 254	1.2650e-01	10.1468	4.551072	0.000992	9.923496	3.362172	0.080099
 255	1.2700e-01	10.2125	4.551072	0.000000	0.000000	0.000000	0.000000
 256	1.2750e-01	10.2125	4.587481	-0.000090	-0.902136	-0.305652	0.007282
 257	1.2800e-01	10.2671	4.660298	0.000180	1.804272	0.611304	0.014563
 258	1.2850e-01	10.2944	4.915158	0.000631	6.314952	2.139564	0.050972
