»»»»»»»»»»»»»»»»»»»»»»»»»»»»»»»»»»»» Hysteresis ««««««««««««««««««««««««««««««««««««
»»»  Executed Version:	5.48.1
»»»  Vision Version:	5.48.4 (R)
»»»  Vision Compiled:	9/18/24
»»»  Driver Version:	5.47.0
»»»  Windows Version:	Windows 8 or 8.1
»»»  Processor Information:	x86 (AMD or Intel) - 32 Processors
»»»  Tester Name:	PMF21124-494 (100V)
»»»  Tester S/N:	PMF21124-494
»»»  Internal Amp Type:	100V RevK 270k
»»»  Internal Amp S/N:	iAB2-596/K     
»»»  Execution Count:	1
»»»»»»»»»»»»»»»»»»»»»»»»»»»»»»»»»»»»»»»»»»««««««««««««««««««««««««««««««««««««««««««

Stored:	10/10/2025 - 11:25:26
Configured:	10/10/25 10:37:25 AM
Executed:	10/10/25 11:24:51 AM

»»»»»»»»»»»»»»»»»»»»»»»»»»»»»»»»»»» Sample Info ««««««««««««««««««««««««««««««««««««
Sample Name:	Int. Ref. Ferroelectric
Lot Name:	N/A
Wafer Name:	N/A
Die Row/Column:	0/0
Capacitor Number:	0
Sample Area (cm2):	1.00e-04
Sample Thickness (microns):	3.00e-01

Amplifier:	Internal

»»»»»»»»»»»»»»»»»»»»»»»»»»»»»»»»»»» Tester Info «««««««««««««««««««««««««««««««««««
Tester Name:	PMF21124-494 (100V)
Tester Serial Number:	PMF21124-494
Return Signal Amp. Level:	0.02 [Index: 2]

»»»»»»»»»»»»»»»»»»»»»»»»»»»»»»»» Hysteresis Info ««««««««««««««««««««««««««««««««««
Task Name:	Hyst-170
Volts:	20.00
Field:	666.67 (kV/cm)
DCBias:	0.00
DCField:	0.00 (kV/cm)
Hysteresis Period (ms):	5.00e-01
Preset:	Enabled
Preset Delay (ms):	1.00e+03
Profile:	Standard Monopolar

»»»»»»»»»»»»»»»»»»»»»»»»»»»»»»»»»»»»»» Data «««««««««««««««««««««««««««««««««««««««
Points:	1001

Valid Data

Point	Time (ms)	Drive Voltage	Measured Polarization (uC/cm2)	Capacitance (uF)	Normalized Capacitance (uF/cm2)	Dielectric Constant	Instantaneous Current (mA)
   1	0.0000e+00	0.0497	-24.685015	0.000635	6.351122	2.151819	0.050972
   2	5.0000e-04	0.0690	-24.430155	0.000635	6.351122	2.151819	0.050972
   3	1.0000e-03	0.1027	-24.575789	-0.000363	-3.629213	-1.229611	-0.029127
   4	1.5000e-03	0.1604	-24.393747	0.000454	4.536516	1.537013	0.036409
   5	2.0000e-03	0.2086	-24.175295	0.000544	5.443819	1.844416	0.043690
   6	2.5000e-03	0.2390	-24.320929	-0.000363	-3.629213	-1.229611	-0.029127
   7	3.0000e-03	0.2631	-24.138887	0.000454	4.536516	1.537013	0.036409
   8	3.5000e-03	0.3337	-23.847618	0.000726	7.258426	2.459221	0.058254
   9	4.0000e-03	0.3610	-24.029661	-0.000454	-4.536516	-1.537013	-0.036409
  10	4.5000e-03	0.3978	-23.410715	0.001542	15.424154	5.225845	0.123789
  11	5.0000e-03	0.4444	-23.155855	0.000635	6.351122	2.151819	0.050972
  12	5.5000e-03	0.4732	-23.519941	-0.000907	-9.073032	-3.074026	-0.072817
  13	6.0000e-03	0.5053	-22.937403	0.001452	14.516851	4.918442	0.116507
  14	6.5000e-03	0.5952	-23.301489	-0.000907	-9.073032	-3.074026	-0.072817
  15	7.0000e-03	0.5952	-22.900995	-0.000998	-9.980335	-3.381429	0.080099
  16	7.5000e-03	0.6369	-22.900995	0.000000	0.000000	0.000000	0.000000
  17	8.0000e-03	0.6770	-22.682543	0.000544	5.443819	1.844416	0.043690
  18	8.5000e-03	0.7219	-22.791769	-0.000272	-2.721910	-0.922208	-0.021845
  19	9.0000e-03	0.7347	-22.100006	0.001724	17.238761	5.840650	0.138353
  20	9.5000e-03	0.7909	-22.209232	-0.000272	-2.721910	-0.922208	-0.021845
  21	1.0000e-02	0.8406	-22.063598	0.000363	3.629213	1.229611	0.029127
  22	1.0500e-02	0.8807	-22.282049	-0.000544	-5.443819	-1.844416	-0.043690
  23	1.1000e-02	0.9160	-21.735920	0.001361	13.609548	4.611040	0.109226
  24	1.1500e-02	0.9465	-21.808738	-0.000181	-1.814606	-0.614805	-0.014563
  25	1.2000e-02	0.9850	-21.553878	0.000635	6.351122	2.151819	0.050972
  26	1.2500e-02	1.0315	-21.735920	-0.000454	-4.536516	-1.537013	-0.036409
  27	1.3000e-02	1.0796	-21.299018	0.001089	10.887638	3.688832	0.087381
  28	1.3500e-02	1.1069	-21.408243	-0.000272	-2.721910	-0.922208	-0.021845
  29	1.4000e-02	1.1599	-21.116975	0.000726	7.258426	2.459221	0.058254
  30	1.4500e-02	1.1935	-21.226200	-0.000272	-2.721910	-0.922208	-0.021845
  31	1.5000e-02	1.2369	-20.643663	0.001452	14.516851	4.918442	0.116507
  32	1.5500e-02	1.2561	-20.934932	-0.000726	-7.258426	-2.459221	-0.058254
  33	1.6000e-02	1.3091	-20.680072	0.000635	6.351122	2.151819	0.050972
  34	1.6500e-02	1.3508	-20.352395	0.000817	8.165729	2.766624	0.065535
  35	1.7000e-02	1.3796	-20.498029	-0.000363	-3.629213	-1.229611	-0.029127
  36	1.7500e-02	1.4246	-20.206760	0.000726	7.258426	2.459221	0.058254
  37	1.8000e-02	1.4679	-20.425212	-0.000544	-5.443819	-1.844416	-0.043690
  38	1.8500e-02	1.4967	-20.097534	0.000817	8.165729	2.766624	0.065535
  39	1.9000e-02	1.5545	-19.988309	0.000272	2.721910	0.922208	0.021845
  40	1.9500e-02	1.5673	-19.842674	0.000363	3.629213	1.229611	0.029127
  41	2.0000e-02	1.6283	-19.697040	0.000363	3.629213	1.229611	0.029127
  42	2.0500e-02	1.6556	-19.806266	-0.000272	-2.721910	-0.922208	-0.021845
  43	2.1000e-02	1.7117	-19.260137	0.001361	13.609548	4.611040	0.109226
  44	2.1500e-02	1.7550	-19.405772	-0.000363	-3.629213	-1.229611	-0.029127
  45	2.2000e-02	1.7999	-19.223729	0.000454	4.536516	1.537013	0.036409
  46	2.2500e-02	1.8240	-19.005277	0.000544	5.443819	1.844416	0.043690
  47	2.3000e-02	1.8625	-19.078094	-0.000181	-1.814606	-0.614805	-0.014563
  48	2.3500e-02	1.9138	-18.823234	0.000635	6.351122	2.151819	0.050972
  49	2.4000e-02	1.9556	-18.568374	0.000635	6.351122	2.151819	0.050972
  50	2.4500e-02	2.0037	-19.114503	-0.001361	-13.609548	-4.611040	-0.109226
  51	2.5000e-02	2.0374	-18.531966	0.001452	14.516851	4.918442	0.116507
  52	2.5500e-02	2.0630	-18.641191	-0.000272	-2.721910	-0.922208	-0.021845
  53	2.6000e-02	2.1224	-18.095063	0.001361	13.609548	4.611040	0.109226
  54	2.6500e-02	2.1769	-18.714009	-0.001542	-15.424154	-5.225845	-0.123789
  55	2.7000e-02	2.1946	-17.767386	0.002359	23.589883	7.992469	0.189325
  56	2.7500e-02	2.2299	-17.876611	-0.000272	-2.721910	-0.922208	-0.021845
  57	2.8000e-02	2.2796	-17.803794	0.000181	1.814606	0.614805	0.014563
  58	2.8500e-02	2.3165	-18.022246	-0.000544	-5.443819	-1.844416	-0.043690
  59	2.9000e-02	2.3598	-17.621751	0.000998	9.980335	3.381429	0.080099
  60	2.9500e-02	2.3839	-17.476117	0.000363	3.629213	1.229611	0.029127
  61	3.0000e-02	2.4400	-17.330483	0.000363	3.629213	1.229611	0.029127
  62	3.0500e-02	2.4785	-17.330483	0.000000	0.000000	0.000000	0.000000
  63	3.1000e-02	2.5010	-17.075623	0.000635	6.351122	2.151819	0.050972
  64	3.1500e-02	2.5636	-17.075623	0.000000	0.000000	0.000000	0.000000
  65	3.2000e-02	2.6165	-16.747945	0.000817	8.165729	2.766624	0.065535
  66	3.2500e-02	2.6454	-16.857171	-0.000272	-2.721910	-0.922208	-0.021845
  67	3.3000e-02	2.6662	-16.383860	0.001179	11.794942	3.996234	0.094662
  68	3.3500e-02	2.7112	-16.565903	-0.000454	-4.536516	-1.537013	-0.036409
  69	3.4000e-02	2.7561	-16.529494	0.000091	0.907303	0.307403	0.007282
  70	3.4500e-02	2.7946	-16.493085	0.000091	0.907303	0.307403	0.007282
  71	3.5000e-02	2.8122	-16.201817	0.000726	7.258426	2.459221	0.058254
  72	3.5500e-02	2.8940	-15.910548	0.000726	7.258426	2.459221	0.058254
  73	3.6000e-02	2.9325	-16.129000	-0.000544	-5.443819	-1.844416	-0.043690
  74	3.6500e-02	2.9534	-16.019774	0.000272	2.721910	0.922208	0.021845
  75	3.7000e-02	3.0160	-15.546462	0.001179	11.794942	3.996234	0.094662
  76	3.7500e-02	3.0320	-15.582871	-0.000091	-0.907303	-0.307403	-0.007282
  77	3.8000e-02	3.0833	-15.182377	0.000998	9.980335	3.381429	0.080099
  78	3.8500e-02	3.1090	-15.109559	0.000181	1.814606	0.614805	0.014563
  79	3.9000e-02	3.1395	-15.145968	-0.000091	-0.907303	-0.307403	-0.007282
  80	3.9500e-02	3.2149	-15.182377	-0.000091	-0.907303	-0.307403	-0.007282
  81	4.0000e-02	3.2422	-15.145968	0.000091	0.907303	0.307403	0.007282
  82	4.0500e-02	3.2742	-15.073151	0.000181	1.814606	0.614805	0.014563
  83	4.1000e-02	3.3079	-14.599839	0.001179	11.794942	3.996234	0.094662
  84	4.1500e-02	3.3528	-14.745474	-0.000363	-3.629213	-1.229611	-0.029127
  85	4.2000e-02	3.4218	-14.344979	0.000998	9.980335	3.381429	0.080099
  86	4.2500e-02	3.4122	-14.563431	0.000544	5.443819	1.844416	-0.043690
  87	4.3000e-02	3.4796	-14.381388	0.000454	4.536516	1.537013	0.036409
  88	4.3500e-02	3.5181	-14.417796	-0.000091	-0.907303	-0.307403	-0.007282
  89	4.4000e-02	3.5598	-14.090119	0.000817	8.165729	2.766624	0.065535
  90	4.4500e-02	3.5903	-13.835259	0.000635	6.351122	2.151819	0.050972
  91	4.5000e-02	3.6448	-13.653216	0.000454	4.536516	1.537013	0.036409
  92	4.5500e-02	3.6817	-13.871668	-0.000544	-5.443819	-1.844416	-0.043690
  93	4.6000e-02	3.7202	-13.653216	0.000544	5.443819	1.844416	0.043690
  94	4.6500e-02	3.7587	-13.471173	0.000454	4.536516	1.537013	0.036409
  95	4.7000e-02	3.7892	-13.762442	-0.000726	-7.258426	-2.459221	-0.058254
  96	4.7500e-02	3.8389	-13.325539	0.001089	10.887638	3.688832	0.087381
  97	4.8000e-02	3.8742	-13.252722	0.000181	1.814606	0.614805	0.014563
  98	4.8500e-02	3.9240	-13.034271	0.000544	5.443819	1.844416	0.043690
  99	4.9000e-02	3.9496	-12.888636	0.000363	3.629213	1.229611	0.029127
 100	4.9500e-02	3.9641	-12.743002	0.000363	3.629213	1.229611	0.029127
 101	5.0000e-02	4.0411	-12.633776	0.000272	2.721910	0.922208	0.021845
 102	5.0500e-02	4.0892	-12.743002	-0.000272	-2.721910	-0.922208	-0.021845
 103	5.1000e-02	4.1133	-12.597368	0.000363	3.629213	1.229611	0.029127
 104	5.1500e-02	4.1534	-12.087648	0.001270	12.702245	4.303637	0.101944
 105	5.2000e-02	4.2079	-12.670185	-0.001452	-14.516851	-4.918442	-0.116507
 106	5.2500e-02	4.2352	-12.051239	0.001542	15.424154	5.225845	0.123789
 107	5.3000e-02	4.2608	-11.687153	0.000907	9.073032	3.074026	0.072817
 108	5.3500e-02	4.3042	-11.978422	-0.000726	-7.258426	-2.459221	-0.058254
 109	5.4000e-02	4.3411	-11.687153	0.000726	7.258426	2.459221	0.058254
 110	5.4500e-02	4.4052	-11.832788	-0.000363	-3.629213	-1.229611	-0.029127
 111	5.5000e-02	4.4229	-11.942013	-0.000272	-2.721910	-0.922208	-0.021845
 112	5.5500e-02	4.4838	-11.577927	0.000907	9.073032	3.074026	0.072817
 113	5.6000e-02	4.5063	-11.286659	0.000726	7.258426	2.459221	0.058254
 114	5.6500e-02	4.5592	-11.759970	-0.001179	-11.794942	-3.996234	-0.094662
 115	5.7000e-02	4.6058	-11.323067	0.001089	10.887638	3.688832	0.087381
 116	5.7500e-02	4.6234	-11.432293	-0.000272	-2.721910	-0.922208	-0.021845
 117	5.8000e-02	4.6635	-10.958982	0.001179	11.794942	3.996234	0.094662
 118	5.8500e-02	4.7084	-10.886165	0.000181	1.814606	0.614805	0.014563
 119	5.9000e-02	4.7710	-10.594896	0.000726	7.258426	2.459221	0.058254
 120	5.9500e-02	4.7951	-10.740530	-0.000363	-3.629213	-1.229611	-0.029127
 121	6.0000e-02	4.8175	-10.558487	0.000454	4.536516	1.537013	0.036409
 122	6.0500e-02	4.8785	-10.194402	0.000907	9.073032	3.074026	0.072817
 123	6.1000e-02	4.9170	-10.303627	-0.000272	-2.721910	-0.922208	-0.021845
 124	6.1500e-02	4.9330	-10.376444	-0.000181	-1.814606	-0.614805	-0.014563
 125	6.2000e-02	4.9651	-9.648273	0.001815	18.146064	6.148053	0.145634
 126	6.2500e-02	5.0501	-9.793907	-0.000363	-3.629213	-1.229611	-0.029127
 127	6.3000e-02	5.0678	-9.793907	0.000000	0.000000	0.000000	0.000000
 128	6.3500e-02	5.1223	-9.793907	0.000000	0.000000	0.000000	0.000000
 129	6.4000e-02	5.1592	-9.793907	0.000000	0.000000	0.000000	0.000000
 130	6.4500e-02	5.1753	-9.466230	0.000817	8.165729	2.766624	0.065535
 131	6.5000e-02	5.2410	-9.721090	-0.000635	-6.351122	-2.151819	-0.050972
 132	6.5500e-02	5.2667	-9.357004	0.000907	9.073032	3.074026	0.072817
 133	6.6000e-02	5.3357	-9.575456	-0.000544	-5.443819	-1.844416	-0.043690
 134	6.6500e-02	5.3630	-8.920101	0.001633	16.331457	5.533248	0.131071
 135	6.7000e-02	5.4127	-9.102144	-0.000454	-4.536516	-1.537013	-0.036409
 136	6.7500e-02	5.4335	-9.102144	0.000000	0.000000	0.000000	0.000000
 137	6.8000e-02	5.5025	-8.701650	0.000998	9.980335	3.381429	0.080099
 138	6.8500e-02	5.5234	-8.628833	0.000181	1.814606	0.614805	0.014563
 139	6.9000e-02	5.5811	-8.337564	0.000726	7.258426	2.459221	0.058254
 140	6.9500e-02	5.5924	-8.483198	-0.000363	-3.629213	-1.229611	-0.029127
 141	7.0000e-02	5.6453	-8.301156	0.000454	4.536516	1.537013	0.036409
 142	7.0500e-02	5.6790	-8.446790	-0.000363	-3.629213	-1.229611	-0.029127
 143	7.1000e-02	5.7063	-7.973478	0.001179	11.794942	3.996234	0.094662
 144	7.1500e-02	5.7672	-8.155521	-0.000454	-4.536516	-1.537013	-0.036409
 145	7.2000e-02	5.7993	-8.119113	0.000091	0.907303	0.307403	0.007282
 146	7.2500e-02	5.8522	-7.900661	0.000544	5.443819	1.844416	0.043690
 147	7.3000e-02	5.8571	-7.572984	0.000817	8.165729	2.766624	0.065535
 148	7.3500e-02	5.8956	-7.682210	-0.000272	-2.721910	-0.922208	-0.021845
 149	7.4000e-02	5.9710	-7.136081	0.001361	13.609548	4.611040	0.109226
 150	7.4500e-02	6.0271	-7.026855	0.000272	2.721910	0.922208	0.021845
 151	7.5000e-02	6.0480	-6.954038	0.000181	1.814606	0.614805	0.014563
 152	7.5500e-02	6.0849	-7.354533	-0.000998	-9.980335	-3.381429	-0.080099
 153	7.6000e-02	6.1218	-6.881221	0.001179	11.794942	3.996234	0.094662
 154	7.6500e-02	6.1570	-6.917630	-0.000091	-0.907303	-0.307403	-0.007282
 155	7.7000e-02	6.1907	-7.136081	-0.000544	-5.443819	-1.844416	-0.043690
 156	7.7500e-02	6.2373	-6.771995	0.000907	9.073032	3.074026	0.072817
 157	7.8000e-02	6.2742	-6.517135	0.000635	6.351122	2.151819	0.050972
 158	7.8500e-02	6.3014	-6.553544	-0.000091	-0.907303	-0.307403	-0.007282
 159	7.9000e-02	6.3560	-6.662770	-0.000272	-2.721910	-0.922208	-0.021845
 160	7.9500e-02	6.3832	-6.080232	0.001452	14.516851	4.918442	0.116507
 161	8.0000e-02	6.4410	-6.444318	-0.000907	-9.073032	-3.074026	-0.072817
 162	8.0500e-02	6.4827	-6.153050	0.000726	7.258426	2.459221	0.058254
 163	8.1000e-02	6.4939	-5.716147	0.001089	10.887638	3.688832	0.087381
 164	8.1500e-02	6.5581	-5.679738	0.000091	0.907303	0.307403	0.007282
 165	8.2000e-02	6.6078	-5.788964	-0.000272	-2.721910	-0.922208	-0.021845
 166	8.2500e-02	6.6544	-5.898189	-0.000272	-2.721910	-0.922208	-0.021845
 167	8.3000e-02	6.6832	-5.497695	0.000998	9.980335	3.381429	0.080099
 168	8.3500e-02	6.7121	-5.534104	-0.000091	-0.907303	-0.307403	-0.007282
 169	8.4000e-02	6.7506	-5.060792	0.001179	11.794942	3.996234	0.094662
 170	8.4500e-02	6.7891	-5.242835	-0.000454	-4.536516	-1.537013	-0.036409
 171	8.5000e-02	6.8260	-5.170018	0.000181	1.814606	0.614805	0.014563
 172	8.5500e-02	6.8693	-5.461287	-0.000726	-7.258426	-2.459221	-0.058254
 173	8.6000e-02	6.8982	-5.024384	0.001089	10.887638	3.688832	0.087381
 174	8.6500e-02	6.9383	-4.551072	0.001179	11.794942	3.996234	0.094662
 175	8.7000e-02	6.9800	-4.623889	-0.000181	-1.814606	-0.614805	-0.014563
 176	8.7500e-02	7.0281	-4.878749	-0.000635	-6.351122	-2.151819	-0.050972
 177	8.8000e-02	7.0811	-4.223395	0.001633	16.331457	5.533248	0.131071
 178	8.8500e-02	7.1148	-4.660298	-0.001089	-10.887638	-3.688832	-0.087381
 179	8.9000e-02	7.1517	-4.405438	0.000635	6.351122	2.151819	0.050972
 180	8.9500e-02	7.1902	-4.041352	0.000907	9.073032	3.074026	0.072817
 181	9.0000e-02	7.2239	-3.968535	0.000181	1.814606	0.614805	0.014563
 182	9.0500e-02	7.2704	-4.077761	-0.000272	-2.721910	-0.922208	-0.021845
 183	9.1000e-02	7.3121	-3.895718	0.000454	4.536516	1.537013	0.036409
 184	9.1500e-02	7.3538	-3.786492	0.000272	2.721910	0.922208	0.021845
 185	9.2000e-02	7.4100	-3.458815	0.000817	8.165729	2.766624	0.065535
 186	9.2500e-02	7.4148	-3.713675	-0.000635	-6.351122	-2.151819	-0.050972
 187	9.3000e-02	7.4757	-3.422406	0.000726	7.258426	2.459221	0.058254
 188	9.3500e-02	7.4950	-3.458815	-0.000091	-0.907303	-0.307403	-0.007282
 189	9.4000e-02	7.5511	-2.912686	0.001361	13.609548	4.611040	0.109226
 190	9.4500e-02	7.5832	-3.203955	-0.000726	-7.258426	-2.459221	-0.058254
 191	9.5000e-02	7.6442	-3.167546	0.000091	0.907303	0.307403	0.007282
 192	9.5500e-02	7.6746	-2.949095	0.000544	5.443819	1.844416	0.043690
 193	9.6000e-02	7.7115	-2.475783	0.001179	11.794942	3.996234	0.094662
 194	9.6500e-02	7.7500	-2.985503	-0.001270	-12.702245	-4.303637	-0.101944
 195	9.7000e-02	7.7837	-2.330149	0.001633	16.331457	5.533248	0.131071
 196	9.7500e-02	7.8238	-2.075289	0.000635	6.351122	2.151819	0.050972
 197	9.8000e-02	7.8704	-2.475783	-0.000998	-9.980335	-3.381429	-0.080099
 198	9.8500e-02	7.9361	-1.929655	0.001361	13.609548	4.611040	0.109226
 199	9.9000e-02	7.9490	-2.184515	-0.000635	-6.351122	-2.151819	-0.050972
 200	9.9500e-02	7.9939	-2.075289	0.000272	2.721910	0.922208	0.021845
 201	1.0000e-01	8.0244	-1.674795	0.000998	9.980335	3.381429	0.080099
 202	1.0050e-01	8.0549	-1.856837	-0.000454	-4.536516	-1.537013	-0.036409
 203	1.0100e-01	8.1030	-1.419935	0.001089	10.887638	3.688832	0.087381
 204	1.0150e-01	8.1752	-1.711203	-0.000726	-7.258426	-2.459221	-0.058254
 205	1.0200e-01	8.1976	-1.310709	0.000998	9.980335	3.381429	0.080099
 206	1.0250e-01	8.2281	-1.784020	-0.001179	-11.794942	-3.996234	-0.094662
 207	1.0300e-01	8.3019	-1.201483	0.001452	14.516851	4.918442	0.116507
 208	1.0350e-01	8.3276	-1.419935	-0.000544	-5.443819	-1.844416	-0.043690
 209	1.0400e-01	8.3484	-1.092257	0.000817	8.165729	2.766624	0.065535
 210	1.0450e-01	8.4046	-0.983032	0.000272	2.721910	0.922208	0.021845
 211	1.0500e-01	8.4238	-0.873806	0.000272	2.721910	0.922208	0.021845
 212	1.0550e-01	8.4736	-0.546129	0.000817	8.165729	2.766624	0.065535
 213	1.0600e-01	8.5329	-0.764580	-0.000544	-5.443819	-1.844416	-0.043690
 214	1.0650e-01	8.5634	-0.546129	0.000544	5.443819	1.844416	0.043690
 215	1.0700e-01	8.5939	-0.582537	-0.000091	-0.907303	-0.307403	-0.007282
 216	1.0750e-01	8.6404	-0.509720	0.000181	1.814606	0.614805	0.014563
 217	1.0800e-01	8.6677	0.145634	0.001633	16.331457	5.533248	0.131071
 218	1.0850e-01	8.7190	-0.036409	-0.000454	-4.536516	-1.537013	-0.036409
 219	1.0900e-01	8.7559	0.036409	0.000181	1.814606	0.614805	0.014563
 220	1.0950e-01	8.8040	0.109226	0.000181	1.814606	0.614805	0.014563
 221	1.1000e-01	8.8377	0.000000	-0.000272	-2.721910	-0.922208	-0.021845
 222	1.1050e-01	8.8874	-0.145634	-0.000363	-3.629213	-1.229611	-0.029127
 223	1.1100e-01	8.9147	0.364086	0.001270	12.702245	4.303637	0.101944
 224	1.1150e-01	8.9548	0.582537	0.000544	5.443819	1.844416	0.043690
 225	1.1200e-01	8.9837	0.582537	0.000000	0.000000	0.000000	0.000000
 226	1.1250e-01	9.0222	0.400494	-0.000454	-4.536516	-1.537013	-0.036409
 227	1.1300e-01	9.0800	0.582537	0.000454	4.536516	1.537013	0.036409
 228	1.1350e-01	9.1249	0.764580	0.000454	4.536516	1.537013	0.036409
 229	1.1400e-01	9.1425	1.019440	0.000635	6.351122	2.151819	0.050972
 230	1.1450e-01	9.1778	1.128666	0.000272	2.721910	0.922208	0.021845
 231	1.1500e-01	9.2580	1.165074	0.000091	0.907303	0.307403	0.007282
 232	1.1550e-01	9.2869	1.019440	-0.000363	-3.629213	-1.229611	-0.029127
 233	1.1600e-01	9.3238	1.165074	0.000363	3.629213	1.229611	0.029127
 234	1.1650e-01	9.3671	1.638386	0.001179	11.794942	3.996234	0.094662
 235	1.1700e-01	9.3799	1.492752	-0.000363	-3.629213	-1.229611	-0.029127
 236	1.1750e-01	9.4168	1.929655	0.001089	10.887638	3.688832	0.087381
 237	1.1800e-01	9.4425	1.711203	-0.000544	-5.443819	-1.844416	-0.043690
 238	1.1850e-01	9.5035	1.784020	0.000181	1.814606	0.614805	0.014563
 239	1.1900e-01	9.5468	2.220923	0.001089	10.887638	3.688832	0.087381
 240	1.1950e-01	9.6013	2.184515	-0.000091	-0.907303	-0.307403	-0.007282
 241	1.2000e-01	9.6302	1.747612	-0.001089	-10.887638	-3.688832	-0.087381
 242	1.2050e-01	9.6751	2.366558	0.001542	15.424154	5.225845	0.123789
 243	1.2100e-01	9.7329	2.148106	-0.000544	-5.443819	-1.844416	-0.043690
 244	1.2150e-01	9.7489	2.475783	0.000817	8.165729	2.766624	0.065535
 245	1.2200e-01	9.7698	2.439375	-0.000091	-0.907303	-0.307403	-0.007282
 246	1.2250e-01	9.8452	2.949095	0.001270	12.702245	4.303637	0.101944
 247	1.2300e-01	9.8965	2.621418	-0.000817	-8.165729	-2.766624	-0.065535
 248	1.2350e-01	9.9318	2.985503	0.000907	9.073032	3.074026	0.072817
 249	1.2400e-01	9.9478	2.876278	-0.000272	-2.721910	-0.922208	-0.021845
 250	1.2450e-01	9.9703	3.021912	0.000363	3.629213	1.229611	0.029127
 251	1.2500e-01	10.0265	2.985503	-0.000091	-0.907303	-0.307403	-0.007282
 252	1.2550e-01	10.0746	2.949095	-0.000091	-0.907303	-0.307403	-0.007282
 253	1.2600e-01	10.1211	3.677266	0.001815	18.146064	6.148053	0.145634
 254	1.2650e-01	10.1371	3.349589	-0.000817	-8.165729	-2.766624	-0.065535
 255	1.2700e-01	10.1917	3.495223	0.000363	3.629213	1.229611	0.029127
 256	1.2750e-01	10.2286	3.750083	0.000635	6.351122	2.151819	0.050972
 257	1.2800e-01	10.2960	3.677266	-0.000181	-1.814606	-0.614805	-0.014563
