»»»»»»»»»»»»»»»»»»»»»»»»»»»»»»»»»»»» Hysteresis ««««««««««««««««««««««««««««««««««««
»»»  Executed Version:	5.48.1
»»»  Vision Version:	5.48.4 (R)
»»»  Vision Compiled:	9/18/24
»»»  Driver Version:	5.47.0
»»»  Windows Version:	Windows 8 or 8.1
»»»  Processor Information:	x86 (AMD or Intel) - 32 Processors
»»»  Tester Name:	PMF21124-494 (100V)
»»»  Tester S/N:	PMF21124-494
»»»  Internal Amp Type:	100V RevK 270k
»»»  Internal Amp S/N:	iAB2-596/K     
»»»  Execution Count:	1
»»»»»»»»»»»»»»»»»»»»»»»»»»»»»»»»»»»»»»»»»»««««««««««««««««««««««««««««««««««««««««««

Stored:	10/10/2025 - 13:27:31
Configured:	10/10/25 10:37:25 AM
Executed:	10/10/25 01:26:56 PM

»»»»»»»»»»»»»»»»»»»»»»»»»»»»»»»»»»» Sample Info ««««««««««««««««««««««««««««««««««««
Sample Name:	Int. Ref. Ferroelectric
Lot Name:	N/A
Wafer Name:	N/A
Die Row/Column:	0/0
Capacitor Number:	0
Sample Area (cm2):	1.00e-04
Sample Thickness (microns):	3.00e-01

Amplifier:	Internal

»»»»»»»»»»»»»»»»»»»»»»»»»»»»»»»»»»» Tester Info «««««««««««««««««««««««««««««««««««
Tester Name:	PMF21124-494 (100V)
Tester Serial Number:	PMF21124-494
Return Signal Amp. Level:	0.02 [Index: 2]

»»»»»»»»»»»»»»»»»»»»»»»»»»»»»»»» Hysteresis Info ««««««««««««««««««««««««««««««««««
Task Name:	Hyst-170
Volts:	20.00
Field:	666.67 (kV/cm)
DCBias:	0.00
DCField:	0.00 (kV/cm)
Hysteresis Period (ms):	5.00e-01
Preset:	Enabled
Preset Delay (ms):	1.00e+03
Profile:	Standard Monopolar

»»»»»»»»»»»»»»»»»»»»»»»»»»»»»»»»»»»»»» Data «««««««««««««««««««««««««««««««««««««««
Points:	1001

Valid Data

Point	Time (ms)	Drive Voltage	Measured Polarization (uC/cm2)	Capacitance (uF)	Normalized Capacitance (uF/cm2)	Dielectric Constant	Instantaneous Current (mA)
   1	0.0000e+00	0.0626	-27.579497	0.000538	5.376769	1.821699	-0.043690
   2	5.0000e-04	0.0176	-27.797949	0.000538	5.376769	1.821699	-0.043690
   3	1.0000e-03	0.1348	-27.615906	0.000448	4.480640	1.518082	0.036409
   4	1.5000e-03	0.1861	-27.433863	0.000448	4.480640	1.518082	0.036409
   5	2.0000e-03	0.2230	-27.652314	-0.000538	-5.376769	-1.821699	-0.043690
   6	2.5000e-03	0.2406	-27.470271	0.000448	4.480640	1.518082	0.036409
   7	3.0000e-03	0.2856	-27.470271	0.000000	0.000000	0.000000	0.000000
   8	3.5000e-03	0.3385	-27.251820	0.000538	5.376769	1.821699	0.043690
   9	4.0000e-03	0.3561	-27.288228	-0.000090	-0.896128	-0.303616	-0.007282
  10	4.5000e-03	0.3866	-26.996960	0.000717	7.169025	2.428931	0.058254
  11	5.0000e-03	0.4364	-26.778508	0.000538	5.376769	1.821699	0.043690
  12	5.5000e-03	0.4941	-26.742100	0.000090	0.896128	0.303616	0.007282
  13	6.0000e-03	0.5214	-26.378014	0.000896	8.961281	3.036164	0.072817
  14	6.5000e-03	0.5631	-26.378014	0.000000	0.000000	0.000000	0.000000
  15	7.0000e-03	0.6112	-26.487240	-0.000269	-2.688384	-0.910849	-0.021845
  16	7.5000e-03	0.6465	-26.305197	0.000448	4.480640	1.518082	0.036409
  17	8.0000e-03	0.6706	-25.904703	0.000986	9.857409	3.339781	0.080099
  18	8.5000e-03	0.7331	-25.759068	0.000358	3.584512	1.214466	0.029127
  19	9.0000e-03	0.7524	-25.941111	-0.000448	-4.480640	-1.518082	-0.036409
  20	9.5000e-03	0.7797	-25.722660	0.000538	5.376769	1.821699	0.043690
  21	1.0000e-02	0.8438	-25.540617	0.000448	4.480640	1.518082	0.036409
  22	1.0500e-02	0.9032	-25.103714	0.001075	10.753537	3.643397	0.087381
  23	1.1000e-02	0.9449	-25.176531	-0.000179	-1.792256	-0.607233	-0.014563
  24	1.1500e-02	0.9497	-25.103714	0.000179	1.792256	0.607233	0.014563
  25	1.2000e-02	1.0091	-25.067305	0.000090	0.896128	0.303616	0.007282
  26	1.2500e-02	1.0492	-24.994488	0.000179	1.792256	0.607233	0.014563
  27	1.3000e-02	1.0796	-24.958080	0.000090	0.896128	0.303616	0.007282
  28	1.3500e-02	1.1374	-24.557585	0.000986	9.857409	3.339781	0.080099
  29	1.4000e-02	1.1550	-24.521177	0.000090	0.896128	0.303616	0.007282
  30	1.4500e-02	1.2096	-24.593994	-0.000179	-1.792256	-0.607233	-0.014563
  31	1.5000e-02	1.2337	-24.047865	0.001344	13.441921	4.554246	0.109226
  32	1.5500e-02	1.2946	-23.865822	0.000448	4.480640	1.518082	0.036409
  33	1.6000e-02	1.3363	-23.683779	0.000448	4.480640	1.518082	0.036409
  34	1.6500e-02	1.3732	-23.793005	-0.000269	-2.688384	-0.910849	-0.021845
  35	1.7000e-02	1.4101	-23.465328	0.000807	8.065153	2.732548	0.065535
  36	1.7500e-02	1.4871	-23.829414	-0.000896	-8.961281	-3.036164	-0.072817
  37	1.8000e-02	1.4582	-23.283285	-0.001344	-13.441921	-4.554246	0.109226
  38	1.8500e-02	1.5256	-22.992016	0.000717	7.169025	2.428931	0.058254
  39	1.9000e-02	1.5561	-23.174059	-0.000448	-4.480640	-1.518082	-0.036409
  40	1.9500e-02	1.6010	-22.809973	0.000896	8.961281	3.036164	0.072817
  41	2.0000e-02	1.6508	-22.809973	0.000000	0.000000	0.000000	0.000000
  42	2.0500e-02	1.6780	-22.555113	0.000627	6.272897	2.125315	0.050972
  43	2.1000e-02	1.7262	-22.591522	-0.000090	-0.896128	-0.303616	-0.007282
  44	2.1500e-02	1.7502	-22.445888	0.000358	3.584512	1.214466	0.029127
  45	2.2000e-02	1.7935	-22.373071	0.000179	1.792256	0.607233	0.014563
  46	2.2500e-02	1.8497	-22.118211	0.000627	6.272897	2.125315	0.050972
  47	2.3000e-02	1.8946	-21.936168	0.000448	4.480640	1.518082	0.036409
  48	2.3500e-02	1.9187	-22.008985	-0.000179	-1.792256	-0.607233	-0.014563
  49	2.4000e-02	1.9684	-21.644899	0.000896	8.961281	3.036164	0.072817
  50	2.4500e-02	1.9828	-21.681308	-0.000090	-0.896128	-0.303616	-0.007282
  51	2.5000e-02	2.0358	-21.171588	0.001255	12.545793	4.250630	0.101944
  52	2.5500e-02	2.0679	-21.353630	-0.000448	-4.480640	-1.518082	-0.036409
  53	2.6000e-02	2.1160	-20.953136	0.000986	9.857409	3.339781	0.080099
  54	2.6500e-02	2.1449	-21.062362	-0.000269	-2.688384	-0.910849	-0.021845
  55	2.7000e-02	2.1962	-20.880319	0.000448	4.480640	1.518082	0.036409
  56	2.7500e-02	2.2299	-20.734685	0.000358	3.584512	1.214466	0.029127
  57	2.8000e-02	2.2780	-20.625459	0.000269	2.688384	0.910849	0.021845
  58	2.8500e-02	2.3101	-20.188556	0.001075	10.753537	3.643397	0.087381
  59	2.9000e-02	2.3951	-20.152147	0.000090	0.896128	0.303616	0.007282
  60	2.9500e-02	2.3903	-20.516233	0.000896	8.961281	3.036164	-0.072817
  61	3.0000e-02	2.4593	-19.751653	0.001882	18.818690	6.375945	0.152916
  62	3.0500e-02	2.4898	-20.115739	-0.000896	-8.961281	-3.036164	-0.072817
  63	3.1000e-02	2.5315	-19.423976	0.001703	17.026434	5.768712	0.138353
  64	3.1500e-02	2.5652	-19.606019	-0.000448	-4.480640	-1.518082	-0.036409
  65	3.2000e-02	2.6069	-19.387567	0.000538	5.376769	1.821699	0.043690
  66	3.2500e-02	2.6117	-19.387567	0.000000	0.000000	0.000000	0.000000
  67	3.3000e-02	2.6694	-19.314750	0.000179	1.792256	0.607233	0.014563
  68	3.3500e-02	2.7497	-18.695804	0.001523	15.234178	5.161479	0.123789
  69	3.4000e-02	2.7609	-19.241933	-0.001344	-13.441921	-4.554246	-0.109226
  70	3.4500e-02	2.8122	-18.622987	0.001523	15.234178	5.161479	0.123789
  71	3.5000e-02	2.8491	-18.841439	-0.000538	-5.376769	-1.821699	-0.043690
  72	3.5500e-02	2.8796	-18.695804	0.000358	3.584512	1.214466	0.029127
  73	3.6000e-02	2.9053	-18.440944	0.000627	6.272897	2.125315	0.050972
  74	3.6500e-02	2.9646	-18.586579	-0.000358	-3.584512	-1.214466	-0.029127
  75	3.7000e-02	3.0304	-17.931224	0.001613	16.130306	5.465096	0.131071
  76	3.7500e-02	3.0400	-17.967633	-0.000090	-0.896128	-0.303616	-0.007282
  77	3.8000e-02	3.1010	-17.858407	0.000269	2.688384	0.910849	0.021845
  78	3.8500e-02	3.1491	-17.967633	-0.000269	-2.688384	-0.910849	-0.021845
  79	3.9000e-02	3.1668	-17.530730	0.001075	10.753537	3.643397	0.087381
  80	3.9500e-02	3.2117	-17.603547	-0.000179	-1.792256	-0.607233	-0.014563
  81	4.0000e-02	3.2742	-17.239461	0.000896	8.961281	3.036164	0.072817
  82	4.0500e-02	3.2839	-17.312278	-0.000179	-1.792256	-0.607233	-0.014563
  83	4.1000e-02	3.3176	-17.093827	0.000538	5.376769	1.821699	0.043690
  84	4.1500e-02	3.3496	-16.948193	0.000358	3.584512	1.214466	0.029127
  85	4.2000e-02	3.4154	-16.875375	0.000179	1.792256	0.607233	0.014563
  86	4.2500e-02	3.4315	-16.620515	0.000627	6.272897	2.125315	0.050972
  87	4.3000e-02	3.5020	-16.656924	-0.000090	-0.896128	-0.303616	-0.007282
  88	4.3500e-02	3.5534	-16.402064	0.000627	6.272897	2.125315	0.050972
  89	4.4000e-02	3.5742	-16.292838	0.000269	2.688384	0.910849	0.021845
  90	4.4500e-02	3.6015	-16.001570	0.000717	7.169025	2.428931	0.058254
  91	4.5000e-02	3.6384	-16.220021	-0.000538	-5.376769	-1.821699	-0.043690
  92	4.5500e-02	3.6913	-16.147204	0.000179	1.792256	0.607233	0.014563
  93	4.6000e-02	3.7202	-15.710301	0.001075	10.753537	3.643397	0.087381
  94	4.6500e-02	3.7379	-15.673892	0.000090	0.896128	0.303616	0.007282
  95	4.7000e-02	3.8020	-15.455441	0.000538	5.376769	1.821699	0.043690
  96	4.7500e-02	3.8486	-15.528258	-0.000179	-1.792256	-0.607233	-0.014563
  97	4.8000e-02	3.8951	-15.309807	0.000538	5.376769	1.821699	0.043690
  98	4.8500e-02	3.9256	-15.054947	0.000627	6.272897	2.125315	0.050972
  99	4.9000e-02	3.9480	-15.127764	-0.000179	-1.792256	-0.607233	-0.014563
 100	4.9500e-02	4.0026	-15.054947	0.000179	1.792256	0.607233	0.014563
 101	5.0000e-02	4.0667	-14.836495	0.000538	5.376769	1.821699	0.043690
 102	5.0500e-02	4.0619	-14.872904	0.000090	0.896128	0.303616	-0.007282
 103	5.1000e-02	4.1213	-14.654452	0.000538	5.376769	1.821699	0.043690
 104	5.1500e-02	4.1806	-14.581635	0.000179	1.792256	0.607233	0.014563
 105	5.2000e-02	4.2063	-14.436001	0.000358	3.584512	1.214466	0.029127
 106	5.2500e-02	4.2336	-14.253958	0.000448	4.480640	1.518082	0.036409
 107	5.3000e-02	4.2801	-13.962689	0.000717	7.169025	2.428931	0.058254
 108	5.3500e-02	4.3459	-13.853464	0.000269	2.688384	0.910849	0.021845
 109	5.4000e-02	4.3539	-13.707829	0.000358	3.584512	1.214466	0.029127
 110	5.4500e-02	4.3956	-13.817055	-0.000269	-2.688384	-0.910849	-0.021845
 111	5.5000e-02	4.4517	-13.416561	0.000986	9.857409	3.339781	0.080099
 112	5.5500e-02	4.4774	-13.635012	-0.000538	-5.376769	-1.821699	-0.043690
 113	5.6000e-02	4.5095	-13.380152	0.000627	6.272897	2.125315	0.050972
 114	5.6500e-02	4.5705	-12.943249	0.001075	10.753537	3.643397	0.087381
 115	5.7000e-02	4.6025	-12.906841	0.000090	0.896128	0.303616	0.007282
 116	5.7500e-02	4.6443	-12.615572	0.000717	7.169025	2.428931	0.058254
 117	5.8000e-02	4.6972	-12.943249	-0.000807	-8.065153	-2.732548	-0.065535
 118	5.8500e-02	4.7148	-12.724798	0.000538	5.376769	1.821699	0.043690
 119	5.9000e-02	4.7517	-12.397120	0.000807	8.065153	2.732548	0.065535
 120	5.9500e-02	4.8031	-12.251486	0.000358	3.584512	1.214466	0.029127
 121	6.0000e-02	4.8368	-12.324303	-0.000179	-1.792256	-0.607233	-0.014563
 122	6.0500e-02	4.8849	-12.287895	0.000090	0.896128	0.303616	0.007282
 123	6.1000e-02	4.9442	-12.033035	0.000627	6.272897	2.125315	0.050972
 124	6.1500e-02	4.9507	-11.596132	0.001075	10.753537	3.643397	0.087381
 125	6.2000e-02	5.0148	-11.741766	-0.000358	-3.584512	-1.214466	-0.029127
 126	6.2500e-02	5.0437	-11.814583	-0.000179	-1.792256	-0.607233	-0.014563
 127	6.3000e-02	5.0902	-11.523315	0.000717	7.169025	2.428931	0.058254
 128	6.3500e-02	5.1480	-11.632540	-0.000269	-2.688384	-0.910849	-0.021845
 129	6.4000e-02	5.1528	-11.268455	0.000896	8.961281	3.036164	0.072817
 130	6.4500e-02	5.1913	-10.977186	0.000717	7.169025	2.428931	0.058254
 131	6.5000e-02	5.2410	-10.867960	0.000269	2.688384	0.910849	0.021845
 132	6.5500e-02	5.2908	-11.159229	-0.000717	-7.169025	-2.428931	-0.058254
 133	6.6000e-02	5.3164	-10.685917	0.001165	11.649665	3.947013	0.094662
 134	6.6500e-02	5.3838	-10.685917	0.000000	0.000000	0.000000	0.000000
 135	6.7000e-02	5.4095	-10.358240	0.000807	8.065153	2.732548	0.065535
 136	6.7500e-02	5.4207	-10.321832	0.000090	0.896128	0.303616	0.007282
 137	6.8000e-02	5.4736	-10.394649	-0.000179	-1.792256	-0.607233	-0.014563
 138	6.8500e-02	5.5186	-9.921337	0.001165	11.649665	3.947013	0.094662
 139	6.9000e-02	5.5458	-10.066972	-0.000358	-3.584512	-1.214466	-0.029127
 140	6.9500e-02	5.6196	-9.884929	0.000448	4.480640	1.518082	0.036409
 141	7.0000e-02	5.6357	-9.775703	0.000269	2.688384	0.910849	0.021845
 142	7.0500e-02	5.6790	-9.812111	-0.000090	-0.896128	-0.303616	-0.007282
 143	7.1000e-02	5.7191	-9.630069	0.000448	4.480640	1.518082	0.036409
 144	7.1500e-02	5.7736	-9.520843	0.000269	2.688384	0.910849	0.021845
 145	7.2000e-02	5.8137	-9.411617	0.000269	2.688384	0.910849	0.021845
 146	7.2500e-02	5.8538	-9.302391	0.000269	2.688384	0.910849	0.021845
 147	7.3000e-02	5.8907	-8.792671	0.001255	12.545793	4.250630	0.101944
 148	7.3500e-02	5.9228	-9.047531	-0.000627	-6.272897	-2.125315	-0.050972
 149	7.4000e-02	5.9485	-8.829080	0.000538	5.376769	1.821699	0.043690
 150	7.4500e-02	6.0207	-8.938306	-0.000269	-2.688384	-0.910849	-0.021845
 151	7.5000e-02	6.0544	-8.392177	0.001344	13.441921	4.554246	0.109226
 152	7.5500e-02	6.0913	-8.610628	-0.000538	-5.376769	-1.821699	-0.043690
 153	7.6000e-02	6.1298	-8.173726	0.001075	10.753537	3.643397	0.087381
 154	7.6500e-02	6.1506	-7.991683	0.000448	4.480640	1.518082	0.036409
 155	7.7000e-02	6.1988	-8.028091	-0.000090	-0.896128	-0.303616	-0.007282
 156	7.7500e-02	6.2308	-7.700414	0.000807	8.065153	2.732548	0.065535
 157	7.8000e-02	6.2806	-7.773231	-0.000179	-1.792256	-0.607233	-0.014563
 158	7.8500e-02	6.3287	-7.773231	0.000000	0.000000	0.000000	0.000000
 159	7.9000e-02	6.3608	-7.955274	-0.000448	-4.480640	-1.518082	-0.036409
 160	7.9500e-02	6.3945	-7.591188	0.000896	8.961281	3.036164	0.072817
 161	8.0000e-02	6.4667	-7.117877	0.001165	11.649665	3.947013	0.094662
 162	8.0500e-02	6.4763	-7.409145	-0.000717	-7.169025	-2.428931	-0.058254
 163	8.1000e-02	6.4618	-7.190694	-0.000538	-5.376769	-1.821699	0.043690
 164	8.1500e-02	6.5838	-7.045060	0.000358	3.584512	1.214466	0.029127
 165	8.2000e-02	6.6046	-6.571748	0.001165	11.649665	3.947013	0.094662
 166	8.2500e-02	6.6463	-6.790200	-0.000538	-5.376769	-1.821699	-0.043690
 167	8.3000e-02	6.7041	-6.608157	0.000448	4.480640	1.518082	0.036409
 168	8.3500e-02	6.7041	-6.426114	-0.000448	-4.480640	-1.518082	0.036409
 169	8.4000e-02	6.7667	-6.353297	0.000179	1.792256	0.607233	0.014563
 170	8.4500e-02	6.8148	-6.244071	0.000269	2.688384	0.910849	0.021845
 171	8.5000e-02	6.8340	-5.807168	0.001075	10.753537	3.643397	0.087381
 172	8.5500e-02	6.8790	-6.134845	-0.000807	-8.065153	-2.732548	-0.065535
 173	8.6000e-02	6.9560	-5.770759	0.000896	8.961281	3.036164	0.072817
 174	8.6500e-02	6.9656	-5.697942	0.000179	1.792256	0.607233	0.014563
 175	8.7000e-02	6.9929	-5.879985	-0.000448	-4.480640	-1.518082	-0.036409
 176	8.7500e-02	7.0458	-5.151814	0.001792	17.922562	6.072328	0.145634
 177	8.8000e-02	7.1003	-5.625125	-0.001165	-11.649665	-3.947013	-0.094662
 178	8.8500e-02	7.1260	-5.188222	0.001075	10.753537	3.643397	0.087381
 179	8.9000e-02	7.1436	-5.297448	-0.000269	-2.688384	-0.910849	-0.021845
 180	8.9500e-02	7.1918	-4.933362	0.000896	8.961281	3.036164	0.072817
 181	9.0000e-02	7.2495	-4.860545	0.000179	1.792256	0.607233	0.014563
 182	9.0500e-02	7.2993	-4.969771	-0.000269	-2.688384	-0.910849	-0.021845
 183	9.1000e-02	7.3313	-4.824136	0.000358	3.584512	1.214466	0.029127
 184	9.1500e-02	7.3650	-4.714911	0.000269	2.688384	0.910849	0.021845
 185	9.2000e-02	7.4051	-4.350825	0.000896	8.961281	3.036164	0.072817
 186	9.2500e-02	7.4661	-4.095965	0.000627	6.272897	2.125315	0.050972
 187	9.3000e-02	7.4645	-4.314416	0.000538	5.376769	1.821699	-0.043690
 188	9.3500e-02	7.5319	-4.168782	0.000358	3.584512	1.214466	0.029127
 189	9.4000e-02	7.5607	-3.913922	0.000627	6.272897	2.125315	0.050972
 190	9.4500e-02	7.5880	-3.877513	0.000090	0.896128	0.303616	0.007282
 191	9.5000e-02	7.6297	-3.768288	0.000269	2.688384	0.910849	0.021845
 192	9.5500e-02	7.6779	-3.477019	0.000717	7.169025	2.428931	0.058254
 193	9.6000e-02	7.7260	-3.185750	0.000717	7.169025	2.428931	0.058254
 194	9.6500e-02	7.7613	-3.294976	-0.000269	-2.688384	-0.910849	-0.021845
 195	9.7000e-02	7.7869	-3.331385	-0.000090	-0.896128	-0.303616	-0.007282
 196	9.7500e-02	7.8303	-3.040116	0.000717	7.169025	2.428931	0.058254
 197	9.8000e-02	7.8800	-3.331385	-0.000717	-7.169025	-2.428931	-0.058254
 198	9.8500e-02	7.8784	-2.858073	-0.001165	-11.649665	-3.947013	0.094662
 199	9.9000e-02	7.9666	-3.003708	-0.000358	-3.584512	-1.214466	-0.029127
 200	9.9500e-02	8.0308	-2.566805	0.001075	10.753537	3.643397	0.087381
 201	1.0000e-01	8.0340	-2.639622	-0.000179	-1.792256	-0.607233	-0.014563
 202	1.0050e-01	8.0725	-2.275536	0.000896	8.961281	3.036164	0.072817
 203	1.0100e-01	8.1174	-2.311945	-0.000090	-0.896128	-0.303616	-0.007282
 204	1.0150e-01	8.1736	-2.057085	0.000627	6.272897	2.125315	0.050972
 205	1.0200e-01	8.2153	-2.202719	-0.000358	-3.584512	-1.214466	-0.029127
 206	1.0250e-01	8.2554	-1.802225	0.000986	9.857409	3.339781	0.080099
 207	1.0300e-01	8.2714	-1.984267	-0.000448	-4.480640	-1.518082	-0.036409
 208	1.0350e-01	8.3035	-1.474547	0.001255	12.545793	4.250630	0.101944
 209	1.0400e-01	8.3581	-1.510956	-0.000090	-0.896128	-0.303616	-0.007282
 210	1.0450e-01	8.3950	-1.692999	-0.000448	-4.480640	-1.518082	-0.036409
 211	1.0500e-01	8.4591	-1.110462	0.001434	14.338049	4.857863	0.116507
 212	1.0550e-01	8.4736	-1.183279	-0.000179	-1.792256	-0.607233	-0.014563
 213	1.0600e-01	8.5233	-1.438139	-0.000627	-6.272897	-2.125315	-0.050972
 214	1.0650e-01	8.5666	-0.964827	0.001165	11.649665	3.947013	0.094662
 215	1.0700e-01	8.6051	-0.892010	0.000179	1.792256	0.607233	0.014563
 216	1.0750e-01	8.6292	-0.564333	0.000807	8.065153	2.732548	0.065535
 217	1.0800e-01	8.6677	-0.673559	-0.000269	-2.688384	-0.910849	-0.021845
 218	1.0850e-01	8.7046	-0.892010	-0.000538	-5.376769	-1.821699	-0.043690
 219	1.0900e-01	8.7719	-0.455107	0.001075	10.753537	3.643397	0.087381
 220	1.0950e-01	8.8345	-0.491516	-0.000090	-0.896128	-0.303616	-0.007282
 221	1.1000e-01	8.8570	-0.236656	0.000627	6.272897	2.125315	0.050972
 222	1.1050e-01	8.8923	-0.163839	0.000179	1.792256	0.607233	0.014563
 223	1.1100e-01	8.9083	-0.163839	0.000000	0.000000	0.000000	0.000000
 224	1.1150e-01	8.9516	0.054613	0.000538	5.376769	1.821699	0.043690
 225	1.1200e-01	9.0142	0.345881	0.000717	7.169025	2.428931	0.058254
 226	1.1250e-01	9.0254	0.127430	-0.000538	-5.376769	-1.821699	-0.043690
 227	1.1300e-01	9.0880	0.527924	0.000986	9.857409	3.339781	0.080099
 228	1.1350e-01	9.1281	0.491516	-0.000090	-0.896128	-0.303616	-0.007282
 229	1.1400e-01	9.1890	0.455107	-0.000090	-0.896128	-0.303616	-0.007282
 230	1.1450e-01	9.1939	0.637150	0.000448	4.480640	1.518082	0.036409
 231	1.1500e-01	9.2693	1.001236	0.000896	8.961281	3.036164	0.072817
 232	1.1550e-01	9.2917	0.782784	-0.000538	-5.376769	-1.821699	-0.043690
 233	1.1600e-01	9.3447	1.037644	0.000627	6.272897	2.125315	0.050972
 234	1.1650e-01	9.3655	1.219687	0.000448	4.480640	1.518082	0.036409
 235	1.1700e-01	9.4201	1.365322	0.000358	3.584512	1.214466	0.029127
 236	1.1750e-01	9.4361	1.510956	0.000358	3.584512	1.214466	0.029127
 237	1.1800e-01	9.4762	1.365322	-0.000358	-3.584512	-1.214466	-0.029127
 238	1.1850e-01	9.5324	1.765816	0.000986	9.857409	3.339781	0.080099
 239	1.1900e-01	9.5725	1.583773	-0.000448	-4.480640	-1.518082	-0.036409
 240	1.1950e-01	9.6174	1.838633	0.000627	6.272897	2.125315	0.050972
 241	1.2000e-01	9.6479	2.020676	0.000448	4.480640	1.518082	0.036409
 242	1.2050e-01	9.7008	1.911450	-0.000269	-2.688384	-0.910849	-0.021845
 243	1.2100e-01	9.7313	1.984267	0.000179	1.792256	0.607233	0.014563
 244	1.2150e-01	9.7553	2.275536	0.000717	7.169025	2.428931	0.058254
 245	1.2200e-01	9.8372	2.421170	0.000358	3.584512	1.214466	0.029127
 246	1.2250e-01	9.8323	2.530396	-0.000269	-2.688384	-0.910849	0.021845
 247	1.2300e-01	9.8773	2.712439	0.000448	4.480640	1.518082	0.036409
 248	1.2350e-01	9.9142	3.185750	0.001165	11.649665	3.947013	0.094662
 249	1.2400e-01	9.9575	2.858073	-0.000807	-8.065153	-2.732548	-0.065535
 250	1.2450e-01	10.0377	2.967299	0.000269	2.688384	0.910849	0.021845
 251	1.2500e-01	10.0617	3.222159	0.000627	6.272897	2.125315	0.050972
 252	1.2550e-01	10.0954	3.331385	0.000269	2.688384	0.910849	0.021845
 253	1.2600e-01	10.1147	3.149342	-0.000448	-4.480640	-1.518082	-0.036409
 254	1.2650e-01	10.1500	3.477019	0.000807	8.065153	2.732548	0.065535
 255	1.2700e-01	10.2061	3.367793	-0.000269	-2.688384	-0.910849	-0.021845
 256	1.2750e-01	10.2559	3.731879	0.000896	8.961281	3.036164	0.072817
 257	1.2800e-01	10.2992	3.841105	0.000269	2.688384	0.910849	0.021845
 258	1.2850e-01	10.3329	4.059556	0.000538	5.376769	1.821699	0.043690
