»»»»»»»»»»»»»»»»»»»»»»»»»»»»»»»»»»»» Hysteresis ««««««««««««««««««««««««««««««««««««
»»»  Executed Version:	5.48.1
»»»  Vision Version:	5.48.4 (R)
»»»  Vision Compiled:	9/18/24
»»»  Driver Version:	5.47.0
»»»  Windows Version:	Windows 8 or 8.1
»»»  Processor Information:	x86 (AMD or Intel) - 32 Processors
»»»  Tester Name:	PMF21124-494 (100V)
»»»  Tester S/N:	PMF21124-494
»»»  Internal Amp Type:	100V RevK 270k
»»»  Internal Amp S/N:	iAB2-596/K     
»»»  Execution Count:	1
»»»»»»»»»»»»»»»»»»»»»»»»»»»»»»»»»»»»»»»»»»««««««««««««««««««««««««««««««««««««««««««

Stored:	10/10/2025 - 13:40:11
Configured:	10/10/25 10:37:25 AM
Executed:	10/10/25 01:39:02 PM

»»»»»»»»»»»»»»»»»»»»»»»»»»»»»»»»»»» Sample Info ««««««««««««««««««««««««««««««««««««
Sample Name:	Int. Ref. Ferroelectric
Lot Name:	N/A
Wafer Name:	N/A
Die Row/Column:	0/0
Capacitor Number:	0
Sample Area (cm2):	1.00e-04
Sample Thickness (microns):	3.00e-01

Amplifier:	Internal

»»»»»»»»»»»»»»»»»»»»»»»»»»»»»»»»»»» Tester Info «««««««««««««««««««««««««««««««««««
Tester Name:	PMF21124-494 (100V)
Tester Serial Number:	PMF21124-494
Return Signal Amp. Level:	1.9 [Index: 2]

»»»»»»»»»»»»»»»»»»»»»»»»»»»»»»»» Hysteresis Info ««««««««««««««««««««««««««««««««««
Task Name:	Hyst-170
Volts:	20.00
Field:	666.67 (kV/cm)
DCBias:	0.00
DCField:	0.00 (kV/cm)
Hysteresis Period (ms):	1.00e+02
Preset:	Enabled
Preset Delay (ms):	1.00e+03
Profile:	Standard Monopolar

»»»»»»»»»»»»»»»»»»»»»»»»»»»»»»»»»»»»»» Data «««««««««««««««««««««««««««««««««««««««
Points:	2001

Valid Data

Point	Time (ms)	Drive Voltage	Measured Polarization (uC/cm2)	Capacitance (uF)	Normalized Capacitance (uF/cm2)	Dielectric Constant	Instantaneous Current (mA)
   1	0.0000e+00	0.0497	-23.174532	-0.000096	-0.964990	-0.326947	0.000044
   2	5.0000e-02	0.0481	-23.152536	-0.000096	-0.964990	-0.326947	0.000044
   3	1.0000e-01	0.0610	-23.090620	0.000272	2.716268	0.920297	0.000124
   4	1.5000e-01	0.1027	-23.038073	0.000231	2.305254	0.781041	0.000105
   5	2.0000e-01	0.0979	-22.979415	-0.000257	-2.573307	-0.871860	0.000117
   6	2.5000e-01	0.1348	-22.921573	0.000254	2.537566	0.859751	0.000116
   7	3.0000e-01	0.1171	-22.862508	-0.000259	-2.591177	-0.877915	0.000118
   8	3.5000e-01	0.1524	-22.800999	0.000270	2.698398	0.914242	0.000123
   9	4.0000e-01	0.1861	-22.746823	0.000238	2.376735	0.805260	0.000108
  10	4.5000e-01	0.2037	-22.683277	0.000279	2.787749	0.944515	0.000127
  11	5.0000e-01	0.2118	-22.628286	0.000241	2.412475	0.817369	0.000110
  12	5.5000e-01	0.2390	-22.565963	0.000273	2.734139	0.926351	0.000125
  13	6.0000e-01	0.2551	-22.502825	0.000277	2.769879	0.938460	0.000126
  14	6.5000e-01	0.2807	-22.447426	0.000243	2.430345	0.823423	0.000111
  15	7.0000e-01	0.3016	-22.388769	0.000257	2.573307	0.871860	0.000117
  16	7.5000e-01	0.3337	-22.324409	0.000282	2.823489	0.956624	0.000129
  17	8.0000e-01	0.3401	-22.264937	0.000261	2.609047	0.883969	0.000119
  18	8.5000e-01	0.3674	-22.208723	0.000247	2.466086	0.835532	0.000112
  19	9.0000e-01	0.3738	-22.151288	0.000252	2.519696	0.853696	0.000115
  20	9.5000e-01	0.4059	-22.094260	0.000250	2.501826	0.847642	0.000114
  21	1.0000e+00	0.4123	-22.032751	0.000270	2.698398	0.914242	0.000123
  22	1.0500e+00	0.4556	-21.975723	0.000250	2.501826	0.847642	0.000114
  23	1.1000e+00	0.4700	-21.914215	0.000270	2.698398	0.914242	0.000123
  24	1.1500e+00	0.4700	-21.851891	-0.000273	-2.734139	-0.926351	0.000125
  25	1.2000e+00	0.4909	-21.794863	0.000250	2.501826	0.847642	0.000114
  26	1.2500e+00	0.5134	-21.732947	0.000272	2.716268	0.920297	0.000124
  27	1.3000e+00	0.5422	-21.670624	0.000273	2.734139	0.926351	0.000125
  28	1.3500e+00	0.5791	-21.613188	0.000252	2.519696	0.853696	0.000115
  29	1.4000e+00	0.5904	-21.555753	0.000252	2.519696	0.853696	0.000115
  30	1.4500e+00	0.6064	-21.498318	0.000252	2.519696	0.853696	0.000115
  31	1.5000e+00	0.6096	-21.439661	0.000257	2.573307	0.871860	0.000117
  32	1.5500e+00	0.6481	-21.379781	0.000263	2.626917	0.890024	0.000120
  33	1.6000e+00	0.6786	-21.318680	0.000268	2.680528	0.908187	0.000122
  34	1.6500e+00	0.6722	-21.258393	-0.000264	-2.644788	-0.896078	0.000121
  35	1.7000e+00	0.6818	-21.199328	0.000259	2.591177	0.877915	0.000118
  36	1.7500e+00	0.7091	-21.141486	0.000254	2.537566	0.859751	0.000116
  37	1.8000e+00	0.7444	-21.085272	0.000247	2.466086	0.835532	0.000112
  38	1.8500e+00	0.7668	-21.022134	0.000277	2.769879	0.938460	0.000126
  39	1.9000e+00	0.7556	-20.964292	-0.000254	-2.537566	-0.859751	0.000116
  40	1.9500e+00	0.7845	-20.897895	0.000291	2.912840	0.986897	0.000133
  41	2.0000e+00	0.8374	-20.845755	0.000229	2.287384	0.774987	0.000104
  42	2.0500e+00	0.8326	-20.782617	-0.000277	-2.769879	-0.938460	0.000126
  43	2.1000e+00	0.8470	-20.724367	0.000256	2.555437	0.865805	0.000116
  44	2.1500e+00	0.8727	-20.664080	0.000264	2.644788	0.896078	0.000121
  45	2.2000e+00	0.9000	-20.603794	0.000264	2.644788	0.896078	0.000121
  46	2.2500e+00	0.9208	-20.549617	0.000238	2.376735	0.805260	0.000108
  47	2.3000e+00	0.9465	-20.489738	0.000263	2.626917	0.890024	0.000120
  48	2.3500e+00	0.9529	-20.428229	0.000270	2.698398	0.914242	0.000123
  49	2.4000e+00	0.9770	-20.370386	0.000254	2.537566	0.859751	0.000116
  50	2.4500e+00	1.0075	-20.305212	0.000286	2.859230	0.968733	0.000130
  51	2.5000e+00	1.0075	-20.252257	-0.000232	-2.323124	-0.787096	0.000106
  52	2.5500e+00	1.0395	-20.195636	0.000248	2.483956	0.841587	0.000113
  53	2.6000e+00	1.0588	-20.134942	0.000266	2.662658	0.902133	0.000121
  54	2.6500e+00	1.0925	-20.077914	0.000250	2.501826	0.847642	0.000114
  55	2.7000e+00	1.0700	-20.018442	-0.000261	-2.609047	-0.883969	0.000119
  56	2.7500e+00	1.1198	-19.958563	0.000263	2.626917	0.890024	0.000120
  57	2.8000e+00	1.1374	-19.902757	0.000245	2.448216	0.829478	0.000112
  58	2.8500e+00	1.1518	-19.840841	0.000272	2.716268	0.920297	0.000124
  59	2.9000e+00	1.1759	-19.786257	0.000239	2.394605	0.811314	0.000109
  60	2.9500e+00	1.2256	-19.721490	0.000284	2.841360	0.962679	0.000130
  61	3.0000e+00	1.2353	-19.662832	0.000257	2.573307	0.871860	0.000117
  62	3.0500e+00	1.2561	-19.606619	0.000247	2.466086	0.835532	0.000112
  63	3.1000e+00	1.2609	-19.552850	0.000236	2.358865	0.799205	0.000108
  64	3.1500e+00	1.2770	-19.493378	0.000261	2.609047	0.883969	0.000119
  65	3.2000e+00	1.2978	-19.434720	0.000257	2.573307	0.871860	0.000117
  66	3.2500e+00	1.3379	-19.377693	0.000250	2.501826	0.847642	0.000114
  67	3.3000e+00	1.3443	-19.321072	0.000248	2.483956	0.841587	0.000113
  68	3.3500e+00	1.3748	-19.262415	0.000257	2.573307	0.871860	0.000117
  69	3.4000e+00	1.3668	-19.203757	-0.000257	-2.573307	-0.871860	0.000117
  70	3.4500e+00	1.4021	-19.143063	0.000266	2.662658	0.902133	0.000121
  71	3.5000e+00	1.4165	-19.081962	0.000268	2.680528	0.908187	0.000122
  72	3.5500e+00	1.4165	-19.028193	-0.000236	-2.358865	-0.799205	0.000108
  73	3.6000e+00	1.4534	-18.973609	0.000239	2.394605	0.811314	0.000109
  74	3.6500e+00	1.4951	-18.916988	0.000248	2.483956	0.841587	0.000113
  75	3.7000e+00	1.5160	-18.858738	0.000256	2.555437	0.865805	0.000116
  76	3.7500e+00	1.5240	-18.793563	0.000286	2.859230	0.968733	0.000130
  77	3.8000e+00	1.5513	-18.738572	0.000241	2.412475	0.817369	0.000110
  78	3.8500e+00	1.5593	-18.683173	0.000243	2.430345	0.823423	0.000111
  79	3.9000e+00	1.5930	-18.626553	0.000248	2.483956	0.841587	0.000113
  80	3.9500e+00	1.6267	-18.563007	0.000279	2.787749	0.944515	0.000127
  81	4.0000e+00	1.6363	-18.511682	0.000225	2.251643	0.762877	0.000103
  82	4.0500e+00	1.6475	-18.451396	0.000264	2.644788	0.896078	0.000121
  83	4.1000e+00	1.6652	-18.395182	0.000247	2.466086	0.835532	0.000112
  84	4.1500e+00	1.6716	-18.336118	0.000259	2.591177	0.877915	0.000118
  85	4.2000e+00	1.7037	-18.275831	0.000264	2.644788	0.896078	0.000121
  86	4.2500e+00	1.7229	-18.221654	0.000238	2.376735	0.805260	0.000108
  87	4.3000e+00	1.7310	-18.164626	0.000250	2.501826	0.847642	0.000114
  88	4.3500e+00	1.7550	-18.109228	0.000243	2.430345	0.823423	0.000111
  89	4.4000e+00	1.7695	-18.052607	0.000248	2.483956	0.841587	0.000113
  90	4.4500e+00	1.8048	-17.994357	0.000256	2.555437	0.865805	0.000116
  91	4.5000e+00	1.8272	-17.937737	0.000248	2.483956	0.841587	0.000113
  92	4.5500e+00	1.8481	-17.874191	0.000279	2.787749	0.944515	0.000127
  93	4.6000e+00	1.8689	-17.816756	0.000252	2.519696	0.853696	0.000115
  94	4.6500e+00	1.8850	-17.765431	0.000225	2.251643	0.762877	0.000103
  95	4.7000e+00	1.9010	-17.704737	0.000266	2.662658	0.902133	0.000121
  96	4.7500e+00	1.9074	-17.646487	0.000256	2.555437	0.865805	0.000116
  97	4.8000e+00	1.9507	-17.590681	0.000245	2.448216	0.829478	0.000112
  98	4.8500e+00	1.9540	-17.534467	0.000247	2.466086	0.835532	0.000112
  99	4.9000e+00	1.9620	-17.480291	0.000238	2.376735	0.805260	0.000108
 100	4.9500e+00	2.0037	-17.420412	0.000263	2.626917	0.890024	0.000120
 101	5.0000e+00	2.0261	-17.361347	0.000259	2.591177	0.877915	0.000118
 102	5.0500e+00	2.0614	-17.304319	0.000250	2.501826	0.847642	0.000114
 103	5.1000e+00	2.0406	-17.244847	-0.000261	-2.609047	-0.883969	0.000119
 104	5.1500e+00	2.0855	-17.186190	0.000257	2.573307	0.871860	0.000117
 105	5.2000e+00	2.1031	-17.126718	0.000261	2.609047	0.883969	0.000119
 106	5.2500e+00	2.1224	-17.069690	0.000250	2.501826	0.847642	0.000114
 107	5.3000e+00	2.1529	-17.011847	0.000254	2.537566	0.859751	0.000116
 108	5.3500e+00	2.1898	-16.952375	0.000261	2.609047	0.883969	0.000119
 109	5.4000e+00	2.1802	-16.897791	-0.000239	-2.394605	-0.811314	0.000109
 110	5.4500e+00	2.1882	-16.841170	0.000248	2.483956	0.841587	0.000113
 111	5.5000e+00	2.2235	-16.780069	0.000268	2.680528	0.908187	0.000122
 112	5.5500e+00	2.2572	-16.725485	0.000239	2.394605	0.811314	0.000109
 113	5.6000e+00	2.2539	-16.663162	-0.000273	-2.734139	-0.926351	0.000125
 114	5.6500e+00	2.2989	-16.604912	0.000256	2.555437	0.865805	0.000116
 115	5.7000e+00	2.3101	-16.547069	0.000254	2.537566	0.859751	0.000116
 116	5.7500e+00	2.3053	-16.496966	-0.000220	-2.198033	-0.744714	0.000100
 117	5.8000e+00	2.3422	-16.437494	0.000261	2.609047	0.883969	0.000119
 118	5.8500e+00	2.3630	-16.381688	0.000245	2.448216	0.829478	0.000112
 119	5.9000e+00	2.3807	-16.322216	0.000261	2.609047	0.883969	0.000119
 120	5.9500e+00	2.4015	-16.266003	0.000247	2.466086	0.835532	0.000112
 121	6.0000e+00	2.4336	-16.209382	0.000248	2.483956	0.841587	0.000113
 122	6.0500e+00	2.4609	-16.150725	0.000257	2.573307	0.871860	0.000117
 123	6.1000e+00	2.4577	-16.102251	-0.000213	-2.126552	-0.720495	0.000097
 124	6.1500e+00	2.4769	-16.046852	0.000243	2.430345	0.823423	0.000111
 125	6.2000e+00	2.4946	-15.997157	0.000218	2.180163	0.738659	0.000099
 126	6.2500e+00	2.4946	-15.938499	-0.000257	-2.573307	-0.871860	0.000117
 127	6.3000e+00	2.5539	-15.883508	0.000241	2.412475	0.817369	0.000110
 128	6.3500e+00	2.5539	-15.824036	-0.000261	-2.609047	-0.883969	0.000119
 129	6.4000e+00	2.5764	-15.766193	0.000254	2.537566	0.859751	0.000116
 130	6.4500e+00	2.6197	-15.709980	0.000247	2.466086	0.835532	0.000112
 131	6.5000e+00	2.6213	-15.655804	0.000238	2.376735	0.805260	0.000108
 132	6.5500e+00	2.6566	-15.604886	0.000223	2.233773	0.756823	0.000102
 133	6.6000e+00	2.6791	-15.552746	0.000229	2.287384	0.774987	0.000104
 134	6.6500e+00	2.6871	-15.500199	0.000231	2.305254	0.781041	0.000105
 135	6.7000e+00	2.7224	-15.441134	0.000259	2.591177	0.877915	0.000118
 136	6.7500e+00	2.7224	-15.391031	-0.000220	-2.198033	-0.744714	0.000100
 137	6.8000e+00	2.7336	-15.330744	0.000264	2.644788	0.896078	0.000121
 138	6.8500e+00	2.7481	-15.274124	0.000248	2.483956	0.841587	0.000113
 139	6.9000e+00	2.7785	-15.219947	0.000238	2.376735	0.805260	0.000108
 140	6.9500e+00	2.8090	-15.168215	0.000227	2.269514	0.768932	0.000103
 141	7.0000e+00	2.8058	-15.117297	-0.000223	-2.233773	-0.756823	0.000102
 142	7.0500e+00	2.8443	-15.061083	0.000247	2.466086	0.835532	0.000112
 143	7.1000e+00	2.8780	-15.006500	0.000239	2.394605	0.811314	0.000109
 144	7.1500e+00	2.9037	-14.950694	0.000245	2.448216	0.829478	0.000112
 145	7.2000e+00	2.9069	-14.894888	0.000245	2.448216	0.829478	0.000112
 146	7.2500e+00	2.9245	-14.843563	0.000225	2.251643	0.762877	0.000103
 147	7.3000e+00	2.9422	-14.788571	0.000241	2.412475	0.817369	0.000110
 148	7.3500e+00	2.9807	-14.736431	0.000229	2.287384	0.774987	0.000104
 149	7.4000e+00	2.9710	-14.678589	-0.000254	-2.537566	-0.859751	0.000116
 150	7.4500e+00	2.9919	-14.621561	0.000250	2.501826	0.847642	0.000114
 151	7.5000e+00	3.0192	-14.568199	0.000234	2.340994	0.793150	0.000107
 152	7.5500e+00	3.0577	-14.518503	0.000218	2.180163	0.738659	0.000099
 153	7.6000e+00	3.0801	-14.464734	0.000236	2.358865	0.799205	0.000108
 154	7.6500e+00	3.0962	-14.414224	0.000222	2.215903	0.750768	0.000101
 155	7.7000e+00	3.1170	-14.356788	0.000252	2.519696	0.853696	0.000115
 156	7.7500e+00	3.1379	-14.301390	0.000243	2.430345	0.823423	0.000111
 157	7.8000e+00	3.1539	-14.246398	0.000241	2.412475	0.817369	0.000110
 158	7.8500e+00	3.1668	-14.190592	0.000245	2.448216	0.829478	0.000112
 159	7.9000e+00	3.1860	-14.138045	0.000231	2.305254	0.781041	0.000105
 160	7.9500e+00	3.1828	-14.084276	-0.000236	-2.358865	-0.799205	0.000108
 161	8.0000e+00	3.2245	-14.026433	0.000254	2.537566	0.859751	0.000116
 162	8.0500e+00	3.2341	-13.975923	0.000222	2.215903	0.750768	0.000101
 163	8.1000e+00	3.2694	-13.922968	0.000232	2.323124	0.787096	0.000106
 164	8.1500e+00	3.2823	-13.865126	0.000254	2.537566	0.859751	0.000116
 165	8.2000e+00	3.2935	-13.808912	0.000247	2.466086	0.835532	0.000112
 166	8.2500e+00	3.3224	-13.753107	0.000245	2.448216	0.829478	0.000112
 167	8.3000e+00	3.3480	-13.698523	0.000239	2.394605	0.811314	0.000109
 168	8.3500e+00	3.3577	-13.650456	0.000211	2.108682	0.714441	0.000096
 169	8.4000e+00	3.3737	-13.596280	0.000238	2.376735	0.805260	0.000108
 170	8.4500e+00	3.3930	-13.544140	0.000229	2.287384	0.774987	0.000104
 171	8.5000e+00	3.3946	-13.486705	0.000252	2.519696	0.853696	0.000115
 172	8.5500e+00	3.4491	-13.432528	0.000238	2.376735	0.805260	0.000108
 173	8.6000e+00	3.4635	-13.376315	0.000247	2.466086	0.835532	0.000112
 174	8.6500e+00	3.4700	-13.323768	0.000231	2.305254	0.781041	0.000105
 175	8.7000e+00	3.4908	-13.264703	0.000259	2.591177	0.877915	0.000118
 176	8.7500e+00	3.5036	-13.214600	0.000220	2.198033	0.744714	0.000100
 177	8.8000e+00	3.5454	-13.158386	0.000247	2.466086	0.835532	0.000112
 178	8.8500e+00	3.5454	-13.106247	-0.000229	-2.287384	-0.774987	0.000104
 179	8.9000e+00	3.5662	-13.056143	0.000220	2.198033	0.744714	0.000100
 180	8.9500e+00	3.5983	-13.000338	0.000245	2.448216	0.829478	0.000112
 181	9.0000e+00	3.6208	-12.942902	0.000252	2.519696	0.853696	0.000115
 182	9.0500e+00	3.6609	-12.888318	0.000239	2.394605	0.811314	0.000109
 183	9.1000e+00	3.6673	-12.833327	0.000241	2.412475	0.817369	0.000110
 184	9.1500e+00	3.7026	-12.781187	0.000229	2.287384	0.774987	0.000104
 185	9.2000e+00	3.7074	-12.727418	0.000236	2.358865	0.799205	0.000108
 186	9.2500e+00	3.7218	-12.672834	0.000239	2.394605	0.811314	0.000109
 187	9.3000e+00	3.7379	-12.616214	0.000248	2.483956	0.841587	0.000113
 188	9.3500e+00	3.7892	-12.564481	0.000227	2.269514	0.768932	0.000103
 189	9.4000e+00	3.7667	-12.511526	-0.000232	-2.323124	-0.787096	0.000106
 190	9.4500e+00	3.8101	-12.458165	0.000234	2.340994	0.793150	0.000107
 191	9.5000e+00	3.8293	-12.407654	0.000222	2.215903	0.750768	0.000101
 192	9.5500e+00	3.8534	-12.352256	0.000243	2.430345	0.823423	0.000111
 193	9.6000e+00	3.8582	-12.293191	0.000259	2.591177	0.877915	0.000118
 194	9.6500e+00	3.8774	-12.243088	0.000220	2.198033	0.744714	0.000100
 195	9.7000e+00	3.8967	-12.191763	0.000225	2.251643	0.762877	0.000103
 196	9.7500e+00	3.9240	-12.139215	0.000231	2.305254	0.781041	0.000105
 197	9.8000e+00	3.9609	-12.083002	0.000247	2.466086	0.835532	0.000112
 198	9.8500e+00	3.9657	-12.031677	0.000225	2.251643	0.762877	0.000103
 199	9.9000e+00	3.9609	-11.977500	-0.000238	-2.376735	-0.805260	0.000108
 200	9.9500e+00	4.0234	-11.921694	0.000245	2.448216	0.829478	0.000112
 201	1.0000e+01	4.0330	-11.868333	0.000234	2.340994	0.793150	0.000107
 202	1.0050e+01	4.0395	-11.813341	0.000241	2.412475	0.817369	0.000110
 203	1.0100e+01	4.0748	-11.764460	0.000214	2.144422	0.726550	0.000098
 204	1.0150e+01	4.0844	-11.712728	0.000227	2.269514	0.768932	0.000103
 205	1.0200e+01	4.1116	-11.662217	0.000222	2.215903	0.750768	0.000101
 206	1.0250e+01	4.1341	-11.607633	0.000239	2.394605	0.811314	0.000109
 207	1.0300e+01	4.1502	-11.551013	0.000248	2.483956	0.841587	0.000113
 208	1.0350e+01	4.1758	-11.497244	0.000236	2.358865	0.799205	0.000108
 209	1.0400e+01	4.1999	-11.440216	0.000250	2.501826	0.847642	0.000114
 210	1.0450e+01	4.1774	-11.387261	-0.000232	-2.323124	-0.787096	0.000106
 211	1.0500e+01	4.2288	-11.337158	0.000220	2.198033	0.744714	0.000100
 212	1.0550e+01	4.2608	-11.284203	0.000232	2.323124	0.787096	0.000106
 213	1.0600e+01	4.2448	-11.235730	-0.000213	-2.126552	-0.720495	0.000097
 214	1.0650e+01	4.3026	-11.177887	0.000254	2.537566	0.859751	0.000116
 215	1.0700e+01	4.3042	-11.126969	0.000223	2.233773	0.756823	0.000102
 216	1.0750e+01	4.3459	-11.078903	0.000211	2.108682	0.714441	0.000096
 217	1.0800e+01	4.3330	-11.019431	-0.000261	-2.609047	-0.883969	0.000119
 218	1.0850e+01	4.3523	-10.967698	0.000227	2.269514	0.768932	0.000103
 219	1.0900e+01	4.3699	-10.913522	0.000238	2.376735	0.805260	0.000108
 220	1.0950e+01	4.3924	-10.860160	0.000234	2.340994	0.793150	0.000107
 221	1.1000e+01	4.4213	-10.812908	0.000207	2.072942	0.702332	0.000095
 222	1.1050e+01	4.4485	-10.757102	0.000245	2.448216	0.829478	0.000112
 223	1.1100e+01	4.4485	-10.705370	-0.000227	-2.269514	-0.768932	0.000103
 224	1.1150e+01	4.4919	-10.650786	0.000239	2.394605	0.811314	0.000109
 225	1.1200e+01	4.4999	-10.598646	0.000229	2.287384	0.774987	0.000104
 226	1.1250e+01	4.5239	-10.548950	0.000218	2.180163	0.738659	0.000099
 227	1.1300e+01	4.5400	-10.492329	0.000248	2.483956	0.841587	0.000113
 228	1.1350e+01	4.5592	-10.441819	0.000222	2.215903	0.750768	0.000101
 229	1.1400e+01	4.5769	-10.384791	0.000250	2.501826	0.847642	0.000114
 230	1.1450e+01	4.6170	-10.338354	0.000204	2.037201	0.690222	0.000093
 231	1.1500e+01	4.6282	-10.282548	0.000245	2.448216	0.829478	0.000112
 232	1.1550e+01	4.6459	-10.230001	0.000231	2.305254	0.781041	0.000105
 233	1.1600e+01	4.6619	-10.173788	0.000247	2.466086	0.835532	0.000112
 234	1.1650e+01	4.6779	-10.123684	0.000220	2.198033	0.744714	0.000100
 235	1.1700e+01	4.6876	-10.067064	0.000248	2.483956	0.841587	0.000113
 236	1.1750e+01	4.7277	-10.019812	0.000207	2.072942	0.702332	0.000095
 237	1.1800e+01	4.7277	-9.966043	-0.000236	-2.358865	-0.799205	0.000108
 238	1.1850e+01	4.7389	-9.917976	0.000211	2.108682	0.714441	0.000096
 239	1.1900e+01	4.7934	-9.861763	0.000247	2.466086	0.835532	0.000112
 240	1.1950e+01	4.7934	-9.810845	-0.000223	-2.233773	-0.756823	0.000102
 241	1.2000e+01	4.8127	-9.754225	0.000248	2.483956	0.841587	0.000113
 242	1.2050e+01	4.8608	-9.704122	0.000220	2.198033	0.744714	0.000100
 243	1.2100e+01	4.8640	-9.653204	0.000223	2.233773	0.756823	0.000102
 244	1.2150e+01	4.8769	-9.598213	0.000241	2.412475	0.817369	0.000110
 245	1.2200e+01	4.9122	-9.542407	0.000245	2.448216	0.829478	0.000112
 246	1.2250e+01	4.9234	-9.490674	0.000227	2.269514	0.768932	0.000103
 247	1.2300e+01	4.9442	-9.443015	0.000209	2.090812	0.708386	0.000095
 248	1.2350e+01	4.9795	-9.392097	0.000223	2.233773	0.756823	0.000102
 249	1.2400e+01	4.9651	-9.336699	-0.000243	-2.430345	-0.823423	0.000111
 250	1.2450e+01	4.9972	-9.285781	0.000223	2.233773	0.756823	0.000102
 251	1.2500e+01	5.0212	-9.229160	0.000248	2.483956	0.841587	0.000113
 252	1.2550e+01	5.0341	-9.182316	0.000206	2.055071	0.696277	0.000094
 253	1.2600e+01	5.0549	-9.133842	0.000213	2.126552	0.720495	0.000097
 254	1.2650e+01	5.0694	-9.078443	0.000243	2.430345	0.823423	0.000111
 255	1.2700e+01	5.1143	-9.026711	0.000227	2.269514	0.768932	0.000103
 256	1.2750e+01	5.1143	-8.974571	-0.000229	-2.287384	-0.774987	0.000104
 257	1.2800e+01	5.1464	-8.918765	0.000245	2.448216	0.829478	0.000112
 258	1.2850e+01	5.1576	-8.870699	0.000211	2.108682	0.714441	0.000096
 259	1.2900e+01	5.1849	-8.817744	0.000232	2.323124	0.787096	0.000106
 260	1.2950e+01	5.1945	-8.766826	0.000223	2.233773	0.756823	0.000102
