»»»»»»»»»»»»»»»»»»»»»»»»»»»»»»»»»»»» Hysteresis ««««««««««««««««««««««««««««««««««««
»»»  Executed Version:	5.48.1
»»»  Vision Version:	5.48.4 (R)
»»»  Vision Compiled:	9/18/24
»»»  Driver Version:	5.47.0
»»»  Windows Version:	Windows 8 or 8.1
»»»  Processor Information:	x86 (AMD or Intel) - 32 Processors
»»»  Tester Name:	PMF21124-494 (100V)
»»»  Tester S/N:	PMF21124-494
»»»  Internal Amp Type:	100V RevK 270k
»»»  Internal Amp S/N:	iAB2-596/K     
»»»  Execution Count:	1
»»»»»»»»»»»»»»»»»»»»»»»»»»»»»»»»»»»»»»»»»»««««««««««««««««««««««««««««««««««««««««««

Stored:	10/10/2025 - 14:14:50
Configured:	10/10/25 10:37:25 AM
Executed:	10/10/25 02:14:10 PM

»»»»»»»»»»»»»»»»»»»»»»»»»»»»»»»»»»» Sample Info ««««««««««««««««««««««««««««««««««««
Sample Name:	Int. Ref. Ferroelectric
Lot Name:	N/A
Wafer Name:	N/A
Die Row/Column:	0/0
Capacitor Number:	0
Sample Area (cm2):	1.00e-04
Sample Thickness (microns):	3.00e-01

Amplifier:	Internal

»»»»»»»»»»»»»»»»»»»»»»»»»»»»»»»»»»» Tester Info «««««««««««««««««««««««««««««««««««
Tester Name:	PMF21124-494 (100V)
Tester Serial Number:	PMF21124-494
Return Signal Amp. Level:	0.02 [Index: 2]

»»»»»»»»»»»»»»»»»»»»»»»»»»»»»»»» Hysteresis Info ««««««««««««««««««««««««««««««««««
Task Name:	Hyst-170
Volts:	20.00
Field:	666.67 (kV/cm)
DCBias:	0.00
DCField:	0.00 (kV/cm)
Hysteresis Period (ms):	5.00e-01
Preset:	Enabled
Preset Delay (ms):	1.00e+03
Profile:	Standard Monopolar

»»»»»»»»»»»»»»»»»»»»»»»»»»»»»»»»»»»»»» Data «««««««««««««««««««««««««««««««««««««««
Points:	1001

Valid Data

Point	Time (ms)	Drive Voltage	Measured Polarization (uC/cm2)	Capacitance (uF)	Normalized Capacitance (uF/cm2)	Dielectric Constant	Instantaneous Current (mA)
   1	0.0000e+00	0.0257	-35.698610	0.000634	6.338684	2.147604	0.050972
   2	5.0000e-04	0.0561	-35.443750	0.000634	6.338684	2.147604	0.050972
   3	1.0000e-03	0.1139	-35.407341	0.000091	0.905526	0.306801	0.007282
   4	1.5000e-03	0.1877	-35.298115	0.000272	2.716579	0.920402	0.021845
   5	2.0000e-03	0.1973	-35.006847	0.000724	7.244211	2.454405	0.058254
   6	2.5000e-03	0.2310	-35.152481	-0.000362	-3.622105	-1.227202	-0.029127
   7	3.0000e-03	0.2615	-34.387901	0.001902	19.016053	6.442813	0.152916
   8	3.5000e-03	0.3241	-34.788395	-0.000996	-9.960789	-3.374807	-0.080099
   9	4.0000e-03	0.3610	-34.533535	0.000634	6.338684	2.147604	0.050972
  10	4.5000e-03	0.3962	-33.914589	0.001539	15.393947	5.215611	0.123789
  11	5.0000e-03	0.4380	-34.023815	-0.000272	-2.716579	-0.920402	-0.021845
  12	5.5000e-03	0.4604	-33.623321	0.000996	9.960789	3.374807	0.080099
  13	6.0000e-03	0.5085	-33.732547	-0.000272	-2.716579	-0.920402	-0.021845
  14	6.5000e-03	0.5647	-33.332052	0.000996	9.960789	3.374807	0.080099
  15	7.0000e-03	0.5952	-32.967966	0.000906	9.055263	3.068006	0.072817
  16	7.5000e-03	0.6497	-33.113601	-0.000362	-3.622105	-1.227202	-0.029127
  17	8.0000e-03	0.6738	-32.567472	0.001358	13.582895	4.602009	0.109226
  18	8.5000e-03	0.7444	-32.494655	0.000181	1.811053	0.613601	0.014563
  19	9.0000e-03	0.8005	-32.676698	-0.000453	-4.527632	-1.534003	-0.036409
  20	9.5000e-03	0.7893	-32.130569	-0.001358	-13.582895	-4.602009	0.109226
  21	1.0000e-02	0.8358	-32.057752	0.000181	1.811053	0.613601	0.014563
  22	1.0500e-02	0.8727	-31.657258	0.000996	9.960789	3.374807	0.080099
  23	1.1000e-02	0.9385	-31.293172	0.000906	9.055263	3.068006	0.072817
  24	1.1500e-02	0.9433	-31.657258	-0.000906	-9.055263	-3.068006	-0.072817
  25	1.2000e-02	0.9994	-31.293172	0.000906	9.055263	3.068006	0.072817
  26	1.2500e-02	1.0556	-30.965495	0.000815	8.149737	2.761206	0.065535
  27	1.3000e-02	1.0796	-30.419366	0.001358	13.582895	4.602009	0.109226
  28	1.3500e-02	1.1326	-30.601409	-0.000453	-4.527632	-1.534003	-0.036409
  29	1.4000e-02	1.1631	-30.382957	0.000543	5.433158	1.840804	0.043690
  30	1.4500e-02	1.2000	-30.055280	0.000815	8.149737	2.761206	0.065535
  31	1.5000e-02	1.2304	-30.164506	-0.000272	-2.716579	-0.920402	-0.021845
  32	1.5500e-02	1.2818	-29.836829	0.000815	8.149737	2.761206	0.065535
  33	1.6000e-02	1.3331	-29.327109	0.001268	12.677368	4.295209	0.101944
  34	1.6500e-02	1.3636	-29.327109	0.000000	0.000000	0.000000	0.000000
  35	1.7000e-02	1.3780	-29.145066	0.000453	4.527632	1.534003	0.036409
  36	1.7500e-02	1.4149	-28.890206	0.000634	6.338684	2.147604	0.050972
  37	1.8000e-02	1.4967	-28.744572	0.000362	3.622105	1.227202	0.029127
  38	1.8500e-02	1.5417	-28.453303	0.000724	7.244211	2.454405	0.058254
  39	1.9000e-02	1.5465	-28.344077	0.000272	2.716579	0.920402	0.021845
  40	1.9500e-02	1.5962	-28.453303	-0.000272	-2.716579	-0.920402	-0.021845
  41	2.0000e-02	1.6219	-27.834357	0.001539	15.393947	5.215611	0.123789
  42	2.0500e-02	1.6860	-27.979991	-0.000362	-3.622105	-1.227202	-0.029127
  43	2.1000e-02	1.7133	-27.251820	0.001811	18.110526	6.136012	0.145634
  44	2.1500e-02	1.7647	-27.433863	-0.000453	-4.527632	-1.534003	-0.036409
  45	2.2000e-02	1.7887	-27.324637	0.000272	2.716579	0.920402	0.021845
  46	2.2500e-02	1.8385	-27.288228	0.000091	0.905526	0.306801	0.007282
  47	2.3000e-02	1.8898	-27.142594	0.000362	3.622105	1.227202	0.029127
  48	2.3500e-02	1.9074	-26.450831	0.001720	17.205000	5.829212	0.138353
  49	2.4000e-02	1.9716	-26.414423	0.000091	0.905526	0.306801	0.007282
  50	2.4500e-02	2.0197	-26.487240	-0.000181	-1.811053	-0.613601	-0.014563
  51	2.5000e-02	2.0374	-26.232380	0.000634	6.338684	2.147604	0.050972
  52	2.5500e-02	2.0935	-26.086745	0.000362	3.622105	1.227202	0.029127
  53	2.6000e-02	2.0951	-25.795477	0.000724	7.244211	2.454405	0.058254
  54	2.6500e-02	2.1545	-25.649842	0.000362	3.622105	1.227202	0.029127
  55	2.7000e-02	2.2058	-25.322165	0.000815	8.149737	2.761206	0.065535
  56	2.7500e-02	2.2395	-25.467800	-0.000362	-3.622105	-1.227202	-0.029127
  57	2.8000e-02	2.2941	-24.994488	0.001177	11.771842	3.988408	0.094662
  58	2.8500e-02	2.3486	-25.030897	-0.000091	-0.905526	-0.306801	-0.007282
  59	2.9000e-02	2.3951	-24.703219	0.000815	8.149737	2.761206	0.065535
  60	2.9500e-02	2.3999	-24.448359	0.000634	6.338684	2.147604	0.050972
  61	3.0000e-02	2.4465	-24.229908	0.000543	5.433158	1.840804	0.043690
  62	3.0500e-02	2.4769	-24.339134	-0.000272	-2.716579	-0.920402	-0.021845
  63	3.1000e-02	2.5299	-24.084274	0.000634	6.338684	2.147604	0.050972
  64	3.1500e-02	2.5347	-23.975048	0.000272	2.716579	0.920402	0.021845
  65	3.2000e-02	2.5876	-23.465328	0.001268	12.677368	4.295209	0.101944
  66	3.2500e-02	2.6470	-23.610962	-0.000362	-3.622105	-1.227202	-0.029127
  67	3.3000e-02	2.7047	-22.992016	0.001539	15.393947	5.215611	0.123789
  68	3.3500e-02	2.7272	-22.882791	0.000272	2.716579	0.920402	0.021845
  69	3.4000e-02	2.7320	-22.773565	0.000272	2.716579	0.920402	0.021845
  70	3.4500e-02	2.8042	-22.809973	-0.000091	-0.905526	-0.306801	-0.007282
  71	3.5000e-02	2.8347	-22.482296	0.000815	8.149737	2.761206	0.065535
  72	3.5500e-02	2.8732	-22.627931	-0.000362	-3.622105	-1.227202	-0.029127
  73	3.6000e-02	2.9229	-22.008985	0.001539	15.393947	5.215611	0.123789
  74	3.6500e-02	2.9598	-22.118211	-0.000272	-2.716579	-0.920402	-0.021845
  75	3.7000e-02	3.0144	-21.972576	0.000362	3.622105	1.227202	0.029127
  76	3.7500e-02	3.0224	-21.826942	0.000362	3.622105	1.227202	0.029127
  77	3.8000e-02	3.0721	-21.462856	0.000906	9.055263	3.068006	0.072817
  78	3.8500e-02	3.1122	-21.280813	0.000453	4.527632	1.534003	0.036409
  79	3.9000e-02	3.1700	-21.280813	0.000000	0.000000	0.000000	0.000000
  80	3.9500e-02	3.2004	-21.025953	0.000634	6.338684	2.147604	0.050972
  81	4.0000e-02	3.2341	-20.807502	0.000543	5.433158	1.840804	0.043690
  82	4.0500e-02	3.2646	-20.479825	0.000815	8.149737	2.761206	0.065535
  83	4.1000e-02	3.3352	-20.698276	-0.000543	-5.433158	-1.840804	-0.043690
  84	4.1500e-02	3.3641	-20.079330	0.001539	15.393947	5.215611	0.123789
  85	4.2000e-02	3.4074	-19.860879	0.000543	5.433158	1.840804	0.043690
  86	4.2500e-02	3.4379	-19.933696	-0.000181	-1.811053	-0.613601	-0.014563
  87	4.3000e-02	3.4764	-19.678836	0.000634	6.338684	2.147604	0.050972
  88	4.3500e-02	3.5213	-19.788062	-0.000272	-2.716579	-0.920402	-0.021845
  89	4.4000e-02	3.5646	-19.096299	0.001720	17.205000	5.829212	0.138353
  90	4.4500e-02	3.6047	-19.278342	-0.000453	-4.527632	-1.534003	-0.036409
  91	4.5000e-02	3.6641	-18.841439	0.001087	10.866316	3.681607	0.087381
  92	4.5500e-02	3.6705	-19.059890	-0.000543	-5.433158	-1.840804	-0.043690
  93	4.6000e-02	3.7234	-18.513761	0.001358	13.582895	4.602009	0.109226
  94	4.6500e-02	3.7651	-18.477353	0.000091	0.905526	0.306801	0.007282
  95	4.7000e-02	3.8036	-18.550170	-0.000181	-1.811053	-0.613601	-0.014563
  96	4.7500e-02	3.8518	-18.186084	0.000906	9.055263	3.068006	0.072817
  97	4.8000e-02	3.8967	-18.040450	0.000362	3.622105	1.227202	0.029127
  98	4.8500e-02	3.9240	-18.076858	-0.000091	-0.905526	-0.306801	-0.007282
  99	4.9000e-02	3.9657	-17.639956	0.001087	10.866316	3.681607	0.087381
 100	4.9500e-02	4.0026	-17.275870	0.000906	9.055263	3.068006	0.072817
 101	5.0000e-02	4.0411	-17.639956	-0.000906	-9.055263	-3.068006	-0.072817
 102	5.0500e-02	4.0651	-16.984601	0.001630	16.299474	5.522411	0.131071
 103	5.1000e-02	4.1277	-17.021010	-0.000091	-0.905526	-0.306801	-0.007282
 104	5.1500e-02	4.1838	-16.911784	0.000272	2.716579	0.920402	0.021845
 105	5.2000e-02	4.2015	-16.656924	0.000634	6.338684	2.147604	0.050972
 106	5.2500e-02	4.2400	-16.511290	0.000362	3.622105	1.227202	0.029127
 107	5.3000e-02	4.3122	-16.292838	0.000543	5.433158	1.840804	0.043690
 108	5.3500e-02	4.3138	-15.928752	0.000906	9.055263	3.068006	0.072817
 109	5.4000e-02	4.3635	-16.147204	-0.000543	-5.433158	-1.840804	-0.043690
 110	5.4500e-02	4.3860	-15.601075	0.001358	13.582895	4.602009	0.109226
 111	5.5000e-02	4.4325	-15.491849	0.000272	2.716579	0.920402	0.021845
 112	5.5500e-02	4.4854	-15.419032	0.000181	1.811053	0.613601	0.014563
 113	5.6000e-02	4.5336	-15.309807	0.000272	2.716579	0.920402	0.021845
 114	5.6500e-02	4.5737	-14.945721	0.000906	9.055263	3.068006	0.072817
 115	5.7000e-02	4.5993	-15.127764	-0.000453	-4.527632	-1.534003	-0.036409
 116	5.7500e-02	4.6459	-14.545226	0.001449	14.488421	4.908810	0.116507
 117	5.8000e-02	4.6715	-14.363184	0.000453	4.527632	1.534003	0.036409
 118	5.8500e-02	4.7132	-14.290366	0.000181	1.811053	0.613601	0.014563
 119	5.9000e-02	4.7678	-14.217549	0.000181	1.811053	0.613601	0.014563
 120	5.9500e-02	4.8095	-14.071915	0.000362	3.622105	1.227202	0.029127
 121	6.0000e-02	4.8336	-14.071915	0.000000	0.000000	0.000000	0.000000
 122	6.0500e-02	4.8721	-13.635012	0.001087	10.866316	3.681607	0.087381
 123	6.1000e-02	4.9073	-13.525786	0.000272	2.716579	0.920402	0.021845
 124	6.1500e-02	4.9635	-13.744238	-0.000543	-5.433158	-1.840804	-0.043690
 125	6.2000e-02	5.0020	-12.906841	0.002083	20.827105	7.056414	0.167479
 126	6.2500e-02	5.0116	-13.307335	-0.000996	-9.960789	-3.374807	-0.080099
 127	6.3000e-02	5.0742	-13.125292	0.000453	4.527632	1.534003	0.036409
 128	6.3500e-02	5.1448	-12.834023	0.000724	7.244211	2.454405	0.058254
 129	6.4000e-02	5.1576	-12.579163	0.000634	6.338684	2.147604	0.050972
 130	6.4500e-02	5.2154	-12.688389	-0.000272	-2.716579	-0.920402	-0.021845
 131	6.5000e-02	5.2266	-12.251486	0.001087	10.866316	3.681607	0.087381
 132	6.5500e-02	5.2715	-12.105852	0.000362	3.622105	1.227202	0.029127
 133	6.6000e-02	5.3212	-11.923809	0.000453	4.527632	1.534003	0.036409
 134	6.6500e-02	5.3565	-11.632540	0.000724	7.244211	2.454405	0.058254
 135	6.7000e-02	5.4063	-11.960218	-0.000815	-8.149737	-2.761206	-0.065535
 136	6.7500e-02	5.4351	-11.268455	0.001720	17.205000	5.829212	0.138353
 137	6.8000e-02	5.4640	-11.414089	-0.000362	-3.622105	-1.227202	-0.029127
 138	6.8500e-02	5.5218	-11.122820	0.000724	7.244211	2.454405	0.058254
 139	6.9000e-02	5.5442	-11.050003	0.000181	1.811053	0.613601	0.014563
 140	6.9500e-02	5.5940	-10.722326	0.000815	8.149737	2.761206	0.065535
 141	7.0000e-02	5.6373	-10.940777	-0.000543	-5.433158	-1.840804	-0.043690
 142	7.0500e-02	5.6597	-10.613100	0.000815	8.149737	2.761206	0.065535
 143	7.1000e-02	5.7239	-10.249014	0.000906	9.055263	3.068006	0.072817
 144	7.1500e-02	5.7512	-10.139789	0.000272	2.716579	0.920402	0.021845
 145	7.2000e-02	5.7833	-9.812111	0.000815	8.149737	2.761206	0.065535
 146	7.2500e-02	5.8490	-9.848520	-0.000091	-0.905526	-0.306801	-0.007282
 147	7.3000e-02	5.9004	-9.630069	0.000543	5.433158	1.840804	0.043690
 148	7.3500e-02	5.9068	-9.484434	0.000362	3.622105	1.227202	0.029127
 149	7.4000e-02	5.9694	-9.156757	0.000815	8.149737	2.761206	0.065535
 150	7.4500e-02	5.9838	-9.265983	-0.000272	-2.716579	-0.920402	-0.021845
 151	7.5000e-02	6.0303	-8.683446	0.001449	14.488421	4.908810	0.116507
 152	7.5500e-02	6.0816	-8.938306	-0.000634	-6.338684	-2.147604	-0.050972
 153	7.6000e-02	6.0929	-8.974714	-0.000091	-0.905526	-0.306801	-0.007282
 154	7.6500e-02	6.1554	-8.501403	0.001177	11.771842	3.988408	0.094662
 155	7.7000e-02	6.1955	-8.647037	-0.000362	-3.622105	-1.227202	-0.029127
 156	7.7500e-02	6.2292	-8.210134	0.001087	10.866316	3.681607	0.087381
 157	7.8000e-02	6.2629	-8.319360	-0.000272	-2.716579	-0.920402	-0.021845
 158	7.8500e-02	6.3335	-7.955274	0.000906	9.055263	3.068006	0.072817
 159	7.9000e-02	6.3367	-8.028091	-0.000181	-1.811053	-0.613601	-0.014563
 160	7.9500e-02	6.4057	-7.445554	0.001449	14.488421	4.908810	0.116507
 161	8.0000e-02	6.4474	-7.481963	-0.000091	-0.905526	-0.306801	-0.007282
 162	8.0500e-02	6.4779	-7.336328	0.000362	3.622105	1.227202	0.029127
 163	8.1000e-02	6.4875	-7.227103	0.000272	2.716579	0.920402	0.021845
 164	8.1500e-02	6.5308	-6.899425	0.000815	8.149737	2.761206	0.065535
 165	8.2000e-02	6.5934	-6.863017	0.000091	0.905526	0.306801	0.007282
 166	8.2500e-02	6.6544	-6.462522	0.000996	9.960789	3.374807	0.080099
 167	8.3000e-02	6.6656	-6.571748	-0.000272	-2.716579	-0.920402	-0.021845
 168	8.3500e-02	6.7249	-6.244071	0.000815	8.149737	2.761206	0.065535
 169	8.4000e-02	6.7667	-5.770759	0.001177	11.771842	3.988408	0.094662
 170	8.4500e-02	6.8228	-6.207662	-0.001087	-10.866316	-3.681607	-0.087381
 171	8.5000e-02	6.8533	-5.916394	0.000724	7.244211	2.454405	0.058254
 172	8.5500e-02	6.8757	-5.734351	0.000453	4.527632	1.534003	0.036409
 173	8.6000e-02	6.9110	-5.807168	-0.000181	-1.811053	-0.613601	-0.014563
 174	8.6500e-02	6.9511	-5.078996	0.001811	18.110526	6.136012	0.145634
 175	8.7000e-02	6.9656	-5.224631	-0.000362	-3.622105	-1.227202	-0.029127
 176	8.7500e-02	7.0378	-5.188222	0.000091	0.905526	0.306801	0.007282
 177	8.8000e-02	7.0699	-5.261039	-0.000181	-1.811053	-0.613601	-0.014563
 178	8.8500e-02	7.1180	-5.115405	0.000362	3.622105	1.227202	0.029127
 179	8.9000e-02	7.1565	-4.423642	0.001720	17.205000	5.829212	0.138353
 180	8.9500e-02	7.2239	-4.642094	-0.000543	-5.433158	-1.840804	-0.043690
 181	9.0000e-02	7.2303	-4.023148	0.001539	15.393947	5.215611	0.123789
 182	9.0500e-02	7.2575	-4.350825	-0.000815	-8.149737	-2.761206	-0.065535
 183	9.1000e-02	7.2912	-4.095965	0.000634	6.338684	2.147604	0.050972
 184	9.1500e-02	7.3538	-3.731879	0.000906	9.055263	3.068006	0.072817
 185	9.2000e-02	7.3875	-3.659062	0.000181	1.811053	0.613601	0.014563
 186	9.2500e-02	7.4372	-3.440611	0.000543	5.433158	1.840804	0.043690
 187	9.3000e-02	7.4757	-3.040116	0.000996	9.960789	3.374807	0.080099
 188	9.3500e-02	7.4950	-3.404202	-0.000906	-9.055263	-3.068006	-0.072817
 189	9.4000e-02	7.5768	-3.112933	0.000724	7.244211	2.454405	0.058254
 190	9.4500e-02	7.6153	-2.930890	0.000453	4.527632	1.534003	0.036409
 191	9.5000e-02	7.6474	-2.785256	0.000362	3.622105	1.227202	0.029127
 192	9.5500e-02	7.6666	-2.712439	0.000181	1.811053	0.613601	0.014563
 193	9.6000e-02	7.7260	-2.566805	0.000362	3.622105	1.227202	0.029127
 194	9.6500e-02	7.7661	-2.202719	0.000906	9.055263	3.068006	0.072817
 195	9.7000e-02	7.8110	-2.166310	0.000091	0.905526	0.306801	0.007282
 196	9.7500e-02	7.8672	-1.911450	0.000634	6.338684	2.147604	0.050972
 197	9.8000e-02	7.9073	-1.911450	0.000000	0.000000	0.000000	0.000000
 198	9.8500e-02	7.9377	-1.875042	0.000091	0.905526	0.306801	0.007282
 199	9.9000e-02	7.9474	-1.656590	0.000543	5.433158	1.840804	0.043690
 200	9.9500e-02	7.9410	-1.474547	-0.000453	-4.527632	-1.534003	0.036409
 201	1.0000e-01	8.0404	-1.510956	-0.000091	-0.905526	-0.306801	-0.007282
 202	1.0050e-01	8.0789	-1.219687	0.000724	7.244211	2.454405	0.058254
 203	1.0100e-01	8.1303	-1.183279	0.000091	0.905526	0.306801	0.007282
 204	1.0150e-01	8.1559	-0.709967	0.001177	11.771842	3.988408	0.094662
 205	1.0200e-01	8.2153	-0.855602	-0.000362	-3.622105	-1.227202	-0.029127
 206	1.0250e-01	8.2217	-0.309473	0.001358	13.582895	4.602009	0.109226
 207	1.0300e-01	8.2746	-0.236656	0.000181	1.811053	0.613601	0.014563
 208	1.0350e-01	8.3212	-0.309473	-0.000181	-1.811053	-0.613601	-0.014563
 209	1.0400e-01	8.3725	-0.018204	0.000724	7.244211	2.454405	0.058254
 210	1.0450e-01	8.3837	0.127430	0.000362	3.622105	1.227202	0.029127
 211	1.0500e-01	8.4543	0.163839	0.000091	0.905526	0.306801	0.007282
 212	1.0550e-01	8.4848	0.091021	-0.000181	-1.811053	-0.613601	-0.014563
 213	1.0600e-01	8.5089	0.637150	0.001358	13.582895	4.602009	0.109226
 214	1.0650e-01	8.5730	0.782784	0.000362	3.622105	1.227202	0.029127
 215	1.0700e-01	8.6179	0.892010	0.000272	2.716579	0.920402	0.021845
 216	1.0750e-01	8.6709	0.564333	-0.000815	-8.149737	-2.761206	-0.065535
 217	1.0800e-01	8.6580	1.074053	-0.001268	-12.677368	-4.295209	0.101944
 218	1.0850e-01	8.7158	1.146870	0.000181	1.811053	0.613601	0.014563
 219	1.0900e-01	8.7527	1.183279	0.000091	0.905526	0.306801	0.007282
 220	1.0950e-01	8.7960	1.802225	0.001539	15.393947	5.215611	0.123789
 221	1.1000e-01	8.8393	1.292504	-0.001268	-12.677368	-4.295209	-0.101944
 222	1.1050e-01	8.8682	1.692999	0.000996	9.960789	3.374807	0.080099
 223	1.1100e-01	8.9131	1.947859	0.000634	6.338684	2.147604	0.050972
 224	1.1150e-01	8.9388	2.239127	0.000724	7.244211	2.454405	0.058254
 225	1.1200e-01	8.9869	2.202719	-0.000091	-0.905526	-0.306801	-0.007282
 226	1.1250e-01	9.0399	2.493988	0.000724	7.244211	2.454405	0.058254
 227	1.1300e-01	9.0912	2.421170	-0.000181	-1.811053	-0.613601	-0.014563
 228	1.1350e-01	9.1233	2.748848	0.000815	8.149737	2.761206	0.065535
 229	1.1400e-01	9.1634	2.712439	-0.000091	-0.905526	-0.306801	-0.007282
 230	1.1450e-01	9.2051	3.003708	0.000724	7.244211	2.454405	0.058254
 231	1.1500e-01	9.2436	2.967299	-0.000091	-0.905526	-0.306801	-0.007282
 232	1.1550e-01	9.2805	3.294976	0.000815	8.149737	2.761206	0.065535
 233	1.1600e-01	9.3254	3.331385	0.000091	0.905526	0.306801	0.007282
 234	1.1650e-01	9.3655	3.477019	0.000362	3.622105	1.227202	0.029127
 235	1.1700e-01	9.4217	3.659062	0.000453	4.527632	1.534003	0.036409
 236	1.1750e-01	9.4297	3.440611	-0.000543	-5.433158	-1.840804	-0.043690
 237	1.1800e-01	9.5051	4.023148	0.001449	14.488421	4.908810	0.116507
 238	1.1850e-01	9.5275	4.350825	0.000815	8.149737	2.761206	0.065535
 239	1.1900e-01	9.5692	4.059556	-0.000724	-7.244211	-2.454405	-0.058254
 240	1.1950e-01	9.6078	4.168782	0.000272	2.716579	0.920402	0.021845
 241	1.2000e-01	9.6350	4.569276	0.000996	9.960789	3.374807	0.080099
 242	1.2050e-01	9.6815	4.496459	-0.000181	-1.811053	-0.613601	-0.014563
 243	1.2100e-01	9.7409	4.969771	0.001177	11.771842	3.988408	0.094662
 244	1.2150e-01	9.7425	5.078996	0.000272	2.716579	0.920402	0.021845
 245	1.2200e-01	9.8163	4.896954	-0.000453	-4.527632	-1.534003	-0.036409
 246	1.2250e-01	9.8516	5.370265	0.001177	11.771842	3.988408	0.094662
 247	1.2300e-01	9.8821	5.443082	0.000181	1.811053	0.613601	0.014563
 248	1.2350e-01	9.9270	5.843577	0.000996	9.960789	3.374807	0.080099
 249	1.2400e-01	9.9559	5.443082	-0.000996	-9.960789	-3.374807	-0.080099
 250	1.2450e-01	10.0184	6.062028	0.001539	15.393947	5.215611	0.123789
 251	1.2500e-01	10.0569	6.171254	0.000272	2.716579	0.920402	0.021845
 252	1.2550e-01	10.0858	5.625125	-0.001358	-13.582895	-4.602009	-0.109226
 253	1.2600e-01	10.1131	6.462522	0.002083	20.827105	7.056414	0.167479
 254	1.2650e-01	10.1724	6.535340	0.000181	1.811053	0.613601	0.014563
 255	1.2700e-01	10.2013	6.316888	-0.000543	-5.433158	-1.840804	-0.043690
 256	1.2750e-01	10.2446	6.717382	0.000996	9.960789	3.374807	0.080099
 257	1.2800e-01	10.2815	6.899425	0.000453	4.527632	1.534003	0.036409
 258	1.2850e-01	10.3008	6.680974	-0.000543	-5.433158	-1.840804	-0.043690
 259	1.2900e-01	10.3633	7.081468	0.000996	9.960789	3.374807	0.080099
