»»»»»»»»»»»»»»»»»»»»»»»»»»»»»»»»»»»» Hysteresis ««««««««««««««««««««««««««««««««««««
»»»  Executed Version:	5.48.1
»»»  Vision Version:	5.48.4 (R)
»»»  Vision Compiled:	9/18/24
»»»  Driver Version:	5.47.0
»»»  Windows Version:	Windows 8 or 8.1
»»»  Processor Information:	x86 (AMD or Intel) - 32 Processors
»»»  Tester Name:	PMF21124-494 (100V)
»»»  Tester S/N:	PMF21124-494
»»»  Internal Amp Type:	100V RevK 270k
»»»  Internal Amp S/N:	iAB2-596/K     
»»»  Execution Count:	1
»»»»»»»»»»»»»»»»»»»»»»»»»»»»»»»»»»»»»»»»»»««««««««««««««««««««««««««««««««««««««««««

Stored:	10/10/2025 - 13:56:17
Configured:	10/10/25 10:37:25 AM
Executed:	10/10/25 01:55:52 PM

»»»»»»»»»»»»»»»»»»»»»»»»»»»»»»»»»»» Sample Info ««««««««««««««««««««««««««««««««««««
Sample Name:	Int. Ref. Ferroelectric
Lot Name:	N/A
Wafer Name:	N/A
Die Row/Column:	0/0
Capacitor Number:	0
Sample Area (cm2):	1.00e-04
Sample Thickness (microns):	3.00e-01

Amplifier:	Internal

»»»»»»»»»»»»»»»»»»»»»»»»»»»»»»»»»»» Tester Info «««««««««««««««««««««««««««««««««««
Tester Name:	PMF21124-494 (100V)
Tester Serial Number:	PMF21124-494
Return Signal Amp. Level:	0.02 [Index: 2]

»»»»»»»»»»»»»»»»»»»»»»»»»»»»»»»» Hysteresis Info ««««««««««««««««««««««««««««««««««
Task Name:	Hyst-170
Volts:	20.00
Field:	666.67 (kV/cm)
DCBias:	0.00
DCField:	0.00 (kV/cm)
Hysteresis Period (ms):	5.00e-01
Preset:	Enabled
Preset Delay (ms):	1.00e+03
Profile:	Standard Monopolar

»»»»»»»»»»»»»»»»»»»»»»»»»»»»»»»»»»»»»» Data «««««««««««««««««««««««««««««««««««««««
Points:	1001

Valid Data

Point	Time (ms)	Drive Voltage	Measured Polarization (uC/cm2)	Capacitance (uF)	Normalized Capacitance (uF/cm2)	Dielectric Constant	Instantaneous Current (mA)
   1	0.0000e+00	0.0417	-35.225298	-0.000181	-1.812792	-0.614191	-0.014563
   2	5.0000e-04	0.0449	-35.298115	-0.000181	-1.812792	-0.614191	-0.014563
   3	1.0000e-03	0.1251	-34.897621	0.000997	9.970356	3.378048	0.080099
   4	1.5000e-03	0.1476	-34.569944	0.000816	8.157564	2.763858	0.065535
   5	2.0000e-03	0.1797	-34.824804	-0.000634	-6.344772	-2.149667	-0.050972
   6	2.5000e-03	0.2438	-34.242267	0.001450	14.502336	4.913524	0.116507
   7	3.0000e-03	0.2711	-34.606352	-0.000906	-9.063960	-3.070953	-0.072817
   8	3.5000e-03	0.3369	-33.878181	0.001813	18.127920	6.141906	0.145634
   9	4.0000e-03	0.3337	-33.841772	-0.000091	-0.906396	-0.307095	0.007282
  10	4.5000e-03	0.4091	-33.586912	0.000634	6.344772	2.149667	0.050972
  11	5.0000e-03	0.4540	-33.696138	-0.000272	-2.719188	-0.921286	-0.021845
  12	5.5000e-03	0.4716	-33.404869	0.000725	7.251168	2.456762	0.058254
  13	6.0000e-03	0.5214	-33.332052	0.000181	1.812792	0.614191	0.014563
  14	6.5000e-03	0.5631	-32.895149	0.001088	10.876752	3.685143	0.087381
  15	7.0000e-03	0.6305	-33.004375	-0.000272	-2.719188	-0.921286	-0.021845
  16	7.5000e-03	0.6337	-32.713106	0.000725	7.251168	2.456762	0.058254
  17	8.0000e-03	0.6978	-32.385429	0.000816	8.157564	2.763858	0.065535
  18	8.5000e-03	0.7460	-32.276203	0.000272	2.719188	0.921286	0.021845
  19	9.0000e-03	0.7604	-32.021343	0.000634	6.344772	2.149667	0.050972
  20	9.5000e-03	0.7941	-31.802892	0.000544	5.438376	1.842572	0.043690
  21	1.0000e-02	0.8679	-31.657258	0.000363	3.625584	1.228381	0.029127
  22	1.0500e-02	0.8839	-31.548032	0.000272	2.719188	0.921286	0.021845
  23	1.1000e-02	0.9128	-31.548032	0.000000	0.000000	0.000000	0.000000
  24	1.1500e-02	0.9529	-31.183946	0.000906	9.063960	3.070953	0.072817
  25	1.2000e-02	0.9930	-30.637818	0.001360	13.595940	4.606429	0.109226
  26	1.2500e-02	1.0460	-31.147538	-0.001269	-12.689544	-4.299334	-0.101944
  27	1.3000e-02	1.0716	-30.710635	0.001088	10.876752	3.685143	0.087381
  28	1.3500e-02	1.1085	-30.419366	0.000725	7.251168	2.456762	0.058254
  29	1.4000e-02	1.1550	-30.164506	0.000634	6.344772	2.149667	0.050972
  30	1.4500e-02	1.2144	-30.128097	0.000091	0.906396	0.307095	0.007282
  31	1.5000e-02	1.2465	-29.764012	0.000906	9.063960	3.070953	0.072817
  32	1.5500e-02	1.2770	-29.654786	0.000272	2.719188	0.921286	0.021845
  33	1.6000e-02	1.3363	-29.509152	0.000363	3.625584	1.228381	0.029127
  34	1.6500e-02	1.3700	-29.217883	0.000725	7.251168	2.456762	0.058254
  35	1.7000e-02	1.3925	-29.181474	0.000091	0.906396	0.307095	0.007282
  36	1.7500e-02	1.4486	-28.999432	0.000453	4.531980	1.535476	0.036409
  37	1.8000e-02	1.4615	-28.598937	0.000997	9.970356	3.378048	0.080099
  38	1.8500e-02	1.5112	-28.562529	0.000091	0.906396	0.307095	0.007282
  39	1.9000e-02	1.5834	-28.162034	0.000997	9.970356	3.378048	0.080099
  40	1.9500e-02	1.5962	-28.307669	-0.000363	-3.625584	-1.228381	-0.029127
  41	2.0000e-02	1.6363	-28.016400	0.000725	7.251168	2.456762	0.058254
  42	2.0500e-02	1.6909	-28.052809	-0.000091	-0.906396	-0.307095	-0.007282
  43	2.1000e-02	1.7582	-27.907174	0.000363	3.625584	1.228381	0.029127
  44	2.1500e-02	1.7598	-27.324637	0.001450	14.502336	4.913524	0.116507
  45	2.2000e-02	1.8192	-27.142594	0.000453	4.531980	1.535476	0.036409
  46	2.2500e-02	1.8320	-27.433863	-0.000725	-7.251168	-2.456762	-0.058254
  47	2.3000e-02	1.8866	-27.251820	0.000453	4.531980	1.535476	0.036409
  48	2.3500e-02	1.9347	-26.742100	0.001269	12.689544	4.299334	0.101944
  49	2.4000e-02	1.9636	-26.996960	-0.000634	-6.344772	-2.149667	-0.050972
  50	2.4500e-02	2.0053	-26.523648	0.001178	11.783148	3.992239	0.094662
  51	2.5000e-02	2.0358	-26.378014	0.000363	3.625584	1.228381	0.029127
  52	2.5500e-02	2.0791	-26.378014	0.000000	0.000000	0.000000	0.000000
  53	2.6000e-02	2.1208	-25.831885	0.001360	13.595940	4.606429	0.109226
  54	2.6500e-02	2.1336	-25.649842	0.000453	4.531980	1.535476	0.036409
  55	2.7000e-02	2.2074	-25.831885	-0.000453	-4.531980	-1.535476	-0.036409
  56	2.7500e-02	2.2299	-25.358574	0.001178	11.783148	3.992239	0.094662
  57	2.8000e-02	2.2941	-25.322165	0.000091	0.906396	0.307095	0.007282
  58	2.8500e-02	2.3117	-24.703219	0.001541	15.408732	5.220620	0.123789
  59	2.9000e-02	2.3534	-24.776037	-0.000181	-1.812792	-0.614191	-0.014563
  60	2.9500e-02	2.4112	-24.666811	0.000272	2.719188	0.921286	0.021845
  61	3.0000e-02	2.4545	-24.302725	0.000906	9.063960	3.070953	0.072817
  62	3.0500e-02	2.4801	-24.703219	-0.000997	-9.970356	-3.378048	-0.080099
  63	3.1000e-02	2.4914	-23.975048	0.001813	18.127920	6.141906	0.145634
  64	3.1500e-02	2.5748	-24.266317	-0.000725	-7.251168	-2.456762	-0.058254
  65	3.2000e-02	2.5908	-23.938639	0.000816	8.157564	2.763858	0.065535
  66	3.2500e-02	2.6486	-23.829414	0.000272	2.719188	0.921286	0.021845
  67	3.3000e-02	2.6727	-23.501736	0.000816	8.157564	2.763858	0.065535
  68	3.3500e-02	2.7400	-23.064834	0.001088	10.876752	3.685143	0.087381
  69	3.4000e-02	2.7866	-23.501736	-0.001088	-10.876752	-3.685143	-0.087381
  70	3.4500e-02	2.7930	-23.028425	0.001178	11.783148	3.992239	0.094662
  71	3.5000e-02	2.8443	-23.174059	-0.000363	-3.625584	-1.228381	-0.029127
  72	3.5500e-02	2.8876	-22.700748	0.001178	11.783148	3.992239	0.094662
  73	3.6000e-02	2.9181	-22.373071	0.000816	8.157564	2.763858	0.065535
  74	3.6500e-02	2.9598	-22.482296	-0.000272	-2.719188	-0.921286	-0.021845
  75	3.7000e-02	2.9871	-22.409479	0.000181	1.812792	0.614191	0.014563
  76	3.7500e-02	3.0577	-22.081802	0.000816	8.157564	2.763858	0.065535
  77	3.8000e-02	3.0849	-21.826942	0.000634	6.344772	2.149667	0.050972
  78	3.8500e-02	3.1299	-21.426448	0.000997	9.970356	3.378048	0.080099
  79	3.9000e-02	3.1700	-21.681308	-0.000634	-6.344772	-2.149667	-0.050972
  80	3.9500e-02	3.2020	-21.462856	0.000544	5.438376	1.842572	0.043690
  81	4.0000e-02	3.2325	-21.098770	0.000906	9.063960	3.070953	0.072817
  82	4.0500e-02	3.2919	-21.062362	0.000091	0.906396	0.307095	0.007282
  83	4.1000e-02	3.3336	-20.771093	0.000725	7.251168	2.456762	0.058254
  84	4.1500e-02	3.3657	-20.516233	0.000634	6.344772	2.149667	0.050972
  85	4.2000e-02	3.4138	-20.370599	0.000363	3.625584	1.228381	0.029127
  86	4.2500e-02	3.4667	-20.297782	0.000181	1.812792	0.614191	0.014563
  87	4.3000e-02	3.4972	-20.370599	-0.000181	-1.812792	-0.614191	-0.014563
  88	4.3500e-02	3.5309	-19.751653	0.001541	15.408732	5.220620	0.123789
  89	4.4000e-02	3.5662	-19.642427	0.000272	2.719188	0.921286	0.021845
  90	4.4500e-02	3.6063	-19.788062	-0.000363	-3.625584	-1.228381	-0.029127
  91	4.5000e-02	3.6400	-19.533202	0.000634	6.344772	2.149667	0.050972
  92	4.5500e-02	3.6785	-19.496793	0.000091	0.906396	0.307095	0.007282
  93	4.6000e-02	3.7202	-18.841439	0.001632	16.315128	5.527715	0.131071
  94	4.6500e-02	3.7683	-19.023481	-0.000453	-4.531980	-1.535476	-0.036409
  95	4.7000e-02	3.7732	-18.732213	0.000725	7.251168	2.456762	0.058254
  96	4.7500e-02	3.8373	-18.805030	-0.000181	-1.812792	-0.614191	-0.014563
  97	4.8000e-02	3.8903	-18.477353	0.000816	8.157564	2.763858	0.065535
  98	4.8500e-02	3.9320	-18.477353	0.000000	0.000000	0.000000	0.000000
  99	4.9000e-02	3.9544	-17.967633	0.001269	12.689544	4.299334	0.101944
 100	4.9500e-02	3.9833	-17.749181	0.000544	5.438376	1.842572	0.043690
 101	5.0000e-02	4.0298	-17.967633	-0.000544	-5.438376	-1.842572	-0.043690
 102	5.0500e-02	4.0699	-17.894816	0.000181	1.812792	0.614191	0.014563
 103	5.1000e-02	4.1277	-17.676364	0.000544	5.438376	1.842572	0.043690
 104	5.1500e-02	4.1614	-17.312278	0.000906	9.063960	3.070953	0.072817
 105	5.2000e-02	4.1935	-17.385096	-0.000181	-1.812792	-0.614191	-0.014563
 106	5.2500e-02	4.2336	-16.875375	0.001269	12.689544	4.299334	0.101944
 107	5.3000e-02	4.3026	-17.093827	-0.000544	-5.438376	-1.842572	-0.043690
 108	5.3500e-02	4.3058	-16.838967	0.000634	6.344772	2.149667	0.050972
 109	5.4000e-02	4.3507	-16.474881	0.000906	9.063960	3.070953	0.072817
 110	5.4500e-02	4.4036	-16.474881	0.000000	0.000000	0.000000	0.000000
 111	5.5000e-02	4.4325	-16.402064	0.000181	1.812792	0.614191	0.014563
 112	5.5500e-02	4.4854	-16.147204	0.000634	6.344772	2.149667	0.050972
 113	5.6000e-02	4.5175	-15.673892	0.001178	11.783148	3.992239	0.094662
 114	5.6500e-02	4.5624	-15.637484	0.000091	0.906396	0.307095	0.007282
 115	5.7000e-02	4.6106	-15.491849	0.000363	3.625584	1.228381	0.029127
 116	5.7500e-02	4.6298	-15.455441	0.000091	0.906396	0.307095	0.007282
 117	5.8000e-02	4.7116	-15.273398	0.000453	4.531980	1.535476	0.036409
 118	5.8500e-02	4.7116	-15.382624	0.000272	2.719188	0.921286	-0.021845
 119	5.9000e-02	4.7662	-14.727269	0.001632	16.315128	5.527715	0.131071
 120	5.9500e-02	4.7838	-14.836495	-0.000272	-2.719188	-0.921286	-0.021845
 121	6.0000e-02	4.8095	-14.763678	0.000181	1.812792	0.614191	0.014563
 122	6.0500e-02	4.8897	-14.508818	0.000634	6.344772	2.149667	0.050972
 123	6.1000e-02	4.9025	-14.253958	0.000634	6.344772	2.149667	0.050972
 124	6.1500e-02	4.9426	-14.253958	0.000000	0.000000	0.000000	0.000000
 125	6.2000e-02	5.0148	-14.035506	0.000544	5.438376	1.842572	0.043690
 126	6.2500e-02	5.0485	-13.853464	0.000453	4.531980	1.535476	0.036409
 127	6.3000e-02	5.0549	-13.598603	0.000634	6.344772	2.149667	0.050972
 128	6.3500e-02	5.1335	-13.161701	0.001088	10.876752	3.685143	0.087381
 129	6.4000e-02	5.1624	-13.525786	-0.000906	-9.063960	-3.070953	-0.072817
 130	6.4500e-02	5.2170	-13.234518	0.000725	7.251168	2.456762	0.058254
 131	6.5000e-02	5.2635	-12.834023	0.000997	9.970356	3.378048	0.080099
 132	6.5500e-02	5.3020	-13.016066	-0.000453	-4.531980	-1.535476	-0.036409
 133	6.6000e-02	5.3485	-12.797615	0.000544	5.438376	1.842572	0.043690
 134	6.6500e-02	5.3549	-12.433529	0.000906	9.063960	3.070953	0.072817
 135	6.7000e-02	5.4223	-12.433529	0.000000	0.000000	0.000000	0.000000
 136	6.7500e-02	5.4480	-12.469938	-0.000091	-0.906396	-0.307095	-0.007282
 137	6.8000e-02	5.4881	-11.960218	0.001269	12.689544	4.299334	0.101944
 138	6.8500e-02	5.5250	-12.033035	-0.000181	-1.812792	-0.614191	-0.014563
 139	6.9000e-02	5.5571	-11.668949	0.000906	9.063960	3.070953	0.072817
 140	6.9500e-02	5.5956	-11.668949	0.000000	0.000000	0.000000	0.000000
 141	7.0000e-02	5.6405	-11.450497	0.000544	5.438376	1.842572	0.043690
 142	7.0500e-02	5.6934	-11.778175	-0.000816	-8.157564	-2.763858	-0.065535
 143	7.1000e-02	5.7079	-11.195637	0.001450	14.502336	4.913524	0.116507
 144	7.1500e-02	5.7736	-10.904369	0.000725	7.251168	2.456762	0.058254
 145	7.2000e-02	5.7897	-10.867960	0.000091	0.906396	0.307095	0.007282
 146	7.2500e-02	5.8474	-10.685917	0.000453	4.531980	1.535476	0.036409
 147	7.3000e-02	5.8827	-10.613100	0.000181	1.812792	0.614191	0.014563
 148	7.3500e-02	5.9148	-10.394649	0.000544	5.438376	1.842572	0.043690
 149	7.4000e-02	5.9597	-10.358240	0.000091	0.906396	0.307095	0.007282
 150	7.4500e-02	5.9854	-9.994154	0.000906	9.063960	3.070953	0.072817
 151	7.5000e-02	6.0576	-9.994154	0.000000	0.000000	0.000000	0.000000
 152	7.5500e-02	6.0768	-9.630069	0.000906	9.063960	3.070953	0.072817
 153	7.6000e-02	6.1362	-9.265983	0.000906	9.063960	3.070953	0.072817
 154	7.6500e-02	6.1554	-9.338800	-0.000181	-1.812792	-0.614191	-0.014563
 155	7.7000e-02	6.2036	-9.229574	0.000272	2.719188	0.921286	0.021845
 156	7.7500e-02	6.2453	-8.865488	0.000906	9.063960	3.070953	0.072817
 157	7.8000e-02	6.2854	-9.047531	-0.000453	-4.531980	-1.535476	-0.036409
 158	7.8500e-02	6.3111	-8.974714	0.000181	1.812792	0.614191	0.014563
 159	7.9000e-02	6.3512	-8.865488	0.000272	2.719188	0.921286	0.021845
 160	7.9500e-02	6.4217	-8.355768	0.001269	12.689544	4.299334	0.101944
 161	8.0000e-02	6.4362	-8.173726	0.000453	4.531980	1.535476	0.036409
 162	8.0500e-02	6.4731	-8.246543	-0.000181	-1.812792	-0.614191	-0.014563
 163	8.1000e-02	6.4955	-8.210134	0.000091	0.906396	0.307095	0.007282
 164	8.1500e-02	6.5356	-8.028091	0.000453	4.531980	1.535476	0.036409
 165	8.2000e-02	6.5998	-7.700414	0.000816	8.157564	2.763858	0.065535
 166	8.2500e-02	6.6640	-7.773231	-0.000181	-1.812792	-0.614191	-0.014563
 167	8.3000e-02	6.6688	-7.409145	0.000906	9.063960	3.070953	0.072817
 168	8.3500e-02	6.7314	-7.190694	0.000544	5.438376	1.842572	0.043690
 169	8.4000e-02	6.7699	-7.372737	-0.000453	-4.531980	-1.535476	-0.036409
 170	8.4500e-02	6.8003	-6.935834	0.001088	10.876752	3.685143	0.087381
 171	8.5000e-02	6.8437	-6.863017	0.000181	1.812792	0.614191	0.014563
 172	8.5500e-02	6.8725	-6.680974	0.000453	4.531980	1.535476	0.036409
 173	8.6000e-02	6.9223	-6.571748	0.000272	2.719188	0.921286	0.021845
 174	8.6500e-02	6.9479	-6.353297	0.000544	5.438376	1.842572	0.043690
 175	8.7000e-02	6.9672	-6.134845	0.000544	5.438376	1.842572	0.043690
 176	8.7500e-02	7.0474	-6.025619	0.000272	2.719188	0.921286	0.021845
 177	8.8000e-02	7.0763	-6.207662	-0.000453	-4.531980	-1.535476	-0.036409
 178	8.8500e-02	7.1100	-5.843577	0.000906	9.063960	3.070953	0.072817
 179	8.9000e-02	7.1485	-5.515899	0.000816	8.157564	2.763858	0.065535
 180	8.9500e-02	7.2062	-5.333857	0.000453	4.531980	1.535476	0.036409
 181	9.0000e-02	7.2415	-5.515899	-0.000453	-4.531980	-1.535476	-0.036409
 182	9.0500e-02	7.2752	-5.297448	0.000544	5.438376	1.842572	0.043690
 183	9.1000e-02	7.3073	-5.006179	0.000725	7.251168	2.456762	0.058254
 184	9.1500e-02	7.3971	-4.751319	0.000634	6.344772	2.149667	0.050972
 185	9.2000e-02	7.4116	-4.714911	0.000091	0.906396	0.307095	0.007282
 186	9.2500e-02	7.4372	-4.605685	0.000272	2.719188	0.921286	0.021845
 187	9.3000e-02	7.4854	-4.532868	0.000181	1.812792	0.614191	0.014563
 188	9.3500e-02	7.5271	-4.241599	0.000725	7.251168	2.456762	0.058254
 189	9.4000e-02	7.5495	-4.132373	0.000272	2.719188	0.921286	0.021845
 190	9.4500e-02	7.6201	-3.950331	0.000453	4.531980	1.535476	0.036409
 191	9.5000e-02	7.6361	-3.804696	0.000363	3.625584	1.228381	0.029127
 192	9.5500e-02	7.6586	-3.622653	0.000453	4.531980	1.535476	0.036409
 193	9.6000e-02	7.7292	-3.586245	0.000091	0.906396	0.307095	0.007282
 194	9.6500e-02	7.7581	-3.294976	0.000725	7.251168	2.456762	0.058254
 195	9.7000e-02	7.8110	-3.367793	-0.000181	-1.812792	-0.614191	-0.014563
 196	9.7500e-02	7.8639	-3.076525	0.000725	7.251168	2.456762	0.058254
 197	9.8000e-02	7.8704	-3.040116	0.000091	0.906396	0.307095	0.007282
 198	9.8500e-02	7.9313	-2.821665	0.000544	5.438376	1.842572	0.043690
 199	9.9000e-02	7.9506	-2.676030	0.000363	3.625584	1.228381	0.029127
 200	9.9500e-02	8.0083	-2.457579	0.000544	5.438376	1.842572	0.043690
 201	1.0000e-01	8.0372	-2.239127	0.000544	5.438376	1.842572	0.043690
 202	1.0050e-01	8.0885	-2.239127	0.000000	0.000000	0.000000	0.000000
 203	1.0100e-01	8.1286	-1.947859	0.000725	7.251168	2.456762	0.058254
 204	1.0150e-01	8.1607	-2.020676	-0.000181	-1.812792	-0.614191	-0.014563
 205	1.0200e-01	8.2137	-1.875042	0.000363	3.625584	1.228381	0.029127
 206	1.0250e-01	8.2425	-1.292504	0.001450	14.502336	4.913524	0.116507
 207	1.0300e-01	8.2634	-1.510956	-0.000544	-5.438376	-1.842572	-0.043690
 208	1.0350e-01	8.3179	-1.547365	-0.000091	-0.906396	-0.307095	-0.007282
 209	1.0400e-01	8.3340	-0.819193	0.001813	18.127920	6.141906	0.145634
 210	1.0450e-01	8.3917	-1.110462	-0.000725	-7.251168	-2.456762	-0.058254
 211	1.0500e-01	8.4623	-0.892010	0.000544	5.438376	1.842572	0.043690
 212	1.0550e-01	8.4880	-0.819193	0.000181	1.812792	0.614191	0.014563
 213	1.0600e-01	8.5137	-0.527924	0.000725	7.251168	2.456762	0.058254
 214	1.0650e-01	8.5457	-0.345881	0.000453	4.531980	1.535476	0.036409
 215	1.0700e-01	8.6099	-0.418699	-0.000181	-1.812792	-0.614191	-0.014563
 216	1.0750e-01	8.6580	-0.273064	0.000363	3.625584	1.228381	0.029127
 217	1.0800e-01	8.6998	0.309473	0.001450	14.502336	4.913524	0.116507
 218	1.0850e-01	8.7206	0.200247	-0.000272	-2.719188	-0.921286	-0.021845
 219	1.0900e-01	8.7623	0.309473	0.000272	2.719188	0.921286	0.021845
 220	1.0950e-01	8.8137	0.309473	0.000000	0.000000	0.000000	0.000000
 221	1.1000e-01	8.8265	0.418699	0.000272	2.719188	0.921286	0.021845
 222	1.1050e-01	8.8682	0.564333	0.000363	3.625584	1.228381	0.029127
 223	1.1100e-01	8.8987	0.855602	0.000725	7.251168	2.456762	0.058254
 224	1.1150e-01	8.9661	0.928419	0.000181	1.812792	0.614191	0.014563
 225	1.1200e-01	8.9885	0.892010	-0.000091	-0.906396	-0.307095	-0.007282
 226	1.1250e-01	9.0254	1.328913	0.001088	10.876752	3.685143	0.087381
 227	1.1300e-01	9.0735	1.256096	-0.000181	-1.812792	-0.614191	-0.014563
 228	1.1350e-01	9.1233	1.729407	0.001178	11.783148	3.992239	0.094662
 229	1.1400e-01	9.1586	1.510956	-0.000544	-5.438376	-1.842572	-0.043690
 230	1.1450e-01	9.1939	1.620182	0.000272	2.719188	0.921286	0.021845
 231	1.1500e-01	9.2388	2.020676	0.000997	9.970356	3.378048	0.080099
 232	1.1550e-01	9.2933	1.984267	-0.000091	-0.906396	-0.307095	-0.007282
 233	1.1600e-01	9.3190	2.639622	0.001632	16.315128	5.527715	0.131071
 234	1.1650e-01	9.3639	2.530396	-0.000272	-2.719188	-0.921286	-0.021845
 235	1.1700e-01	9.4072	2.821665	0.000725	7.251168	2.456762	0.058254
 236	1.1750e-01	9.4730	2.858073	0.000091	0.906396	0.307095	0.007282
 237	1.1800e-01	9.4826	3.003708	0.000363	3.625584	1.228381	0.029127
 238	1.1850e-01	9.5115	3.185750	0.000453	4.531980	1.535476	0.036409
 239	1.1900e-01	9.5532	3.003708	-0.000453	-4.531980	-1.535476	-0.036409
 240	1.1950e-01	9.5757	3.258568	0.000634	6.344772	2.149667	0.050972
 241	1.2000e-01	9.6350	3.513428	0.000634	6.344772	2.149667	0.050972
 242	1.2050e-01	9.6848	3.222159	-0.000725	-7.251168	-2.456762	-0.058254
 243	1.2100e-01	9.7313	4.023148	0.001994	19.940712	6.756096	0.160198
 244	1.2150e-01	9.7457	4.023148	0.000000	0.000000	0.000000	0.000000
 245	1.2200e-01	9.7842	3.913922	-0.000272	-2.719188	-0.921286	-0.021845
 246	1.2250e-01	9.8548	4.023148	0.000272	2.719188	0.921286	0.021845
 247	1.2300e-01	9.8917	3.986739	-0.000091	-0.906396	-0.307095	-0.007282
 248	1.2350e-01	9.9206	4.714911	0.001813	18.127920	6.141906	0.145634
 249	1.2400e-01	9.9623	4.678502	-0.000091	-0.906396	-0.307095	-0.007282
 250	1.2450e-01	10.0008	4.678502	0.000000	0.000000	0.000000	0.000000
 251	1.2500e-01	10.0425	5.078996	0.000997	9.970356	3.378048	0.080099
 252	1.2550e-01	10.0874	4.933362	-0.000363	-3.625584	-1.228381	-0.029127
 253	1.2600e-01	10.1420	5.370265	0.001088	10.876752	3.685143	0.087381
 254	1.2650e-01	10.1532	4.969771	-0.000997	-9.970356	-3.378048	-0.080099
 255	1.2700e-01	10.1692	5.297448	0.000816	8.157564	2.763858	0.065535
 256	1.2750e-01	10.2398	5.625125	0.000816	8.157564	2.763858	0.065535
 257	1.2800e-01	10.2879	5.697942	0.000181	1.812792	0.614191	0.014563
 258	1.2850e-01	10.3152	5.916394	0.000544	5.438376	1.842572	0.043690
 259	1.2900e-01	10.3377	5.807168	-0.000272	-2.719188	-0.921286	-0.021845
