»»»»»»»»»»»»»»»»»»»»»»»»»»»»»»»»»»»» Hysteresis ««««««««««««««««««««««««««««««««««««
»»»  Executed Version:	5.48.1
»»»  Vision Version:	5.48.4 (R)
»»»  Vision Compiled:	9/18/24
»»»  Driver Version:	5.47.0
»»»  Windows Version:	Windows 8 or 8.1
»»»  Processor Information:	x86 (AMD or Intel) - 32 Processors
»»»  Tester Name:	PMF21124-494 (100V)
»»»  Tester S/N:	PMF21124-494
»»»  Internal Amp Type:	100V RevK 270k
»»»  Internal Amp S/N:	iAB2-596/K     
»»»  Execution Count:	1
»»»»»»»»»»»»»»»»»»»»»»»»»»»»»»»»»»»»»»»»»»««««««««««««««««««««««««««««««««««««««««««

Stored:	10/10/2025 - 14:30:55
Configured:	10/10/25 10:37:25 AM
Executed:	10/10/25 02:30:32 PM

»»»»»»»»»»»»»»»»»»»»»»»»»»»»»»»»»»» Sample Info ««««««««««««««««««««««««««««««««««««
Sample Name:	Int. Ref. Ferroelectric
Lot Name:	N/A
Wafer Name:	N/A
Die Row/Column:	0/0
Capacitor Number:	0
Sample Area (cm2):	1.00e-04
Sample Thickness (microns):	3.00e-01

Amplifier:	Internal

»»»»»»»»»»»»»»»»»»»»»»»»»»»»»»»»»»» Tester Info «««««««««««««««««««««««««««««««««««
Tester Name:	PMF21124-494 (100V)
Tester Serial Number:	PMF21124-494
Return Signal Amp. Level:	0.02 [Index: 2]

»»»»»»»»»»»»»»»»»»»»»»»»»»»»»»»» Hysteresis Info ««««««««««««««««««««««««««««««««««
Task Name:	Hyst-170
Volts:	20.00
Field:	666.67 (kV/cm)
DCBias:	0.00
DCField:	0.00 (kV/cm)
Hysteresis Period (ms):	5.00e-01
Preset:	Enabled
Preset Delay (ms):	1.00e+03
Profile:	Standard Monopolar

»»»»»»»»»»»»»»»»»»»»»»»»»»»»»»»»»»»»»» Data «««««««««««««««««««««««««««««««««««««««
Points:	1001

Valid Data

Point	Time (ms)	Drive Voltage	Measured Polarization (uC/cm2)	Capacitance (uF)	Normalized Capacitance (uF/cm2)	Dielectric Constant	Instantaneous Current (mA)
   1	0.0000e+00	0.0369	-31.438806	-0.000454	-4.537066	-1.537199	-0.036409
   2	5.0000e-04	0.0626	-31.620849	-0.000454	-4.537066	-1.537199	-0.036409
   3	1.0000e-03	0.1203	-31.365989	0.000635	6.351892	2.152079	0.050972
   4	1.5000e-03	0.1588	-31.183946	0.000454	4.537066	1.537199	0.036409
   5	2.0000e-03	0.2021	-30.929086	0.000635	6.351892	2.152079	0.050972
   6	2.5000e-03	0.2294	-31.293172	-0.000907	-9.074132	-3.074399	-0.072817
   7	3.0000e-03	0.2984	-30.747043	0.001361	13.611197	4.611598	0.109226
   8	3.5000e-03	0.3401	-30.492183	0.000635	6.351892	2.152079	0.050972
   9	4.0000e-03	0.3593	-30.346549	0.000363	3.629653	1.229760	0.029127
  10	4.5000e-03	0.3818	-30.237323	0.000272	2.722239	0.922320	0.021845
  11	5.0000e-03	0.4380	-30.200915	0.000091	0.907413	0.307440	0.007282
  12	5.5000e-03	0.4684	-30.055280	0.000363	3.629653	1.229760	0.029127
  13	6.0000e-03	0.5085	-29.581969	0.001180	11.796371	3.996719	0.094662
  14	6.5000e-03	0.5519	-29.472743	0.000272	2.722239	0.922320	0.021845
  15	7.0000e-03	0.6080	-29.399926	0.000181	1.814826	0.614880	0.014563
  16	7.5000e-03	0.6497	-29.363517	0.000091	0.907413	0.307440	0.007282
  17	8.0000e-03	0.6754	-28.999432	0.000907	9.074132	3.074399	0.072817
  18	8.5000e-03	0.7171	-28.926614	0.000181	1.814826	0.614880	0.014563
  19	9.0000e-03	0.7700	-28.744572	0.000454	4.537066	1.537199	0.036409
  20	9.5000e-03	0.8021	-28.526120	0.000544	5.444479	1.844639	0.043690
  21	1.0000e-02	0.8454	-28.344077	0.000454	4.537066	1.537199	0.036409
  22	1.0500e-02	0.8807	-28.344077	0.000000	0.000000	0.000000	0.000000
  23	1.1000e-02	0.9256	-28.052809	0.000726	7.259305	2.459519	0.058254
  24	1.1500e-02	0.9240	-27.433863	-0.001543	-15.426024	-5.226478	0.123789
  25	1.2000e-02	0.9930	-27.870766	-0.001089	-10.888958	-3.689279	-0.087381
  26	1.2500e-02	1.0315	-27.688723	0.000454	4.537066	1.537199	0.036409
  27	1.3000e-02	1.1037	-27.288228	0.000998	9.981545	3.381839	0.080099
  28	1.3500e-02	1.1198	-27.288228	0.000000	0.000000	0.000000	0.000000
  29	1.4000e-02	1.1727	-27.433863	-0.000363	-3.629653	-1.229760	-0.029127
  30	1.4500e-02	1.1887	-26.596465	0.002087	20.870502	7.071118	0.167479
  31	1.5000e-02	1.2465	-26.450831	0.000363	3.629653	1.229760	0.029127
  32	1.5500e-02	1.2802	-26.195971	0.000635	6.351892	2.152079	0.050972
  33	1.6000e-02	1.3139	-26.705691	-0.001270	-12.703784	-4.304159	-0.101944
  34	1.6500e-02	1.3524	-26.450831	0.000635	6.351892	2.152079	0.050972
  35	1.7000e-02	1.4133	-26.159563	0.000726	7.259305	2.459519	0.058254
  36	1.7500e-02	1.4663	-25.759068	0.000998	9.981545	3.381839	0.080099
  37	1.8000e-02	1.4903	-25.686251	0.000181	1.814826	0.614880	0.014563
  38	1.8500e-02	1.5160	-25.358574	0.000817	8.166718	2.766959	0.065535
  39	1.9000e-02	1.5705	-25.431391	-0.000181	-1.814826	-0.614880	-0.014563
  40	1.9500e-02	1.6171	-25.577025	-0.000363	-3.629653	-1.229760	-0.029127
  41	2.0000e-02	1.6508	-25.030897	0.001361	13.611197	4.611598	0.109226
  42	2.0500e-02	1.6572	-24.848854	0.000454	4.537066	1.537199	0.036409
  43	2.1000e-02	1.6989	-24.630402	0.000544	5.444479	1.844639	0.043690
  44	2.1500e-02	1.7534	-24.375542	0.000635	6.351892	2.152079	0.050972
  45	2.2000e-02	1.7999	-24.885262	-0.001270	-12.703784	-4.304159	-0.101944
  46	2.2500e-02	1.8368	-24.266317	0.001543	15.426024	5.226478	0.123789
  47	2.3000e-02	1.8818	-24.047865	0.000544	5.444479	1.844639	0.043690
  48	2.3500e-02	1.8946	-23.793005	0.000635	6.351892	2.152079	0.050972
  49	2.4000e-02	1.9283	-23.683779	0.000272	2.722239	0.922320	0.021845
  50	2.4500e-02	1.9844	-23.465328	0.000544	5.444479	1.844639	0.043690
  51	2.5000e-02	2.0390	-24.011457	-0.001361	-13.611197	-4.611598	-0.109226
  52	2.5500e-02	2.0951	-23.683779	0.000817	8.166718	2.766959	0.065535
  53	2.6000e-02	2.1192	-23.356102	0.000817	8.166718	2.766959	0.065535
  54	2.6500e-02	2.1513	-23.101242	0.000635	6.351892	2.152079	0.050972
  55	2.7000e-02	2.1866	-22.809973	0.000726	7.259305	2.459519	0.058254
  56	2.7500e-02	2.2267	-22.809973	0.000000	0.000000	0.000000	0.000000
  57	2.8000e-02	2.2748	-22.773565	0.000091	0.907413	0.307440	0.007282
  58	2.8500e-02	2.2973	-22.555113	0.000544	5.444479	1.844639	0.043690
  59	2.9000e-02	2.3582	-22.118211	0.001089	10.888958	3.689279	0.087381
  60	2.9500e-02	2.4063	-22.227436	-0.000272	-2.722239	-0.922320	-0.021845
  61	3.0000e-02	2.4416	-21.899759	0.000817	8.166718	2.766959	0.065535
  62	3.0500e-02	2.4753	-21.899759	0.000000	0.000000	0.000000	0.000000
  63	3.1000e-02	2.5138	-21.426448	0.001180	11.796371	3.996719	0.094662
  64	3.1500e-02	2.5459	-21.317222	0.000272	2.722239	0.922320	0.021845
  65	3.2000e-02	2.5828	-21.171588	0.000363	3.629653	1.229760	0.029127
  66	3.2500e-02	2.6358	-20.843910	0.000817	8.166718	2.766959	0.065535
  67	3.3000e-02	2.6855	-21.244405	-0.000998	-9.981545	-3.381839	-0.080099
  68	3.3500e-02	2.7144	-20.589050	0.001633	16.333437	5.533918	0.131071
  69	3.4000e-02	2.7609	-20.880319	-0.000726	-7.259305	-2.459519	-0.058254
  70	3.4500e-02	2.7978	-20.188556	0.001724	17.240850	5.841358	0.138353
  71	3.5000e-02	2.8443	-20.261373	-0.000181	-1.814826	-0.614880	-0.014563
  72	3.5500e-02	2.8844	-20.843910	-0.001452	-14.518610	-4.919038	-0.116507
  73	3.6000e-02	2.9117	-19.933696	0.002269	22.685329	7.685997	0.182043
  74	3.6500e-02	2.9486	-20.006513	-0.000181	-1.814826	-0.614880	-0.014563
  75	3.7000e-02	3.0015	-19.569610	0.001089	10.888958	3.689279	0.087381
  76	3.7500e-02	3.0416	-19.460384	0.000272	2.722239	0.922320	0.021845
  77	3.8000e-02	3.0978	-19.569610	-0.000272	-2.722239	-0.922320	-0.021845
  78	3.8500e-02	3.1090	-19.096299	0.001180	11.796371	3.996719	0.094662
  79	3.9000e-02	3.1491	-19.023481	0.000181	1.814826	0.614880	0.014563
  80	3.9500e-02	3.1940	-19.059890	-0.000091	-0.907413	-0.307440	-0.007282
  81	4.0000e-02	3.2197	-18.440944	0.001543	15.426024	5.226478	0.123789
  82	4.0500e-02	3.2582	-18.841439	-0.000998	-9.981545	-3.381839	-0.080099
  83	4.1000e-02	3.3304	-18.550170	0.000726	7.259305	2.459519	0.058254
  84	4.1500e-02	3.3609	-18.513761	0.000091	0.907413	0.307440	0.007282
  85	4.2000e-02	3.3833	-18.076858	0.001089	10.888958	3.689279	0.087381
  86	4.2500e-02	3.4250	-17.894816	0.000454	4.537066	1.537199	0.036409
  87	4.3000e-02	3.4667	-18.076858	-0.000454	-4.537066	-1.537199	-0.036409
  88	4.3500e-02	3.5085	-17.494321	0.001452	14.518610	4.919038	0.116507
  89	4.4000e-02	3.5502	-17.567138	-0.000181	-1.814826	-0.614880	-0.014563
  90	4.4500e-02	3.6127	-17.603547	-0.000091	-0.907413	-0.307440	-0.007282
  91	4.5000e-02	3.6272	-17.239461	0.000907	9.074132	3.074399	0.072817
  92	4.5500e-02	3.6593	-16.838967	0.000998	9.981545	3.381839	0.080099
  93	4.6000e-02	3.6994	-17.021010	-0.000454	-4.537066	-1.537199	-0.036409
  94	4.6500e-02	3.7314	-16.620515	0.000998	9.981545	3.381839	0.080099
  95	4.7000e-02	3.7699	-16.584107	0.000091	0.907413	0.307440	0.007282
  96	4.7500e-02	3.8165	-16.402064	0.000454	4.537066	1.537199	0.036409
  97	4.8000e-02	3.8726	-16.802558	-0.000998	-9.981545	-3.381839	-0.080099
  98	4.8500e-02	3.9159	-16.584107	0.000544	5.444479	1.844639	0.043690
  99	4.9000e-02	3.9448	-16.110795	0.001180	11.796371	3.996719	0.094662
 100	4.9500e-02	3.9881	-15.965161	0.000363	3.629653	1.229760	0.029127
 101	5.0000e-02	4.0314	-15.819527	0.000363	3.629653	1.229760	0.029127
 102	5.0500e-02	4.0844	-16.001570	-0.000454	-4.537066	-1.537199	-0.036409
 103	5.1000e-02	4.1389	-15.564667	0.001089	10.888958	3.689279	0.087381
 104	5.1500e-02	4.1870	-15.892344	-0.000817	-8.166718	-2.766959	-0.065535
 105	5.2000e-02	4.2047	-15.455441	0.001089	10.888958	3.689279	0.087381
 106	5.2500e-02	4.2191	-15.455441	0.000000	0.000000	0.000000	0.000000
 107	5.3000e-02	4.2592	-14.727269	0.001815	18.148263	6.148798	0.145634
 108	5.3500e-02	4.3090	-15.054947	-0.000817	-8.166718	-2.766959	-0.065535
 109	5.4000e-02	4.3539	-14.836495	0.000544	5.444479	1.844639	0.043690
 110	5.4500e-02	4.4036	-14.436001	0.000998	9.981545	3.381839	0.080099
 111	5.5000e-02	4.4293	-14.363184	0.000181	1.814826	0.614880	0.014563
 112	5.5500e-02	4.4838	-14.071915	0.000726	7.259305	2.459519	0.058254
 113	5.6000e-02	4.4967	-14.144732	-0.000181	-1.814826	-0.614880	-0.014563
 114	5.6500e-02	4.5640	-13.926281	0.000544	5.444479	1.844639	0.043690
 115	5.7000e-02	4.5929	-13.598603	0.000817	8.166718	2.766959	0.065535
 116	5.7500e-02	4.6523	-14.035506	-0.001089	-10.888958	-3.689279	-0.087381
 117	5.8000e-02	4.6763	-13.343743	0.001724	17.240850	5.841358	0.138353
 118	5.8500e-02	4.7100	-13.525786	-0.000454	-4.537066	-1.537199	-0.036409
 119	5.9000e-02	4.7630	-12.906841	0.001543	15.426024	5.226478	0.123789
 120	5.9500e-02	4.8223	-13.307335	-0.000998	-9.981545	-3.381839	-0.080099
 121	6.0000e-02	4.8480	-13.198109	0.000272	2.722239	0.922320	0.021845
 122	6.0500e-02	4.8608	-12.797615	0.000998	9.981545	3.381839	0.080099
 123	6.1000e-02	4.9041	-13.016066	-0.000544	-5.444479	-1.844639	-0.043690
 124	6.1500e-02	4.9763	-12.688389	0.000817	8.166718	2.766959	0.065535
 125	6.2000e-02	5.0180	-12.542755	0.000363	3.629653	1.229760	0.029127
 126	6.2500e-02	5.0341	-12.033035	0.001270	12.703784	4.304159	0.101944
 127	6.3000e-02	5.0918	-12.360712	-0.000817	-8.166718	-2.766959	-0.065535
 128	6.3500e-02	5.1255	-11.850992	0.001270	12.703784	4.304159	0.101944
 129	6.4000e-02	5.1672	-11.996626	-0.000363	-3.629653	-1.229760	-0.029127
 130	6.4500e-02	5.2186	-11.195637	0.001996	19.963089	6.763678	0.160198
 131	6.5000e-02	5.2442	-11.960218	-0.001906	-19.055676	-6.456238	-0.152916
 132	6.5500e-02	5.2651	-11.596132	0.000907	9.074132	3.074399	0.072817
 133	6.6000e-02	5.3100	-11.232046	0.000907	9.074132	3.074399	0.072817
 134	6.6500e-02	5.3613	-11.122820	0.000272	2.722239	0.922320	0.021845
 135	6.7000e-02	5.3982	-10.867960	0.000635	6.351892	2.152079	0.050972
 136	6.7500e-02	5.4271	-10.940777	-0.000181	-1.814826	-0.614880	-0.014563
 137	6.8000e-02	5.4704	-10.977186	-0.000091	-0.907413	-0.307440	-0.007282
 138	6.8500e-02	5.5121	-10.649509	0.000817	8.166718	2.766959	0.065535
 139	6.9000e-02	5.5539	-10.321832	0.000817	8.166718	2.766959	0.065535
 140	6.9500e-02	5.6084	-9.448026	0.002178	21.777916	7.378558	0.174761
 141	7.0000e-02	5.6597	-9.884929	-0.001089	-10.888958	-3.689279	-0.087381
 142	7.0500e-02	5.6918	-10.540283	-0.001633	-16.333437	-5.533918	-0.131071
 143	7.1000e-02	5.7095	-9.812111	0.001815	18.148263	6.148798	0.145634
 144	7.1500e-02	5.7415	-9.957746	-0.000363	-3.629653	-1.229760	-0.029127
 145	7.2000e-02	5.7961	-9.557251	0.000998	9.981545	3.381839	0.080099
 146	7.2500e-02	5.8314	-9.156757	0.000998	9.981545	3.381839	0.080099
 147	7.3000e-02	5.8763	-9.193166	-0.000091	-0.907413	-0.307440	-0.007282
 148	7.3500e-02	5.9020	-9.302391	-0.000272	-2.722239	-0.922320	-0.021845
 149	7.4000e-02	5.9710	-8.901897	0.000998	9.981545	3.381839	0.080099
 150	7.4500e-02	6.0046	-8.938306	-0.000091	-0.907413	-0.307440	-0.007282
 151	7.5000e-02	6.0415	-9.011123	-0.000181	-1.814826	-0.614880	-0.014563
 152	7.5500e-02	6.0640	-8.501403	0.001270	12.703784	4.304159	0.101944
 153	7.6000e-02	6.0945	-8.282951	0.000544	5.444479	1.844639	0.043690
 154	7.6500e-02	6.1506	-8.501403	-0.000544	-5.444479	-1.844639	-0.043690
 155	7.7000e-02	6.2068	-8.355768	0.000363	3.629653	1.229760	0.029127
 156	7.7500e-02	6.2308	-8.392177	-0.000091	-0.907413	-0.307440	-0.007282
 157	7.8000e-02	6.2806	-7.918865	0.001180	11.796371	3.996719	0.094662
 158	7.8500e-02	6.3014	-7.664005	0.000635	6.351892	2.152079	0.050972
 159	7.9000e-02	6.3528	-7.918865	-0.000635	-6.351892	-2.152079	-0.050972
 160	7.9500e-02	6.3913	-7.518371	0.000998	9.981545	3.381839	0.080099
 161	8.0000e-02	6.4233	-7.081468	0.001089	10.888958	3.689279	0.087381
 162	8.0500e-02	6.4891	-7.372737	-0.000726	-7.259305	-2.459519	-0.058254
 163	8.1000e-02	6.4939	-6.899425	0.001180	11.796371	3.996719	0.094662
 164	8.1500e-02	6.5405	-6.826608	0.000181	1.814826	0.614880	0.014563
 165	8.2000e-02	6.6030	-6.790200	0.000091	0.907413	0.307440	0.007282
 166	8.2500e-02	6.6239	-6.608157	0.000454	4.537066	1.537199	0.036409
 167	8.3000e-02	6.6592	-6.462522	0.000363	3.629653	1.229760	0.029127
 168	8.3500e-02	6.6993	-6.462522	0.000000	0.000000	0.000000	0.000000
 169	8.4000e-02	6.7458	-6.244071	0.000544	5.444479	1.844639	0.043690
 170	8.4500e-02	6.8019	-6.025619	0.000544	5.444479	1.844639	0.043690
 171	8.5000e-02	6.8501	-5.952802	0.000181	1.814826	0.614880	0.014563
 172	8.5500e-02	6.8773	-5.916394	0.000091	0.907413	0.307440	0.007282
 173	8.6000e-02	6.8902	-5.370265	0.001361	13.611197	4.611598	0.109226
 174	8.6500e-02	6.9287	-5.261039	0.000272	2.722239	0.922320	0.021845
 175	8.7000e-02	6.9993	-5.443082	-0.000454	-4.537066	-1.537199	-0.036409
 176	8.7500e-02	7.0506	-5.042588	0.000998	9.981545	3.381839	0.080099
 177	8.8000e-02	7.0987	-5.552308	-0.001270	-12.703784	-4.304159	-0.101944
 178	8.8500e-02	7.1260	-4.933362	0.001543	15.426024	5.226478	0.123789
 179	8.9000e-02	7.1645	-4.605685	0.000817	8.166718	2.766959	0.065535
 180	8.9500e-02	7.1902	-4.678502	-0.000181	-1.814826	-0.614880	-0.014563
 181	9.0000e-02	7.2287	-4.423642	0.000635	6.351892	2.152079	0.050972
 182	9.0500e-02	7.2896	-4.460051	-0.000091	-0.907413	-0.307440	-0.007282
 183	9.1000e-02	7.3281	-4.460051	0.000000	0.000000	0.000000	0.000000
 184	9.1500e-02	7.3554	-4.023148	0.001089	10.888958	3.689279	0.087381
 185	9.2000e-02	7.4116	-4.059556	-0.000091	-0.907413	-0.307440	-0.007282
 186	9.2500e-02	7.4324	-3.877513	0.000454	4.537066	1.537199	0.036409
 187	9.3000e-02	7.5046	-3.659062	0.000544	5.444479	1.844639	0.043690
 188	9.3500e-02	7.5335	-3.659062	0.000000	0.000000	0.000000	0.000000
 189	9.4000e-02	7.5720	-3.986739	-0.000817	-8.166718	-2.766959	-0.065535
 190	9.4500e-02	7.5880	-3.440611	0.001361	13.611197	4.611598	0.109226
 191	9.5000e-02	7.6297	-3.659062	-0.000544	-5.444479	-1.844639	-0.043690
 192	9.5500e-02	7.6907	-2.894482	0.001906	19.055676	6.456238	0.152916
 193	9.6000e-02	7.7340	-3.440611	-0.001361	-13.611197	-4.611598	-0.109226
 194	9.6500e-02	7.7677	-3.003708	0.001089	10.888958	3.689279	0.087381
 195	9.7000e-02	7.8126	-2.676030	0.000817	8.166718	2.766959	0.065535
 196	9.7500e-02	7.8591	-2.384762	0.000726	7.259305	2.459519	0.058254
 197	9.8000e-02	7.8768	-2.457579	-0.000181	-1.814826	-0.614880	-0.014563
 198	9.8500e-02	7.8976	-2.384762	0.000181	1.814826	0.614880	0.014563
 199	9.9000e-02	7.9570	-2.129902	0.000635	6.351892	2.152079	0.050972
 200	9.9500e-02	8.0083	-1.984267	0.000363	3.629653	1.229760	0.029127
 201	1.0000e-01	8.0340	-1.692999	0.000726	7.259305	2.459519	0.058254
 202	1.0050e-01	8.0693	-1.510956	0.000454	4.537066	1.537199	0.036409
 203	1.0100e-01	8.1142	-1.620182	-0.000272	-2.722239	-0.922320	-0.021845
 204	1.0150e-01	8.1383	-1.401730	0.000544	5.444479	1.844639	0.043690
 205	1.0200e-01	8.2008	-1.110462	0.000726	7.259305	2.459519	0.058254
 206	1.0250e-01	8.2249	-1.583773	-0.001180	-11.796371	-3.996719	-0.094662
 207	1.0300e-01	8.2907	-0.892010	0.001724	17.240850	5.841358	0.138353
 208	1.0350e-01	8.3228	-1.001236	-0.000272	-2.722239	-0.922320	-0.021845
 209	1.0400e-01	8.3629	-1.037644	-0.000091	-0.907413	-0.307440	-0.007282
 210	1.0450e-01	8.3837	-0.855602	0.000454	4.537066	1.537199	0.036409
 211	1.0500e-01	8.4238	-0.236656	0.001543	15.426024	5.226478	0.123789
 212	1.0550e-01	8.4591	-0.418699	-0.000454	-4.537066	-1.537199	-0.036409
 213	1.0600e-01	8.5185	-0.200247	0.000544	5.444479	1.844639	0.043690
 214	1.0650e-01	8.5666	-0.054613	0.000363	3.629653	1.229760	0.029127
 215	1.0700e-01	8.6099	-0.236656	-0.000454	-4.537066	-1.537199	-0.036409
 216	1.0750e-01	8.6436	-0.018204	0.000544	5.444479	1.844639	0.043690
 217	1.0800e-01	8.6869	0.527924	0.001361	13.611197	4.611598	0.109226
 218	1.0850e-01	8.7110	0.273064	-0.000635	-6.351892	-2.152079	-0.050972
 219	1.0900e-01	8.7543	0.345881	0.000181	1.814826	0.614880	0.014563
 220	1.0950e-01	8.7960	0.673559	0.000817	8.166718	2.766959	0.065535
 221	1.1000e-01	8.8217	0.491516	-0.000454	-4.537066	-1.537199	-0.036409
 222	1.1050e-01	8.8506	0.637150	0.000363	3.629653	1.229760	0.029127
 223	1.1100e-01	8.9211	1.074053	0.001089	10.888958	3.689279	0.087381
 224	1.1150e-01	8.9869	0.782784	-0.000726	-7.259305	-2.459519	-0.058254
 225	1.1200e-01	9.0030	1.183279	0.000998	9.981545	3.381839	0.080099
 226	1.1250e-01	9.0222	1.292504	0.000272	2.722239	0.922320	0.021845
 227	1.1300e-01	9.0703	1.620182	0.000817	8.166718	2.766959	0.065535
 228	1.1350e-01	9.0928	2.020676	0.000998	9.981545	3.381839	0.080099
 229	1.1400e-01	9.1425	2.166310	0.000363	3.629653	1.229760	0.029127
 230	1.1450e-01	9.1682	1.620182	-0.001361	-13.611197	-4.611598	-0.109226
 231	1.1500e-01	9.2243	2.166310	0.001361	13.611197	4.611598	0.109226
 232	1.1550e-01	9.2709	2.239127	0.000181	1.814826	0.614880	0.014563
 233	1.1600e-01	9.3046	1.984267	-0.000635	-6.351892	-2.152079	-0.050972
 234	1.1650e-01	9.3447	2.530396	0.001361	13.611197	4.611598	0.109226
 235	1.1700e-01	9.3992	2.275536	-0.000635	-6.351892	-2.152079	-0.050972
 236	1.1750e-01	9.4457	2.530396	0.000635	6.351892	2.152079	0.050972
 237	1.1800e-01	9.4714	2.639622	0.000272	2.722239	0.922320	0.021845
 238	1.1850e-01	9.5195	3.003708	0.000907	9.074132	3.074399	0.072817
 239	1.1900e-01	9.5692	3.003708	0.000000	0.000000	0.000000	0.000000
 240	1.1950e-01	9.6206	2.894482	-0.000272	-2.722239	-0.922320	-0.021845
 241	1.2000e-01	9.6430	2.894482	0.000000	0.000000	0.000000	0.000000
 242	1.2050e-01	9.6799	3.404202	0.001270	12.703784	4.304159	0.101944
 243	1.2100e-01	9.7377	3.804696	0.000998	9.981545	3.381839	0.080099
 244	1.2150e-01	9.7537	3.841105	0.000091	0.907413	0.307440	0.007282
 245	1.2200e-01	9.7954	3.841105	0.000000	0.000000	0.000000	0.000000
 246	1.2250e-01	9.8243	3.877513	0.000091	0.907413	0.307440	0.007282
 247	1.2300e-01	9.8660	4.095965	0.000544	5.444479	1.844639	0.043690
 248	1.2350e-01	9.9302	4.314416	0.000544	5.444479	1.844639	0.043690
 249	1.2400e-01	9.9735	4.205191	-0.000272	-2.722239	-0.922320	-0.021845
 250	1.2450e-01	10.0072	4.350825	0.000363	3.629653	1.229760	0.029127
 251	1.2500e-01	10.0569	4.496459	0.000363	3.629653	1.229760	0.029127
 252	1.2550e-01	10.0826	4.205191	-0.000726	-7.259305	-2.459519	-0.058254
 253	1.2600e-01	10.1163	4.824136	0.001543	15.426024	5.226478	0.123789
 254	1.2650e-01	10.1580	5.261039	0.001089	10.888958	3.689279	0.087381
 255	1.2700e-01	10.2142	4.642094	-0.001543	-15.426024	-5.226478	-0.123789
 256	1.2750e-01	10.2334	5.042588	0.000998	9.981545	3.381839	0.080099
 257	1.2800e-01	10.2735	4.969771	-0.000181	-1.814826	-0.614880	-0.014563
 258	1.2850e-01	10.3056	5.625125	0.001633	16.333437	5.533918	0.131071
