»»»»»»»»»»»»»»»»»»»»»»»»»»»»»»»»»»»» Hysteresis ««««««««««««««««««««««««««««««««««««
»»»  Executed Version:	5.48.1
»»»  Vision Version:	5.48.4 (R)
»»»  Vision Compiled:	9/18/24
»»»  Driver Version:	5.47.0
»»»  Windows Version:	Windows 8 or 8.1
»»»  Processor Information:	x86 (AMD or Intel) - 32 Processors
»»»  Tester Name:	PMF21124-494 (100V)
»»»  Tester S/N:	PMF21124-494
»»»  Internal Amp Type:	100V RevK 270k
»»»  Internal Amp S/N:	iAB2-596/K     
»»»  Execution Count:	1
»»»»»»»»»»»»»»»»»»»»»»»»»»»»»»»»»»»»»»»»»»««««««««««««««««««««««««««««««««««««««««««

Stored:	10/10/2025 - 14:44:16
Configured:	10/10/25 10:37:25 AM
Executed:	10/10/25 02:43:54 PM

»»»»»»»»»»»»»»»»»»»»»»»»»»»»»»»»»»» Sample Info ««««««««««««««««««««««««««««««««««««
Sample Name:	Int. Ref. Ferroelectric
Lot Name:	N/A
Wafer Name:	N/A
Die Row/Column:	0/0
Capacitor Number:	0
Sample Area (cm2):	1.00e-04
Sample Thickness (microns):	3.00e-01

Amplifier:	Internal

»»»»»»»»»»»»»»»»»»»»»»»»»»»»»»»»»»» Tester Info «««««««««««««««««««««««««««««««««««
Tester Name:	PMF21124-494 (100V)
Tester Serial Number:	PMF21124-494
Return Signal Amp. Level:	0.02 [Index: 2]

»»»»»»»»»»»»»»»»»»»»»»»»»»»»»»»» Hysteresis Info ««««««««««««««««««««««««««««««««««
Task Name:	Hyst-170
Volts:	20.00
Field:	666.67 (kV/cm)
DCBias:	0.00
DCField:	0.00 (kV/cm)
Hysteresis Period (ms):	5.00e-01
Preset:	Enabled
Preset Delay (ms):	1.00e+03
Profile:	Standard Monopolar

»»»»»»»»»»»»»»»»»»»»»»»»»»»»»»»»»»»»»» Data «««««««««««««««««««««««««««««««««««««««
Points:	1001

Valid Data

Point	Time (ms)	Drive Voltage	Measured Polarization (uC/cm2)	Capacitance (uF)	Normalized Capacitance (uF/cm2)	Dielectric Constant	Instantaneous Current (mA)
   1	0.0000e+00	0.0449	-31.111129	-0.001267	-12.665216	-4.291091	0.101944
   2	5.0000e-04	0.0449	-30.601409	-0.001267	-12.665216	-4.291091	0.101944
   3	1.0000e-03	0.1187	-30.565000	0.000090	0.904658	0.306507	0.007282
   4	1.5000e-03	0.1893	-30.601409	-0.000090	-0.904658	-0.306507	-0.007282
   5	2.0000e-03	0.1845	-30.710635	0.000271	2.713975	0.919520	-0.021845
   6	2.5000e-03	0.2310	-30.382957	0.000814	8.141925	2.758559	0.065535
   7	3.0000e-03	0.2936	-30.310140	0.000181	1.809317	0.613013	0.014563
   8	3.5000e-03	0.3353	-30.128097	0.000452	4.523291	1.532533	0.036409
   9	4.0000e-03	0.3850	-29.836829	0.000724	7.237266	2.452052	0.058254
  10	4.5000e-03	0.3914	-29.946055	-0.000271	-2.713975	-0.919520	-0.021845
  11	5.0000e-03	0.4299	-29.764012	0.000452	4.523291	1.532533	0.036409
  12	5.5000e-03	0.4925	-29.290700	0.001176	11.760558	3.984585	0.094662
  13	6.0000e-03	0.5503	-29.472743	-0.000452	-4.523291	-1.532533	-0.036409
  14	6.5000e-03	0.5663	-28.926614	0.001357	13.569874	4.597598	0.109226
  15	7.0000e-03	0.5839	-28.926614	0.000000	0.000000	0.000000	0.000000
  16	7.5000e-03	0.6353	-28.926614	0.000000	0.000000	0.000000	0.000000
  17	8.0000e-03	0.6754	-28.708163	0.000543	5.427950	1.839039	0.043690
  18	8.5000e-03	0.7219	-28.416894	0.000724	7.237266	2.452052	0.058254
  19	9.0000e-03	0.7412	-28.307669	0.000271	2.713975	0.919520	0.021845
  20	9.5000e-03	0.8117	-28.380486	-0.000181	-1.809317	-0.613013	-0.014563
  21	1.0000e-02	0.8567	-28.052809	0.000814	8.141925	2.758559	0.065535
  22	1.0500e-02	0.8759	-27.652314	0.000995	9.951241	3.371572	0.080099
  23	1.1000e-02	0.9272	-27.397454	0.000633	6.332608	2.145546	0.050972
  24	1.1500e-02	0.9449	-27.579497	-0.000452	-4.523291	-1.532533	-0.036409
  25	1.2000e-02	0.9866	-27.470271	0.000271	2.713975	0.919520	0.021845
  26	1.2500e-02	1.0572	-27.361046	0.000271	2.713975	0.919520	0.021845
  27	1.3000e-02	1.0829	-27.215411	0.000362	3.618633	1.226026	0.029127
  28	1.3500e-02	1.1149	-26.851326	0.000905	9.046583	3.065065	0.072817
  29	1.4000e-02	1.1663	-26.887734	-0.000090	-0.904658	-0.306507	-0.007282
  30	1.4500e-02	1.2176	-26.632874	0.000633	6.332608	2.145546	0.050972
  31	1.5000e-02	1.2609	-26.195971	0.001086	10.855900	3.678078	0.087381
  32	1.5500e-02	1.2882	-26.341605	-0.000362	-3.618633	-1.226026	-0.029127
  33	1.6000e-02	1.2914	-25.795477	0.001357	13.569874	4.597598	0.109226
  34	1.6500e-02	1.3604	-26.268788	-0.001176	-11.760558	-3.984585	-0.094662
  35	1.7000e-02	1.3732	-25.759068	0.001267	12.665216	4.291091	0.101944
  36	1.7500e-02	1.4342	-25.649842	0.000271	2.713975	0.919520	0.021845
  37	1.8000e-02	1.4935	-25.649842	0.000000	0.000000	0.000000	0.000000
  38	1.8500e-02	1.5128	-25.140122	0.001267	12.665216	4.291091	0.101944
  39	1.9000e-02	1.5465	-25.103714	0.000090	0.904658	0.306507	0.007282
  40	1.9500e-02	1.5994	-25.176531	-0.000181	-1.809317	-0.613013	-0.014563
  41	2.0000e-02	1.6700	-24.921671	0.000633	6.332608	2.145546	0.050972
  42	2.0500e-02	1.6684	-24.776037	-0.000362	-3.618633	-1.226026	0.029127
  43	2.1000e-02	1.7470	-24.375542	0.000995	9.951241	3.371572	0.080099
  44	2.1500e-02	1.7550	-24.885262	-0.001267	-12.665216	-4.291091	-0.101944
  45	2.2000e-02	1.7951	-23.975048	0.002262	22.616457	7.662663	0.182043
  46	2.2500e-02	1.8401	-24.302725	-0.000814	-8.141925	-2.758559	-0.065535
  47	2.3000e-02	1.8962	-24.047865	0.000633	6.332608	2.145546	0.050972
  48	2.3500e-02	1.9315	-23.829414	0.000543	5.427950	1.839039	0.043690
  49	2.4000e-02	1.9459	-23.865822	-0.000090	-0.904658	-0.306507	-0.007282
  50	2.4500e-02	1.9909	-23.720188	0.000362	3.618633	1.226026	0.029127
  51	2.5000e-02	2.0486	-23.501736	0.000543	5.427950	1.839039	0.043690
  52	2.5500e-02	2.0999	-23.610962	-0.000271	-2.713975	-0.919520	-0.021845
  53	2.6000e-02	2.1288	-22.955608	0.001628	16.283849	5.517117	0.131071
  54	2.6500e-02	2.1673	-22.700748	0.000633	6.332608	2.145546	0.050972
  55	2.7000e-02	2.2058	-22.809973	-0.000271	-2.713975	-0.919520	-0.021845
  56	2.7500e-02	2.2523	-22.919199	-0.000271	-2.713975	-0.919520	-0.021845
  57	2.8000e-02	2.2796	-22.482296	0.001086	10.855900	3.678078	0.087381
  58	2.8500e-02	2.3582	-22.191028	0.000724	7.237266	2.452052	0.058254
  59	2.9000e-02	2.3630	-22.118211	0.000181	1.809317	0.613013	0.014563
  60	2.9500e-02	2.4224	-21.717716	0.000995	9.951241	3.371572	0.080099
  61	3.0000e-02	2.4432	-21.936168	-0.000543	-5.427950	-1.839039	-0.043690
  62	3.0500e-02	2.4834	-21.790533	0.000362	3.618633	1.226026	0.029127
  63	3.1000e-02	2.5122	-21.244405	0.001357	13.569874	4.597598	0.109226
  64	3.1500e-02	2.5732	-21.426448	-0.000452	-4.523291	-1.532533	-0.036409
  65	3.2000e-02	2.6213	-21.280813	0.000362	3.618633	1.226026	0.029127
  66	3.2500e-02	2.6518	-21.062362	0.000543	5.427950	1.839039	0.043690
  67	3.3000e-02	2.6871	-21.207996	-0.000362	-3.618633	-1.226026	-0.029127
  68	3.3500e-02	2.7256	-20.916727	0.000724	7.237266	2.452052	0.058254
  69	3.4000e-02	2.7545	-20.443416	0.001176	11.760558	3.984585	0.094662
  70	3.4500e-02	2.8138	-20.370599	0.000181	1.809317	0.613013	0.014563
  71	3.5000e-02	2.8507	-20.479825	-0.000271	-2.713975	-0.919520	-0.021845
  72	3.5500e-02	2.8844	-20.297782	0.000452	4.523291	1.532533	0.036409
  73	3.6000e-02	2.9149	-19.897287	0.000995	9.951241	3.371572	0.080099
  74	3.6500e-02	2.9566	-19.970104	-0.000181	-1.809317	-0.613013	-0.014563
  75	3.7000e-02	2.9935	-20.042922	-0.000181	-1.809317	-0.613013	-0.014563
  76	3.7500e-02	3.0256	-19.678836	0.000905	9.046583	3.065065	0.072817
  77	3.8000e-02	3.0801	-19.351159	0.000814	8.141925	2.758559	0.065535
  78	3.8500e-02	3.1170	-19.023481	0.000814	8.141925	2.758559	0.065535
  79	3.9000e-02	3.1700	-19.423976	-0.000995	-9.951241	-3.371572	-0.080099
  80	3.9500e-02	3.2053	-19.132707	0.000724	7.237266	2.452052	0.058254
  81	4.0000e-02	3.2117	-18.950664	0.000452	4.523291	1.532533	0.036409
  82	4.0500e-02	3.2662	-19.023481	-0.000181	-1.809317	-0.613013	-0.014563
  83	4.1000e-02	3.3320	-18.586579	0.001086	10.855900	3.678078	0.087381
  84	4.1500e-02	3.3721	-18.186084	0.000995	9.951241	3.371572	0.080099
  85	4.2000e-02	3.4170	-18.331719	-0.000362	-3.618633	-1.226026	-0.029127
  86	4.2500e-02	3.4363	-18.040450	0.000724	7.237266	2.452052	0.058254
  87	4.3000e-02	3.4908	-18.331719	-0.000724	-7.237266	-2.452052	-0.058254
  88	4.3500e-02	3.5438	-17.931224	0.000995	9.951241	3.371572	0.080099
  89	4.4000e-02	3.5566	-17.712773	0.000543	5.427950	1.839039	0.043690
  90	4.4500e-02	3.5855	-17.749181	-0.000090	-0.904658	-0.306507	-0.007282
  91	4.5000e-02	3.6400	-17.348687	0.000995	9.951241	3.371572	0.080099
  92	4.5500e-02	3.6641	-17.457913	-0.000271	-2.713975	-0.919520	-0.021845
  93	4.6000e-02	3.7411	-17.021010	0.001086	10.855900	3.678078	0.087381
  94	4.6500e-02	3.7507	-16.693333	0.000814	8.141925	2.758559	0.065535
  95	4.7000e-02	3.7972	-16.984601	-0.000724	-7.237266	-2.452052	-0.058254
  96	4.7500e-02	3.8325	-16.948193	0.000090	0.904658	0.306507	0.007282
  97	4.8000e-02	3.8710	-16.256430	0.001719	17.188508	5.823624	0.138353
  98	4.8500e-02	3.8983	-16.402064	-0.000362	-3.618633	-1.226026	-0.029127
  99	4.9000e-02	3.9641	-16.292838	0.000271	2.713975	0.919520	0.021845
 100	4.9500e-02	4.0186	-16.292838	0.000000	0.000000	0.000000	0.000000
 101	5.0000e-02	4.0138	-16.001570	-0.000724	-7.237266	-2.452052	0.058254
 102	5.0500e-02	4.0924	-15.928752	0.000181	1.809317	0.613013	0.014563
 103	5.1000e-02	4.1084	-15.637484	0.000724	7.237266	2.452052	0.058254
 104	5.1500e-02	4.1806	-15.637484	0.000000	0.000000	0.000000	0.000000
 105	5.2000e-02	4.1887	-15.673892	-0.000090	-0.904658	-0.306507	-0.007282
 106	5.2500e-02	4.2416	-15.419032	0.000633	6.332608	2.145546	0.050972
 107	5.3000e-02	4.2705	-15.127764	0.000724	7.237266	2.452052	0.058254
 108	5.3500e-02	4.3122	-15.018538	0.000271	2.713975	0.919520	0.021845
 109	5.4000e-02	4.3571	-14.690861	0.000814	8.141925	2.758559	0.065535
 110	5.4500e-02	4.4116	-15.054947	-0.000905	-9.046583	-3.065065	-0.072817
 111	5.5000e-02	4.4678	-14.690861	0.000905	9.046583	3.065065	0.072817
 112	5.5500e-02	4.4758	-14.545226	0.000362	3.618633	1.226026	0.029127
 113	5.6000e-02	4.5047	-14.071915	0.001176	11.760558	3.984585	0.094662
 114	5.6500e-02	4.5512	-14.399592	-0.000814	-8.141925	-2.758559	-0.065535
 115	5.7000e-02	4.5993	-13.853464	0.001357	13.569874	4.597598	0.109226
 116	5.7500e-02	4.6394	-13.853464	0.000000	0.000000	0.000000	0.000000
 117	5.8000e-02	4.6924	-13.780646	0.000181	1.809317	0.613013	0.014563
 118	5.8500e-02	4.7213	-13.562195	0.000543	5.427950	1.839039	0.043690
 119	5.9000e-02	4.7806	-13.380152	0.000452	4.523291	1.532533	0.036409
 120	5.9500e-02	4.8143	-12.870432	0.001267	12.665216	4.291091	0.101944
 121	6.0000e-02	4.8544	-13.270926	-0.000995	-9.951241	-3.371572	-0.080099
 122	6.0500e-02	4.8913	-13.234518	0.000090	0.904658	0.306507	0.007282
 123	6.1000e-02	4.9218	-13.125292	0.000271	2.713975	0.919520	0.021845
 124	6.1500e-02	4.9651	-12.797615	0.000814	8.141925	2.758559	0.065535
 125	6.2000e-02	4.9908	-12.651980	0.000362	3.618633	1.226026	0.029127
 126	6.2500e-02	5.0453	-12.651980	0.000000	0.000000	0.000000	0.000000
 127	6.3000e-02	5.0966	-12.433529	0.000543	5.427950	1.839039	0.043690
 128	6.3500e-02	5.1095	-12.397120	0.000090	0.904658	0.306507	0.007282
 129	6.4000e-02	5.1753	-12.033035	0.000905	9.046583	3.065065	0.072817
 130	6.4500e-02	5.1881	-12.105852	-0.000181	-1.809317	-0.613013	-0.014563
 131	6.5000e-02	5.2410	-11.778175	0.000814	8.141925	2.758559	0.065535
 132	6.5500e-02	5.2763	-11.705357	0.000181	1.809317	0.613013	0.014563
 133	6.6000e-02	5.3341	-11.486906	0.000543	5.427950	1.839039	0.043690
 134	6.6500e-02	5.3469	-11.596132	-0.000271	-2.713975	-0.919520	-0.021845
 135	6.7000e-02	5.3934	-11.268455	0.000814	8.141925	2.758559	0.065535
 136	6.7500e-02	5.4512	-10.940777	0.000814	8.141925	2.758559	0.065535
 137	6.8000e-02	5.4817	-10.867960	0.000181	1.809317	0.613013	0.014563
 138	6.8500e-02	5.5474	-10.795143	0.000181	1.809317	0.613013	0.014563
 139	6.9000e-02	5.5490	-10.467466	0.000814	8.141925	2.758559	0.065535
 140	6.9500e-02	5.5827	-10.613100	-0.000362	-3.618633	-1.226026	-0.029127
 141	7.0000e-02	5.6517	-10.649509	-0.000090	-0.904658	-0.306507	-0.007282
 142	7.0500e-02	5.6710	-10.649509	0.000000	0.000000	0.000000	0.000000
 143	7.1000e-02	5.7191	-9.957746	0.001719	17.188508	5.823624	0.138353
 144	7.1500e-02	5.7961	-10.139789	-0.000452	-4.523291	-1.532533	-0.036409
 145	7.2000e-02	5.8009	-10.066972	0.000181	1.809317	0.613013	0.014563
 146	7.2500e-02	5.8330	-9.557251	0.001267	12.665216	4.291091	0.101944
 147	7.3000e-02	5.8875	-9.702886	-0.000362	-3.618633	-1.226026	-0.029127
 148	7.3500e-02	5.9004	-9.375209	0.000814	8.141925	2.758559	0.065535
 149	7.4000e-02	5.9581	-9.411617	-0.000090	-0.904658	-0.306507	-0.007282
 150	7.4500e-02	5.9966	-8.865488	0.001357	13.569874	4.597598	0.109226
 151	7.5000e-02	6.0447	-9.083940	-0.000543	-5.427950	-1.839039	-0.043690
 152	7.5500e-02	6.0768	-9.193166	-0.000271	-2.713975	-0.919520	-0.021845
 153	7.6000e-02	6.1234	-8.974714	0.000543	5.427950	1.839039	0.043690
 154	7.6500e-02	6.1522	-8.901897	0.000181	1.809317	0.613013	0.014563
 155	7.7000e-02	6.1843	-8.246543	0.001628	16.283849	5.517117	0.131071
 156	7.7500e-02	6.2276	-8.501403	-0.000633	-6.332608	-2.145546	-0.050972
 157	7.8000e-02	6.2870	-8.392177	0.000271	2.713975	0.919520	0.021845
 158	7.8500e-02	6.3143	-8.028091	0.000905	9.046583	3.065065	0.072817
 159	7.9000e-02	6.3544	-7.991683	0.000090	0.904658	0.306507	0.007282
 160	7.9500e-02	6.4185	-8.173726	-0.000452	-4.523291	-1.532533	-0.036409
 161	8.0000e-02	6.4538	-7.554780	0.001538	15.379191	5.210611	0.123789
 162	8.0500e-02	6.4667	-7.882457	-0.000814	-8.141925	-2.758559	-0.065535
 163	8.1000e-02	6.5004	-7.190694	0.001719	17.188508	5.823624	0.138353
 164	8.1500e-02	6.5629	-7.117877	0.000181	1.809317	0.613013	0.014563
 165	8.2000e-02	6.6014	-7.263511	-0.000362	-3.618633	-1.226026	-0.029127
 166	8.2500e-02	6.6287	-6.935834	0.000814	8.141925	2.758559	0.065535
 167	8.3000e-02	6.6816	-6.826608	0.000271	2.713975	0.919520	0.021845
 168	8.3500e-02	6.7153	-6.644565	0.000452	4.523291	1.532533	0.036409
 169	8.4000e-02	6.7763	-6.790200	-0.000362	-3.618633	-1.226026	-0.029127
 170	8.4500e-02	6.8003	-6.389705	0.000995	9.951241	3.371572	0.080099
 171	8.5000e-02	6.8549	-6.389705	0.000000	0.000000	0.000000	0.000000
 172	8.5500e-02	6.8966	-6.098437	0.000724	7.237266	2.452052	0.058254
 173	8.6000e-02	6.8918	-6.316888	0.000543	5.427950	1.839039	-0.043690
 174	8.6500e-02	6.9383	-5.661534	0.001628	16.283849	5.517117	0.131071
 175	8.7000e-02	7.0041	-6.134845	-0.001176	-11.760558	-3.984585	-0.094662
 176	8.7500e-02	7.0346	-5.661534	0.001176	11.760558	3.984585	0.094662
 177	8.8000e-02	7.0811	-5.588717	0.000181	1.809317	0.613013	0.014563
 178	8.8500e-02	7.1404	-5.479491	0.000271	2.713975	0.919520	0.021845
 179	8.9000e-02	7.1549	-5.151814	0.000814	8.141925	2.758559	0.065535
 180	8.9500e-02	7.2110	-5.042588	0.000271	2.713975	0.919520	0.021845
 181	9.0000e-02	7.2624	-4.969771	0.000181	1.809317	0.613013	0.014563
 182	9.0500e-02	7.2880	-5.078996	-0.000271	-2.713975	-0.919520	-0.021845
 183	9.1000e-02	7.3185	-4.787728	0.000724	7.237266	2.452052	0.058254
 184	9.1500e-02	7.3859	-4.460051	0.000814	8.141925	2.758559	0.065535
 185	9.2000e-02	7.4019	-4.569276	-0.000271	-2.713975	-0.919520	-0.021845
 186	9.2500e-02	7.4485	-4.241599	0.000814	8.141925	2.758559	0.065535
 187	9.3000e-02	7.4693	-4.314416	-0.000181	-1.809317	-0.613013	-0.014563
 188	9.3500e-02	7.5206	-3.986739	0.000814	8.141925	2.758559	0.065535
 189	9.4000e-02	7.5736	-4.059556	-0.000181	-1.809317	-0.613013	-0.014563
 190	9.4500e-02	7.6041	-4.095965	-0.000090	-0.904658	-0.306507	-0.007282
 191	9.5000e-02	7.6329	-3.586245	0.001267	12.665216	4.291091	0.101944
 192	9.5500e-02	7.6971	-3.731879	-0.000362	-3.618633	-1.226026	-0.029127
 193	9.6000e-02	7.7083	-3.367793	0.000905	9.046583	3.065065	0.072817
 194	9.6500e-02	7.7565	-3.367793	0.000000	0.000000	0.000000	0.000000
 195	9.7000e-02	7.7805	-3.003708	0.000905	9.046583	3.065065	0.072817
 196	9.7500e-02	7.8351	-3.258568	-0.000633	-6.332608	-2.145546	-0.050972
 197	9.8000e-02	7.8720	-2.676030	0.001447	14.474533	4.904104	0.116507
 198	9.8500e-02	7.9041	-2.676030	0.000000	0.000000	0.000000	0.000000
 199	9.9000e-02	7.9313	-2.676030	0.000000	0.000000	0.000000	0.000000
 200	9.9500e-02	8.0308	-2.493988	0.000452	4.523291	1.532533	0.036409
 201	1.0000e-01	8.0436	-2.129902	0.000905	9.046583	3.065065	0.072817
 202	1.0050e-01	8.0869	-2.093493	0.000090	0.904658	0.306507	0.007282
 203	1.0100e-01	8.1286	-2.093493	0.000000	0.000000	0.000000	0.000000
 204	1.0150e-01	8.1479	-1.947859	0.000362	3.618633	1.226026	0.029127
 205	1.0200e-01	8.1848	-1.802225	0.000362	3.618633	1.226026	0.029127
 206	1.0250e-01	8.2329	-1.875042	-0.000181	-1.809317	-0.613013	-0.014563
 207	1.0300e-01	8.2634	-1.328913	0.001357	13.569874	4.597598	0.109226
 208	1.0350e-01	8.3083	-1.292504	0.000090	0.904658	0.306507	0.007282
 209	1.0400e-01	8.3725	-1.510956	-0.000543	-5.427950	-1.839039	-0.043690
 210	1.0450e-01	8.4190	-1.328913	0.000452	4.523291	1.532533	0.036409
 211	1.0500e-01	8.4447	-1.146870	0.000452	4.523291	1.532533	0.036409
 212	1.0550e-01	8.5008	-1.146870	0.000000	0.000000	0.000000	0.000000
 213	1.0600e-01	8.5634	-1.001236	0.000362	3.618633	1.226026	0.029127
 214	1.0650e-01	8.5730	-0.964827	0.000090	0.904658	0.306507	0.007282
 215	1.0700e-01	8.5842	-0.382290	0.001447	14.474533	4.904104	0.116507
 216	1.0750e-01	8.6404	-0.637150	-0.000633	-6.332608	-2.145546	-0.050972
 217	1.0800e-01	8.6613	-0.309473	0.000814	8.141925	2.758559	0.065535
 218	1.0850e-01	8.7286	-0.382290	-0.000181	-1.809317	-0.613013	-0.014563
 219	1.0900e-01	8.7527	-0.091021	0.000724	7.237266	2.452052	0.058254
 220	1.0950e-01	8.8056	0.273064	0.000905	9.046583	3.065065	0.072817
 221	1.1000e-01	8.8538	0.127430	-0.000362	-3.618633	-1.226026	-0.029127
 222	1.1050e-01	8.8586	-0.054613	-0.000452	-4.523291	-1.532533	-0.036409
 223	1.1100e-01	8.9276	0.491516	0.001357	13.569874	4.597598	0.109226
 224	1.1150e-01	8.9404	0.309473	-0.000452	-4.523291	-1.532533	-0.036409
 225	1.1200e-01	8.9805	0.673559	0.000905	9.046583	3.065065	0.072817
 226	1.1250e-01	9.0286	0.964827	0.000724	7.237266	2.452052	0.058254
 227	1.1300e-01	9.0912	0.855602	-0.000271	-2.713975	-0.919520	-0.021845
 228	1.1350e-01	9.1313	1.219687	0.000905	9.046583	3.065065	0.072817
 229	1.1400e-01	9.1618	1.037644	-0.000452	-4.523291	-1.532533	-0.036409
 230	1.1450e-01	9.2019	1.328913	0.000724	7.237266	2.452052	0.058254
 231	1.1500e-01	9.2564	1.365322	0.000090	0.904658	0.306507	0.007282
 232	1.1550e-01	9.2853	1.438139	0.000181	1.809317	0.613013	0.014563
 233	1.1600e-01	9.3206	1.911450	0.001176	11.760558	3.984585	0.094662
 234	1.1650e-01	9.3414	1.802225	-0.000271	-2.713975	-0.919520	-0.021845
 235	1.1700e-01	9.3992	1.802225	0.000000	0.000000	0.000000	0.000000
 236	1.1750e-01	9.4201	2.239127	0.001086	10.855900	3.678078	0.087381
 237	1.1800e-01	9.4794	2.384762	0.000362	3.618633	1.226026	0.029127
 238	1.1850e-01	9.5051	2.311945	-0.000181	-1.809317	-0.613013	-0.014563
 239	1.1900e-01	9.5420	2.639622	0.000814	8.141925	2.758559	0.065535
 240	1.1950e-01	9.5965	2.712439	0.000181	1.809317	0.613013	0.014563
 241	1.2000e-01	9.6430	2.894482	0.000452	4.523291	1.532533	0.036409
 242	1.2050e-01	9.7088	2.384762	-0.001267	-12.665216	-4.291091	-0.101944
 243	1.2100e-01	9.7136	3.294976	0.002262	22.616457	7.662663	0.182043
 244	1.2150e-01	9.7585	3.003708	-0.000724	-7.237266	-2.452052	-0.058254
 245	1.2200e-01	9.8003	3.513428	0.001267	12.665216	4.291091	0.101944
 246	1.2250e-01	9.8147	3.294976	-0.000543	-5.427950	-1.839039	-0.043690
 247	1.2300e-01	9.8612	3.695471	0.000995	9.951241	3.371572	0.080099
 248	1.2350e-01	9.9222	3.549836	-0.000362	-3.618633	-1.226026	-0.029127
 249	1.2400e-01	9.9687	3.622653	0.000181	1.809317	0.613013	0.014563
 250	1.2450e-01	9.9944	4.059556	0.001086	10.855900	3.678078	0.087381
 251	1.2500e-01	10.0409	3.913922	-0.000362	-3.618633	-1.226026	-0.029127
 252	1.2550e-01	10.0762	4.350825	0.001086	10.855900	3.678078	0.087381
 253	1.2600e-01	10.1195	4.241599	-0.000271	-2.713975	-0.919520	-0.021845
 254	1.2650e-01	10.1500	4.095965	-0.000362	-3.618633	-1.226026	-0.029127
 255	1.2700e-01	10.1917	4.241599	0.000362	3.618633	1.226026	0.029127
 256	1.2750e-01	10.2510	4.787728	0.001357	13.569874	4.597598	0.109226
 257	1.2800e-01	10.2767	4.532868	-0.000633	-6.332608	-2.145546	-0.050972
 258	1.2850e-01	10.3200	5.006179	0.001176	11.760558	3.984585	0.094662
