»»»»»»»»»»»»»»»»»»»»»»»»»»»»»»»»»»»» Hysteresis ««««««««««««««««««««««««««««««««««««
»»»  Executed Version:	5.48.1
»»»  Vision Version:	5.48.4 (R)
»»»  Vision Compiled:	9/18/24
»»»  Driver Version:	5.47.0
»»»  Windows Version:	Windows 8 or 8.1
»»»  Processor Information:	x86 (AMD or Intel) - 32 Processors
»»»  Tester Name:	PMF21124-494 (100V)
»»»  Tester S/N:	PMF21124-494
»»»  Internal Amp Type:	100V RevK 270k
»»»  Internal Amp S/N:	iAB2-596/K     
»»»  Execution Count:	1
»»»»»»»»»»»»»»»»»»»»»»»»»»»»»»»»»»»»»»»»»»««««««««««««««««««««««««««««««««««««««««««

Stored:	10/10/2025 - 14:38:49
Configured:	10/10/25 10:37:25 AM
Executed:	10/10/25 02:38:18 PM

»»»»»»»»»»»»»»»»»»»»»»»»»»»»»»»»»»» Sample Info ««««««««««««««««««««««««««««««««««««
Sample Name:	Int. Ref. Ferroelectric
Lot Name:	N/A
Wafer Name:	N/A
Die Row/Column:	0/0
Capacitor Number:	0
Sample Area (cm2):	1.00e-04
Sample Thickness (microns):	3.00e-01

Amplifier:	Internal

»»»»»»»»»»»»»»»»»»»»»»»»»»»»»»»»»»» Tester Info «««««««««««««««««««««««««««««««««««
Tester Name:	PMF21124-494 (100V)
Tester Serial Number:	PMF21124-494
Return Signal Amp. Level:	0.02 [Index: 2]

»»»»»»»»»»»»»»»»»»»»»»»»»»»»»»»» Hysteresis Info ««««««««««««««««««««««««««««««««««
Task Name:	Hyst-170
Volts:	20.00
Field:	666.67 (kV/cm)
DCBias:	0.00
DCField:	0.00 (kV/cm)
Hysteresis Period (ms):	5.00e-01
Preset:	Enabled
Preset Delay (ms):	1.00e+03
Profile:	Standard Monopolar

»»»»»»»»»»»»»»»»»»»»»»»»»»»»»»»»»»»»»» Data «««««««««««««««««««««««««««««««««««««««
Points:	1001

Valid Data

Point	Time (ms)	Drive Voltage	Measured Polarization (uC/cm2)	Capacitance (uF)	Normalized Capacitance (uF/cm2)	Dielectric Constant	Instantaneous Current (mA)
   1	0.0000e+00	0.0545	-31.293172	-0.001722	-17.220089	-5.834324	0.138353
   2	5.0000e-04	0.0401	-30.601409	-0.001722	-17.220089	-5.834324	0.138353
   3	1.0000e-03	0.1091	-30.819860	-0.000544	-5.437923	-1.842418	-0.043690
   4	1.5000e-03	0.1396	-29.946055	0.002175	21.751691	7.369673	0.174761
   5	2.0000e-03	0.2021	-30.310140	-0.000906	-9.063205	-3.070697	-0.072817
   6	2.5000e-03	0.2326	-29.982463	0.000816	8.156884	2.763627	0.065535
   7	3.0000e-03	0.2791	-29.618377	0.000906	9.063205	3.070697	0.072817
   8	3.5000e-03	0.3096	-29.982463	-0.000906	-9.063205	-3.070697	-0.072817
   9	4.0000e-03	0.3642	-29.363517	0.001541	15.407448	5.220185	0.123789
  10	4.5000e-03	0.4027	-29.618377	-0.000634	-6.344243	-2.149488	-0.050972
  11	5.0000e-03	0.4267	-29.399926	0.000544	5.437923	1.842418	0.043690
  12	5.5000e-03	0.4604	-29.472743	-0.000181	-1.812641	-0.614139	-0.014563
  13	6.0000e-03	0.5278	-28.853797	0.001541	15.407448	5.220185	0.123789
  14	6.5000e-03	0.5631	-28.635346	0.000544	5.437923	1.842418	0.043690
  15	7.0000e-03	0.5920	-28.708163	-0.000181	-1.812641	-0.614139	-0.014563
  16	7.5000e-03	0.6401	-28.635346	0.000181	1.812641	0.614139	0.014563
  17	8.0000e-03	0.6658	-28.489711	0.000363	3.625282	1.228279	0.029127
  18	8.5000e-03	0.7267	-28.125626	0.000906	9.063205	3.070697	0.072817
  19	9.0000e-03	0.7508	-27.615906	0.001269	12.688487	4.298976	0.101944
  20	9.5000e-03	0.8069	-28.162034	-0.001359	-13.594807	-4.606045	-0.109226
  21	1.0000e-02	0.8454	-27.615906	0.001359	13.594807	4.606045	0.109226
  22	1.0500e-02	0.8727	-27.361046	0.000634	6.344243	2.149488	0.050972
  23	1.1000e-02	0.9305	-27.288228	0.000181	1.812641	0.614139	0.014563
  24	1.1500e-02	0.9577	-26.887734	0.000997	9.969525	3.377767	0.080099
  25	1.2000e-02	0.9898	-27.069777	-0.000453	-4.531602	-1.535348	-0.036409
  26	1.2500e-02	1.0428	-26.742100	0.000816	8.156884	2.763627	0.065535
  27	1.3000e-02	1.0684	-26.669283	0.000181	1.812641	0.614139	0.014563
  28	1.3500e-02	1.1262	-26.523648	0.000363	3.625282	1.228279	0.029127
  29	1.4000e-02	1.1663	-26.560057	-0.000091	-0.906320	-0.307070	-0.007282
  30	1.4500e-02	1.1807	-26.632874	-0.000181	-1.812641	-0.614139	-0.014563
  31	1.5000e-02	1.2096	-25.977520	0.001631	16.313769	5.527254	0.131071
  32	1.5500e-02	1.2641	-26.195971	-0.000544	-5.437923	-1.842418	-0.043690
  33	1.6000e-02	1.3123	-25.795477	0.000997	9.969525	3.377767	0.080099
  34	1.6500e-02	1.3604	-25.941111	-0.000363	-3.625282	-1.228279	-0.029127
  35	1.7000e-02	1.3893	-25.358574	0.001450	14.501128	4.913115	0.116507
  36	1.7500e-02	1.4582	-25.285757	0.000181	1.812641	0.614139	0.014563
  37	1.8000e-02	1.4951	-24.958080	0.000816	8.156884	2.763627	0.065535
  38	1.8500e-02	1.5369	-25.176531	-0.000544	-5.437923	-1.842418	-0.043690
  39	1.9000e-02	1.5561	-25.067305	0.000272	2.718961	0.921209	0.021845
  40	1.9500e-02	1.6026	-24.593994	0.001178	11.782166	3.991906	0.094662
  41	2.0000e-02	1.6219	-24.302725	0.000725	7.250564	2.456558	0.058254
  42	2.0500e-02	1.6893	-24.776037	-0.001178	-11.782166	-3.991906	-0.094662
  43	2.1000e-02	1.7181	-24.448359	0.000816	8.156884	2.763627	0.065535
  44	2.1500e-02	1.7534	-24.193499	0.000634	6.344243	2.149488	0.050972
  45	2.2000e-02	1.7999	-24.011457	0.000453	4.531602	1.535348	0.036409
  46	2.2500e-02	1.8513	-23.538145	0.001178	11.782166	3.991906	0.094662
  47	2.3000e-02	1.8866	-23.610962	-0.000181	-1.812641	-0.614139	-0.014563
  48	2.3500e-02	1.9155	-23.465328	0.000363	3.625282	1.228279	0.029127
  49	2.4000e-02	1.9588	-23.174059	0.000725	7.250564	2.456558	0.058254
  50	2.4500e-02	2.0069	-23.137651	0.000091	0.906320	0.307070	0.007282
  51	2.5000e-02	2.0486	-22.955608	0.000453	4.531602	1.535348	0.036409
  52	2.5500e-02	2.0967	-22.737156	0.000544	5.437923	1.842418	0.043690
  53	2.6000e-02	2.1272	-22.809973	-0.000181	-1.812641	-0.614139	-0.014563
  54	2.6500e-02	2.1609	-22.591522	0.000544	5.437923	1.842418	0.043690
  55	2.7000e-02	2.1994	-22.445888	0.000363	3.625282	1.228279	0.029127
  56	2.7500e-02	2.2363	-22.118211	0.000816	8.156884	2.763627	0.065535
  57	2.8000e-02	2.2604	-22.118211	0.000000	0.000000	0.000000	0.000000
  58	2.8500e-02	2.3261	-21.535673	0.001450	14.501128	4.913115	0.116507
  59	2.9000e-02	2.3598	-21.899759	-0.000906	-9.063205	-3.070697	-0.072817
  60	2.9500e-02	2.3951	-22.008985	-0.000272	-2.718961	-0.921209	-0.021845
  61	3.0000e-02	2.4721	-21.535673	0.001178	11.782166	3.991906	0.094662
  62	3.0500e-02	2.5074	-21.317222	0.000544	5.437923	1.842418	0.043690
  63	3.1000e-02	2.5090	-21.462856	-0.000363	-3.625282	-1.228279	-0.029127
  64	3.1500e-02	2.5491	-21.062362	0.000997	9.969525	3.377767	0.080099
  65	3.2000e-02	2.5636	-20.661867	0.000997	9.969525	3.377767	0.080099
  66	3.2500e-02	2.6470	-21.025953	-0.000906	-9.063205	-3.070697	-0.072817
  67	3.3000e-02	2.6694	-20.370599	0.001631	16.313769	5.527254	0.131071
  68	3.3500e-02	2.7208	-20.407007	-0.000091	-0.906320	-0.307070	-0.007282
  69	3.4000e-02	2.7384	-20.188556	0.000544	5.437923	1.842418	0.043690
  70	3.4500e-02	2.7978	-20.516233	-0.000816	-8.156884	-2.763627	-0.065535
  71	3.5000e-02	2.8299	-19.751653	0.001903	19.032730	6.448463	0.152916
  72	3.5500e-02	2.8684	-20.042922	-0.000725	-7.250564	-2.456558	-0.058254
  73	3.6000e-02	2.9245	-19.824470	0.000544	5.437923	1.842418	0.043690
  74	3.6500e-02	2.9759	-19.715244	0.000272	2.718961	0.921209	0.021845
  75	3.7000e-02	2.9887	-19.278342	0.001088	10.875846	3.684836	0.087381
  76	3.7500e-02	3.0192	-19.314750	-0.000091	-0.906320	-0.307070	-0.007282
  77	3.8000e-02	3.0817	-19.132707	0.000453	4.531602	1.535348	0.036409
  78	3.8500e-02	3.1250	-18.877847	0.000634	6.344243	2.149488	0.050972
  79	3.9000e-02	3.1780	-18.805030	0.000181	1.812641	0.614139	0.014563
  80	3.9500e-02	3.1972	-18.914256	-0.000272	-2.718961	-0.921209	-0.021845
  81	4.0000e-02	3.2534	-18.695804	0.000544	5.437923	1.842418	0.043690
  82	4.0500e-02	3.2919	-18.186084	0.001269	12.688487	4.298976	0.101944
  83	4.1000e-02	3.3111	-17.931224	0.000634	6.344243	2.149488	0.050972
  84	4.1500e-02	3.3545	-18.113267	-0.000453	-4.531602	-1.535348	-0.036409
  85	4.2000e-02	3.3865	-18.295310	-0.000453	-4.531602	-1.535348	-0.036409
  86	4.2500e-02	3.4331	-18.004041	0.000725	7.250564	2.456558	0.058254
  87	4.3000e-02	3.4940	-17.457913	0.001359	13.594807	4.606045	0.109226
  88	4.3500e-02	3.5309	-17.385096	0.000181	1.812641	0.614139	0.014563
  89	4.4000e-02	3.5710	-17.858407	-0.001178	-11.782166	-3.991906	-0.094662
  90	4.4500e-02	3.6111	-17.457913	0.000997	9.969525	3.377767	0.080099
  91	4.5000e-02	3.6288	-17.166644	0.000725	7.250564	2.456558	0.058254
  92	4.5500e-02	3.6801	-16.766150	0.000997	9.969525	3.377767	0.080099
  93	4.6000e-02	3.7218	-16.838967	-0.000181	-1.812641	-0.614139	-0.014563
  94	4.6500e-02	3.7667	-16.438472	0.000997	9.969525	3.377767	0.080099
  95	4.7000e-02	3.8020	-16.438472	0.000000	0.000000	0.000000	0.000000
  96	4.7500e-02	3.8453	-15.928752	0.001269	12.688487	4.298976	0.101944
  97	4.8000e-02	3.8742	-16.329247	-0.000997	-9.969525	-3.377767	-0.080099
  98	4.8500e-02	3.9368	-16.001570	0.000816	8.156884	2.763627	0.065535
  99	4.9000e-02	3.9625	-16.037978	-0.000091	-0.906320	-0.307070	-0.007282
 100	4.9500e-02	3.9737	-15.746710	0.000725	7.250564	2.456558	0.058254
 101	5.0000e-02	4.0459	-15.528258	0.000544	5.437923	1.842418	0.043690
 102	5.0500e-02	4.0828	-15.855935	-0.000816	-8.156884	-2.763627	-0.065535
 103	5.1000e-02	4.1133	-15.273398	0.001450	14.501128	4.913115	0.116507
 104	5.1500e-02	4.1566	-15.164172	0.000272	2.718961	0.921209	0.021845
 105	5.2000e-02	4.2127	-15.200581	-0.000091	-0.906320	-0.307070	-0.007282
 106	5.2500e-02	4.2480	-15.018538	0.000453	4.531602	1.535348	0.036409
 107	5.3000e-02	4.2769	-14.763678	0.000634	6.344243	2.149488	0.050972
 108	5.3500e-02	4.3394	-14.800087	-0.000091	-0.906320	-0.307070	-0.007282
 109	5.4000e-02	4.3699	-14.545226	0.000634	6.344243	2.149488	0.050972
 110	5.4500e-02	4.4020	-14.290366	0.000634	6.344243	2.149488	0.050972
 111	5.5000e-02	4.4357	-14.108324	0.000453	4.531602	1.535348	0.036409
 112	5.5500e-02	4.4742	-14.035506	0.000181	1.812641	0.614139	0.014563
 113	5.6000e-02	4.5143	-13.744238	0.000725	7.250564	2.456558	0.058254
 114	5.6500e-02	4.5689	-13.343743	0.000997	9.969525	3.377767	0.080099
 115	5.7000e-02	4.5945	-13.635012	-0.000725	-7.250564	-2.456558	-0.058254
 116	5.7500e-02	4.6362	-13.707829	-0.000181	-1.812641	-0.614139	-0.014563
 117	5.8000e-02	4.6699	-13.416561	0.000725	7.250564	2.456558	0.058254
 118	5.8500e-02	4.7004	-13.307335	0.000272	2.718961	0.921209	0.021845
 119	5.9000e-02	4.7742	-13.052475	0.000634	6.344243	2.149488	0.050972
 120	5.9500e-02	4.8047	-13.125292	-0.000181	-1.812641	-0.614139	-0.014563
 121	6.0000e-02	4.8496	-12.651980	0.001178	11.782166	3.991906	0.094662
 122	6.0500e-02	4.8753	-12.943249	-0.000725	-7.250564	-2.456558	-0.058254
 123	6.1000e-02	4.9025	-12.506346	0.001088	10.875846	3.684836	0.087381
 124	6.1500e-02	4.9539	-12.287895	0.000544	5.437923	1.842418	0.043690
 125	6.2000e-02	4.9972	-12.069443	0.000544	5.437923	1.842418	0.043690
 126	6.2500e-02	5.0485	-12.324303	-0.000634	-6.344243	-2.149488	-0.050972
 127	6.3000e-02	5.0694	-11.814583	0.001269	12.688487	4.298976	0.101944
 128	6.3500e-02	5.1063	-11.850992	-0.000091	-0.906320	-0.307070	-0.007282
 129	6.4000e-02	5.1624	-11.559723	0.000725	7.250564	2.456558	0.058254
 130	6.4500e-02	5.1929	-11.559723	0.000000	0.000000	0.000000	0.000000
 131	6.5000e-02	5.2458	-11.232046	0.000816	8.156884	2.763627	0.065535
 132	6.5500e-02	5.2763	-11.195637	0.000091	0.906320	0.307070	0.007282
 133	6.6000e-02	5.2811	-11.013595	0.000453	4.531602	1.535348	0.036409
 134	6.6500e-02	5.3533	-10.831552	0.000453	4.531602	1.535348	0.036409
 135	6.7000e-02	5.3838	-10.467466	0.000906	9.063205	3.070697	0.072817
 136	6.7500e-02	5.4335	-10.758734	-0.000725	-7.250564	-2.456558	-0.058254
 137	6.8000e-02	5.4849	-10.394649	0.000906	9.063205	3.070697	0.072817
 138	6.8500e-02	5.5314	-10.467466	-0.000181	-1.812641	-0.614139	-0.014563
 139	6.9000e-02	5.5539	-10.358240	0.000272	2.718961	0.921209	0.021845
 140	6.9500e-02	5.5908	-9.957746	0.000997	9.969525	3.377767	0.080099
 141	7.0000e-02	5.6325	-10.249014	-0.000725	-7.250564	-2.456558	-0.058254
 142	7.0500e-02	5.6918	-9.884929	0.000906	9.063205	3.070697	0.072817
 143	7.1000e-02	5.7175	-10.030563	-0.000363	-3.625282	-1.228279	-0.029127
 144	7.1500e-02	5.7688	-9.265983	0.001903	19.032730	6.448463	0.152916
 145	7.2000e-02	5.7688	-9.338800	0.000181	1.812641	0.614139	-0.014563
 146	7.2500e-02	5.8474	-8.647037	0.001722	17.220089	5.834324	0.138353
 147	7.3000e-02	5.8859	-9.520843	-0.002175	-21.751691	-7.369673	-0.174761
 148	7.3500e-02	5.9100	-8.901897	0.001541	15.407448	5.220185	0.123789
 149	7.4000e-02	5.9180	-8.756263	0.000363	3.625282	1.228279	0.029127
 150	7.4500e-02	5.9982	-8.974714	-0.000544	-5.437923	-1.842418	-0.043690
 151	7.5000e-02	6.0383	-8.537811	0.001088	10.875846	3.684836	0.087381
 152	7.5500e-02	6.0688	-8.355768	0.000453	4.531602	1.535348	0.036409
 153	7.6000e-02	6.1025	-8.210134	0.000363	3.625282	1.228279	0.029127
 154	7.6500e-02	6.1474	-8.064500	0.000363	3.625282	1.228279	0.029127
 155	7.7000e-02	6.1667	-7.955274	0.000272	2.718961	0.921209	0.021845
 156	7.7500e-02	6.2357	-8.210134	-0.000634	-6.344243	-2.149488	-0.050972
 157	7.8000e-02	6.2774	-7.882457	0.000816	8.156884	2.763627	0.065535
 158	7.8500e-02	6.3223	-7.518371	0.000906	9.063205	3.070697	0.072817
 159	7.9000e-02	6.3528	-7.700414	-0.000453	-4.531602	-1.535348	-0.036409
 160	7.9500e-02	6.3913	-7.336328	0.000906	9.063205	3.070697	0.072817
 161	8.0000e-02	6.4137	-7.008651	0.000816	8.156884	2.763627	0.065535
 162	8.0500e-02	6.4763	-7.081468	-0.000181	-1.812641	-0.614139	-0.014563
 163	8.1000e-02	6.4586	-6.790200	-0.000725	-7.250564	-2.456558	0.058254
 164	8.1500e-02	6.5565	-6.498931	0.000725	7.250564	2.456558	0.058254
 165	8.2000e-02	6.6126	-6.863017	-0.000906	-9.063205	-3.070697	-0.072817
 166	8.2500e-02	6.6335	-6.244071	0.001541	15.407448	5.220185	0.123789
 167	8.3000e-02	6.6768	-6.717382	-0.001178	-11.782166	-3.991906	-0.094662
 168	8.3500e-02	6.7201	-6.062028	0.001631	16.313769	5.527254	0.131071
 169	8.4000e-02	6.7618	-6.134845	-0.000181	-1.812641	-0.614139	-0.014563
 170	8.4500e-02	6.8084	-5.843577	0.000725	7.250564	2.456558	0.058254
 171	8.5000e-02	6.8340	-5.734351	0.000272	2.718961	0.921209	0.021845
 172	8.5500e-02	6.8838	-5.770759	-0.000091	-0.906320	-0.307070	-0.007282
 173	8.6000e-02	6.9110	-5.625125	0.000363	3.625282	1.228279	0.029127
 174	8.6500e-02	6.9656	-5.261039	0.000906	9.063205	3.070697	0.072817
 175	8.7000e-02	6.9912	-5.552308	-0.000725	-7.250564	-2.456558	-0.058254
 176	8.7500e-02	7.0426	-5.188222	0.000906	9.063205	3.070697	0.072817
 177	8.8000e-02	7.0907	-5.115405	0.000181	1.812641	0.614139	0.014563
 178	8.8500e-02	7.1420	-4.751319	0.000906	9.063205	3.070697	0.072817
 179	8.9000e-02	7.1629	-4.605685	0.000363	3.625282	1.228279	0.029127
 180	8.9500e-02	7.1805	-4.278008	0.000816	8.156884	2.763627	0.065535
 181	9.0000e-02	7.2239	-4.496459	-0.000544	-5.437923	-1.842418	-0.043690
 182	9.0500e-02	7.2800	-4.278008	0.000544	5.437923	1.842418	0.043690
 183	9.1000e-02	7.3185	-4.569276	-0.000725	-7.250564	-2.456558	-0.058254
 184	9.1500e-02	7.3666	-4.278008	0.000725	7.250564	2.456558	0.058254
 185	9.2000e-02	7.4116	-3.877513	0.000997	9.969525	3.377767	0.080099
 186	9.2500e-02	7.4517	-3.841105	0.000091	0.906320	0.307070	0.007282
 187	9.3000e-02	7.4854	-4.132373	-0.000725	-7.250564	-2.456558	-0.058254
 188	9.3500e-02	7.5367	-3.367793	0.001903	19.032730	6.448463	0.152916
 189	9.4000e-02	7.5688	-3.331385	0.000091	0.906320	0.307070	0.007282
 190	9.4500e-02	7.5976	-3.404202	-0.000181	-1.812641	-0.614139	-0.014563
 191	9.5000e-02	7.6249	-3.040116	0.000906	9.063205	3.070697	0.072817
 192	9.5500e-02	7.6859	-3.003708	0.000091	0.906320	0.307070	0.007282
 193	9.6000e-02	7.7308	-3.076525	-0.000181	-1.812641	-0.614139	-0.014563
 194	9.6500e-02	7.7565	-2.785256	0.000725	7.250564	2.456558	0.058254
 195	9.7000e-02	7.7918	-2.712439	0.000181	1.812641	0.614139	0.014563
 196	9.7500e-02	7.8479	-2.566805	0.000363	3.625282	1.228279	0.029127
 197	9.8000e-02	7.8639	-2.384762	0.000453	4.531602	1.535348	0.036409
 198	9.8500e-02	7.9008	-2.566805	-0.000453	-4.531602	-1.535348	-0.036409
 199	9.9000e-02	7.9714	-2.275536	0.000725	7.250564	2.456558	0.058254
 200	9.9500e-02	8.0099	-2.020676	0.000634	6.344243	2.149488	0.050972
 201	1.0000e-01	8.0404	-1.656590	0.000906	9.063205	3.070697	0.072817
 202	1.0050e-01	8.0821	-1.911450	-0.000634	-6.344243	-2.149488	-0.050972
 203	1.0100e-01	8.1206	-1.692999	0.000544	5.437923	1.842418	0.043690
 204	1.0150e-01	8.1543	-1.328913	0.000906	9.063205	3.070697	0.072817
 205	1.0200e-01	8.1944	-1.292504	0.000091	0.906320	0.307070	0.007282
 206	1.0250e-01	8.2137	-1.328913	-0.000091	-0.906320	-0.307070	-0.007282
 207	1.0300e-01	8.2891	-1.110462	0.000544	5.437923	1.842418	0.043690
 208	1.0350e-01	8.3099	-1.183279	-0.000181	-1.812641	-0.614139	-0.014563
 209	1.0400e-01	8.3677	-0.928419	0.000634	6.344243	2.149488	0.050972
 210	1.0450e-01	8.3901	-0.600742	0.000816	8.156884	2.763627	0.065535
 211	1.0500e-01	8.4302	-0.345881	0.000634	6.344243	2.149488	0.050972
 212	1.0550e-01	8.4784	-0.746376	-0.000997	-9.969525	-3.377767	-0.080099
 213	1.0600e-01	8.5121	-0.273064	0.001178	11.782166	3.991906	0.094662
 214	1.0650e-01	8.5602	0.018204	0.000725	7.250564	2.456558	0.058254
 215	1.0700e-01	8.5810	-0.018204	-0.000091	-0.906320	-0.307070	-0.007282
 216	1.0750e-01	8.6468	-0.163839	-0.000363	-3.625282	-1.228279	-0.029127
 217	1.0800e-01	8.6629	0.200247	0.000906	9.063205	3.070697	0.072817
 218	1.0850e-01	8.7110	0.491516	0.000725	7.250564	2.456558	0.058254
 219	1.0900e-01	8.7527	0.091021	-0.000997	-9.969525	-3.377767	-0.080099
 220	1.0950e-01	8.7944	0.892010	0.001994	19.939050	6.755533	0.160198
 221	1.1000e-01	8.8425	0.527924	-0.000906	-9.063205	-3.070697	-0.072817
 222	1.1050e-01	8.8939	1.037644	0.001269	12.688487	4.298976	0.101944
 223	1.1100e-01	8.9243	1.001236	-0.000091	-0.906320	-0.307070	-0.007282
 224	1.1150e-01	8.9564	0.709967	-0.000725	-7.250564	-2.456558	-0.058254
 225	1.1200e-01	9.0094	1.074053	0.000906	9.063205	3.070697	0.072817
 226	1.1250e-01	9.0382	1.328913	0.000634	6.344243	2.149488	0.050972
 227	1.1300e-01	9.0800	1.328913	0.000000	0.000000	0.000000	0.000000
 228	1.1350e-01	9.1201	1.328913	0.000000	0.000000	0.000000	0.000000
 229	1.1400e-01	9.1393	1.911450	0.001450	14.501128	4.913115	0.116507
 230	1.1450e-01	9.2019	1.947859	0.000091	0.906320	0.307070	0.007282
 231	1.1500e-01	9.2131	1.984267	0.000091	0.906320	0.307070	0.007282
 232	1.1550e-01	9.2901	2.093493	0.000272	2.718961	0.921209	0.021845
 233	1.1600e-01	9.3046	1.875042	-0.000544	-5.437923	-1.842418	-0.043690
 234	1.1650e-01	9.3543	2.493988	0.001541	15.407448	5.220185	0.123789
 235	1.1700e-01	9.4168	2.239127	-0.000634	-6.344243	-2.149488	-0.050972
 236	1.1750e-01	9.4457	2.530396	0.000725	7.250564	2.456558	0.058254
 237	1.1800e-01	9.4650	2.639622	0.000272	2.718961	0.921209	0.021845
 238	1.1850e-01	9.5147	2.676030	0.000091	0.906320	0.307070	0.007282
 239	1.1900e-01	9.5612	2.894482	0.000544	5.437923	1.842418	0.043690
 240	1.1950e-01	9.5837	2.858073	-0.000091	-0.906320	-0.307070	-0.007282
 241	1.2000e-01	9.6414	3.294976	0.001088	10.875846	3.684836	0.087381
 242	1.2050e-01	9.6815	3.149342	-0.000363	-3.625282	-1.228279	-0.029127
 243	1.2100e-01	9.7072	3.258568	0.000272	2.718961	0.921209	0.021845
 244	1.2150e-01	9.7361	3.513428	0.000634	6.344243	2.149488	0.050972
 245	1.2200e-01	9.7794	3.513428	0.000000	0.000000	0.000000	0.000000
 246	1.2250e-01	9.8404	4.023148	0.001269	12.688487	4.298976	0.101944
 247	1.2300e-01	9.8885	3.804696	-0.000544	-5.437923	-1.842418	-0.043690
 248	1.2350e-01	9.8949	4.314416	0.001269	12.688487	4.298976	0.101944
 249	1.2400e-01	9.9623	4.168782	-0.000363	-3.625282	-1.228279	-0.029127
 250	1.2450e-01	10.0088	4.496459	0.000816	8.156884	2.763627	0.065535
 251	1.2500e-01	10.0585	4.532868	0.000091	0.906320	0.307070	0.007282
 252	1.2550e-01	10.0778	4.350825	-0.000453	-4.531602	-1.535348	-0.036409
 253	1.2600e-01	10.1002	5.042588	0.001722	17.220089	5.834324	0.138353
 254	1.2650e-01	10.1580	4.860545	-0.000453	-4.531602	-1.535348	-0.036409
 255	1.2700e-01	10.1853	4.642094	-0.000544	-5.437923	-1.842418	-0.043690
 256	1.2750e-01	10.2414	5.078996	0.001088	10.875846	3.684836	0.087381
 257	1.2800e-01	10.2751	5.297448	0.000544	5.437923	1.842418	0.043690
 258	1.2850e-01	10.3088	5.661534	0.000906	9.063205	3.070697	0.072817
