»»»»»»»»»»»»»»»»»»»»»»»»»»»»»»»»»»»» Hysteresis ««««««««««««««««««««««««««««««««««««
»»»  Executed Version:	5.48.1
»»»  Vision Version:	5.48.4 (R)
»»»  Vision Compiled:	9/18/24
»»»  Driver Version:	5.47.0
»»»  Windows Version:	Windows 8 or 8.1
»»»  Processor Information:	x86 (AMD or Intel) - 32 Processors
»»»  Tester Name:	PMF21124-494 (100V)
»»»  Tester S/N:	PMF21124-494
»»»  Internal Amp Type:	100V RevK 270k
»»»  Internal Amp S/N:	iAB2-596/K     
»»»  Execution Count:	1
»»»»»»»»»»»»»»»»»»»»»»»»»»»»»»»»»»»»»»»»»»««««««««««««««««««««««««««««««««««««««««««

Stored:	10/10/2025 - 15:26:7
Configured:	10/10/25 10:37:25 AM
Executed:	10/10/25 03:25:39 PM

»»»»»»»»»»»»»»»»»»»»»»»»»»»»»»»»»»» Sample Info ««««««««««««««««««««««««««««««««««««
Sample Name:	Int. Ref. Ferroelectric
Lot Name:	N/A
Wafer Name:	N/A
Die Row/Column:	0/0
Capacitor Number:	0
Sample Area (cm2):	1.00e-04
Sample Thickness (microns):	3.00e-01

Amplifier:	Internal

»»»»»»»»»»»»»»»»»»»»»»»»»»»»»»»»»»» Tester Info «««««««««««««««««««««««««««««««««««
Tester Name:	PMF21124-494 (100V)
Tester Serial Number:	PMF21124-494
Return Signal Amp. Level:	0.02 [Index: 2]

»»»»»»»»»»»»»»»»»»»»»»»»»»»»»»»» Hysteresis Info ««««««««««««««««««««««««««««««««««
Task Name:	Hyst-170
Volts:	20.00
Field:	666.67 (kV/cm)
DCBias:	0.00
DCField:	0.00 (kV/cm)
Hysteresis Period (ms):	5.00e-01
Preset:	Enabled
Preset Delay (ms):	1.00e+03
Profile:	Standard Monopolar

»»»»»»»»»»»»»»»»»»»»»»»»»»»»»»»»»»»»»» Data «««««««««««««««««««««««««««««««««««««««
Points:	1001

Valid Data

Point	Time (ms)	Drive Voltage	Measured Polarization (uC/cm2)	Capacitance (uF)	Normalized Capacitance (uF/cm2)	Dielectric Constant	Instantaneous Current (mA)
   1	0.0000e+00	0.0337	-12.451733	-0.000090	-0.904362	-0.306406	-0.007282
   2	5.0000e-04	0.0626	-12.488142	-0.000090	-0.904362	-0.306406	-0.007282
   3	1.0000e-03	0.1123	-12.087648	0.000995	9.947987	3.370469	0.080099
   4	1.5000e-03	0.1652	-11.942013	0.000362	3.617450	1.225625	0.029127
   5	2.0000e-03	0.1813	-11.978422	-0.000090	-0.904362	-0.306406	-0.007282
   6	2.5000e-03	0.2551	-12.051239	-0.000181	-1.808725	-0.612813	-0.014563
   7	3.0000e-03	0.2807	-12.269690	-0.000543	-5.426175	-1.838438	-0.043690
   8	3.5000e-03	0.3257	-11.759970	0.001266	12.661074	4.289688	0.101944
   9	4.0000e-03	0.3658	-11.687153	0.000181	1.808725	0.612813	0.014563
  10	4.5000e-03	0.3962	-11.505110	0.000452	4.521812	1.532031	0.036409
  11	5.0000e-03	0.4315	-11.723562	-0.000543	-5.426175	-1.838438	-0.043690
  12	5.5000e-03	0.4700	-11.250250	0.001176	11.756712	3.983282	0.094662
  13	6.0000e-03	0.5021	-11.614336	-0.000904	-9.043624	-3.064063	-0.072817
  14	6.5000e-03	0.5807	-11.395885	0.000543	5.426175	1.838438	0.043690
  15	7.0000e-03	0.6000	-11.541519	-0.000362	-3.617450	-1.225625	-0.029127
  16	7.5000e-03	0.6112	-11.031799	0.001266	12.661074	4.289688	0.101944
  17	8.0000e-03	0.6802	-11.468702	-0.001085	-10.852349	-3.676875	-0.087381
  18	8.5000e-03	0.7139	-10.776939	0.001718	17.182886	5.821719	0.138353
  19	9.0000e-03	0.7556	-11.141025	-0.000904	-9.043624	-3.064063	-0.072817
  20	9.5000e-03	0.7925	-11.031799	0.000271	2.713087	0.919219	0.021845
  21	1.0000e-02	0.8342	-10.922573	0.000271	2.713087	0.919219	0.021845
  22	1.0500e-02	0.8663	-10.886165	0.000090	0.904362	0.306406	0.007282
  23	1.1000e-02	0.9289	-11.031799	-0.000362	-3.617450	-1.225625	-0.029127
  24	1.1500e-02	0.9433	-10.776939	0.000633	6.330537	2.144844	0.050972
  25	1.2000e-02	1.0171	-10.449262	0.000814	8.139262	2.757657	0.065535
  26	1.2500e-02	1.0379	-10.849756	-0.000995	-9.947987	-3.370469	-0.080099
  27	1.3000e-02	1.0732	-10.340036	0.001266	12.661074	4.289688	0.101944
  28	1.3500e-02	1.1117	-10.194402	0.000362	3.617450	1.225625	0.029127
  29	1.4000e-02	1.1454	-10.376444	-0.000452	-4.521812	-1.532031	-0.036409
  30	1.4500e-02	1.1968	-10.412853	-0.000090	-0.904362	-0.306406	-0.007282
  31	1.5000e-02	1.2465	-10.485670	-0.000181	-1.808725	-0.612813	-0.014563
  32	1.5500e-02	1.2818	-10.594896	-0.000271	-2.713087	-0.919219	-0.021845
  33	1.6000e-02	1.3091	-10.121584	0.001176	11.756712	3.983282	0.094662
  34	1.6500e-02	1.3508	-9.975950	0.000362	3.617450	1.225625	0.029127
  35	1.7000e-02	1.3909	-10.012359	-0.000090	-0.904362	-0.306406	-0.007282
  36	1.7500e-02	1.4197	-10.012359	0.000000	0.000000	0.000000	0.000000
  37	1.8000e-02	1.4903	-10.012359	0.000000	0.000000	0.000000	0.000000
  38	1.8500e-02	1.5272	-9.793907	0.000543	5.426175	1.838438	0.043690
  39	1.9000e-02	1.5545	-9.830316	-0.000090	-0.904362	-0.306406	-0.007282
  40	1.9500e-02	1.5818	-9.684681	0.000362	3.617450	1.225625	0.029127
  41	2.0000e-02	1.6395	-9.611864	0.000181	1.808725	0.612813	0.014563
  42	2.0500e-02	1.6684	-9.793907	-0.000452	-4.521812	-1.532031	-0.036409
  43	2.1000e-02	1.7213	-9.684681	0.000271	2.713087	0.919219	0.021845
  44	2.1500e-02	1.7679	-9.684681	0.000000	0.000000	0.000000	0.000000
  45	2.2000e-02	1.8064	-9.211370	0.001176	11.756712	3.983282	0.094662
  46	2.2500e-02	1.8224	-9.029327	0.000452	4.521812	1.532031	0.036409
  47	2.3000e-02	1.8673	-9.393413	-0.000904	-9.043624	-3.064063	-0.072817
  48	2.3500e-02	1.9203	-9.284187	0.000271	2.713087	0.919219	0.021845
  49	2.4000e-02	1.9588	-9.174961	0.000271	2.713087	0.919219	0.021845
  50	2.4500e-02	2.0101	-8.992919	0.000452	4.521812	1.532031	0.036409
  51	2.5000e-02	2.0117	-9.065736	-0.000181	-1.808725	-0.612813	-0.014563
  52	2.5500e-02	2.0919	-8.992919	0.000181	1.808725	0.612813	0.014563
  53	2.6000e-02	2.1128	-8.847284	0.000362	3.617450	1.225625	0.029127
  54	2.6500e-02	2.1400	-8.738058	0.000271	2.713087	0.919219	0.021845
  55	2.7000e-02	2.1930	-8.410381	0.000814	8.139262	2.757657	0.065535
  56	2.7500e-02	2.2299	-8.446790	-0.000090	-0.904362	-0.306406	-0.007282
  57	2.8000e-02	2.2539	-8.810876	-0.000904	-9.043624	-3.064063	-0.072817
  58	2.8500e-02	2.3197	-8.738058	0.000181	1.808725	0.612813	0.014563
  59	2.9000e-02	2.3454	-8.483198	0.000633	6.330537	2.144844	0.050972
  60	2.9500e-02	2.4112	-8.446790	0.000090	0.904362	0.306406	0.007282
  61	3.0000e-02	2.4192	-8.337564	0.000271	2.713087	0.919219	0.021845
  62	3.0500e-02	2.4673	-8.082704	0.000633	6.330537	2.144844	0.050972
  63	3.1000e-02	2.5299	-7.937070	0.000362	3.617450	1.225625	0.029127
  64	3.1500e-02	2.5459	-8.119113	-0.000452	-4.521812	-1.532031	-0.036409
  65	3.2000e-02	2.5860	-8.337564	-0.000543	-5.426175	-1.838438	-0.043690
  66	3.2500e-02	2.6534	-7.791435	0.001357	13.565437	4.596094	0.109226
  67	3.3000e-02	2.6759	-8.264747	-0.001176	-11.756712	-3.983282	-0.094662
  68	3.3500e-02	2.7063	-7.973478	0.000723	7.234899	2.451250	0.058254
  69	3.4000e-02	2.7577	-7.864253	0.000271	2.713087	0.919219	0.021845
  70	3.4500e-02	2.8042	-7.900661	-0.000090	-0.904362	-0.306406	-0.007282
  71	3.5000e-02	2.8331	-7.755027	0.000362	3.617450	1.225625	0.029127
  72	3.5500e-02	2.8796	-7.318124	0.001085	10.852349	3.676875	0.087381
  73	3.6000e-02	2.9101	-7.609393	-0.000723	-7.234899	-2.451250	-0.058254
  74	3.6500e-02	2.9678	-7.645801	-0.000090	-0.904362	-0.306406	-0.007282
  75	3.7000e-02	3.0079	-7.354533	0.000723	7.234899	2.451250	0.058254
  76	3.7500e-02	3.0480	-7.245307	0.000271	2.713087	0.919219	0.021845
  77	3.8000e-02	3.0721	-7.318124	-0.000181	-1.808725	-0.612813	-0.014563
  78	3.8500e-02	3.1154	-7.645801	-0.000814	-8.139262	-2.757657	-0.065535
  79	3.9000e-02	3.1491	-7.208898	0.001085	10.852349	3.676875	0.087381
  80	3.9500e-02	3.1748	-7.026855	0.000452	4.521812	1.532031	0.036409
  81	4.0000e-02	3.2309	-7.245307	-0.000543	-5.426175	-1.838438	-0.043690
  82	4.0500e-02	3.2614	-7.390941	-0.000362	-3.617450	-1.225625	-0.029127
  83	4.1000e-02	3.3320	-7.172490	0.000543	5.426175	1.838438	0.043690
  84	4.1500e-02	3.3480	-7.208898	-0.000090	-0.904362	-0.306406	-0.007282
  85	4.2000e-02	3.3785	-6.589952	0.001537	15.374161	5.208907	0.123789
  86	4.2500e-02	3.4266	-6.517135	0.000181	1.808725	0.612813	0.014563
  87	4.3000e-02	3.4587	-6.407910	0.000271	2.713087	0.919219	0.021845
  88	4.3500e-02	3.5133	-6.881221	-0.001176	-11.756712	-3.983282	-0.094662
  89	4.4000e-02	3.5550	-6.626361	0.000633	6.330537	2.144844	0.050972
  90	4.4500e-02	3.5967	-6.589952	0.000090	0.904362	0.306406	0.007282
  91	4.5000e-02	3.6272	-6.480727	0.000271	2.713087	0.919219	0.021845
  92	4.5500e-02	3.6833	-6.699178	-0.000543	-5.426175	-1.838438	-0.043690
  93	4.6000e-02	3.7074	-6.626361	0.000181	1.808725	0.612813	0.014563
  94	4.6500e-02	3.7491	-6.116641	0.001266	12.661074	4.289688	0.101944
  95	4.7000e-02	3.8052	-6.189458	-0.000181	-1.808725	-0.612813	-0.014563
  96	4.7500e-02	3.8502	-5.971007	0.000543	5.426175	1.838438	0.043690
  97	4.8000e-02	3.8662	-6.335092	-0.000904	-9.043624	-3.064063	-0.072817
  98	4.8500e-02	3.9127	-6.116641	0.000543	5.426175	1.838438	0.043690
  99	4.9000e-02	3.9625	-5.752555	0.000904	9.043624	3.064063	0.072817
 100	4.9500e-02	3.9961	-5.861781	-0.000271	-2.713087	-0.919219	-0.021845
 101	5.0000e-02	4.0379	-5.898189	-0.000090	-0.904362	-0.306406	-0.007282
 102	5.0500e-02	4.0587	-5.716147	0.000452	4.521812	1.532031	0.036409
 103	5.1000e-02	4.1052	-5.643329	0.000181	1.808725	0.612813	0.014563
 104	5.1500e-02	4.1662	-5.971007	-0.000814	-8.139262	-2.757657	-0.065535
 105	5.2000e-02	4.2127	-5.279244	0.001718	17.182886	5.821719	0.138353
 106	5.2500e-02	4.2384	-5.752555	-0.001176	-11.756712	-3.983282	-0.094662
 107	5.3000e-02	4.2753	-5.279244	0.001176	11.756712	3.983282	0.094662
 108	5.3500e-02	4.3234	-5.934598	-0.001628	-16.278524	-5.515313	-0.131071
 109	5.4000e-02	4.3491	-5.606921	0.000814	8.139262	2.757657	0.065535
 110	5.4500e-02	4.4004	-5.206427	0.000995	9.947987	3.370469	0.080099
 111	5.5000e-02	4.4437	-5.424878	-0.000543	-5.426175	-1.838438	-0.043690
 112	5.5500e-02	4.4806	-5.206427	0.000543	5.426175	1.838438	0.043690
 113	5.6000e-02	4.5095	-5.388469	-0.000452	-4.521812	-1.532031	-0.036409
 114	5.6500e-02	4.5608	-5.206427	0.000452	4.521812	1.532031	0.036409
 115	5.7000e-02	4.5977	-5.024384	0.000452	4.521812	1.532031	0.036409
 116	5.7500e-02	4.6266	-4.915158	0.000271	2.713087	0.919219	0.021845
 117	5.8000e-02	4.6651	-5.024384	-0.000271	-2.713087	-0.919219	-0.021845
 118	5.8500e-02	4.7309	-5.170018	-0.000362	-3.617450	-1.225625	-0.029127
 119	5.9000e-02	4.7549	-5.133609	0.000090	0.904362	0.306406	0.007282
 120	5.9500e-02	4.8159	-4.805932	0.000814	8.139262	2.757657	0.065535
 121	6.0000e-02	4.8496	-4.842341	-0.000090	-0.904362	-0.306406	-0.007282
 122	6.0500e-02	4.8721	-4.733115	0.000271	2.713087	0.919219	0.021845
 123	6.1000e-02	4.8881	-4.733115	0.000000	0.000000	0.000000	0.000000
 124	6.1500e-02	4.9266	-4.478255	0.000633	6.330537	2.144844	0.050972
 125	6.2000e-02	5.0196	-4.769524	-0.000723	-7.234899	-2.451250	-0.058254
 126	6.2500e-02	5.0293	-4.223395	0.001357	13.565437	4.596094	0.109226
 127	6.3000e-02	5.0742	-4.514664	-0.000723	-7.234899	-2.451250	-0.058254
 128	6.3500e-02	5.1223	-4.259804	0.000633	6.330537	2.144844	0.050972
 129	6.4000e-02	5.1512	-4.405438	-0.000362	-3.617450	-1.225625	-0.029127
 130	6.4500e-02	5.2138	-4.332621	0.000181	1.808725	0.612813	0.014563
 131	6.5000e-02	5.2378	-3.895718	0.001085	10.852349	3.676875	0.087381
 132	6.5500e-02	5.2795	-4.114169	-0.000543	-5.426175	-1.838438	-0.043690
 133	6.6000e-02	5.3373	-4.259804	-0.000362	-3.617450	-1.225625	-0.029127
 134	6.6500e-02	5.3597	-3.859309	0.000995	9.947987	3.370469	0.080099
 135	6.7000e-02	5.3870	-3.713675	0.000362	3.617450	1.225625	0.029127
 136	6.7500e-02	5.4464	-3.458815	0.000633	6.330537	2.144844	0.050972
 137	6.8000e-02	5.4769	-3.859309	-0.000995	-9.947987	-3.370469	-0.080099
 138	6.8500e-02	5.5282	-3.677266	0.000452	4.521812	1.532031	0.036409
 139	6.9000e-02	5.5779	-3.932126	-0.000633	-6.330537	-2.144844	-0.050972
 140	6.9500e-02	5.5908	-3.750083	0.000452	4.521812	1.532031	0.036409
 141	7.0000e-02	5.6244	-3.822901	-0.000181	-1.808725	-0.612813	-0.014563
 142	7.0500e-02	5.6982	-3.422406	0.000995	9.947987	3.370469	0.080099
 143	7.1000e-02	5.7191	-3.568041	-0.000362	-3.617450	-1.225625	-0.029127
 144	7.1500e-02	5.7399	-3.495223	0.000181	1.808725	0.612813	0.014563
 145	7.2000e-02	5.8234	-3.240363	0.000633	6.330537	2.144844	0.050972
 146	7.2500e-02	5.8202	-3.568041	0.000814	8.139262	2.757657	-0.065535
 147	7.3000e-02	5.8763	-3.240363	0.000814	8.139262	2.757657	0.065535
 148	7.3500e-02	5.9228	-3.021912	0.000543	5.426175	1.838438	0.043690
 149	7.4000e-02	5.9565	-2.985503	0.000090	0.904362	0.306406	0.007282
 150	7.4500e-02	5.9806	-2.985503	0.000000	0.000000	0.000000	0.000000
 151	7.5000e-02	6.0303	-3.422406	-0.001085	-10.852349	-3.676875	-0.087381
 152	7.5500e-02	6.0897	-3.203955	0.000543	5.426175	1.838438	0.043690
 153	7.6000e-02	6.1234	-2.694235	0.001266	12.661074	4.289688	0.101944
 154	7.6500e-02	6.1490	-3.058320	-0.000904	-9.043624	-3.064063	-0.072817
 155	7.7000e-02	6.2116	-2.803460	0.000633	6.330537	2.144844	0.050972
 156	7.7500e-02	6.2308	-2.694235	0.000271	2.713087	0.919219	0.021845
 157	7.8000e-02	6.2806	-2.730643	-0.000090	-0.904362	-0.306406	-0.007282
 158	7.8500e-02	6.3255	-2.621418	0.000271	2.713087	0.919219	0.021845
 159	7.9000e-02	6.3576	-2.657826	-0.000090	-0.904362	-0.306406	-0.007282
 160	7.9500e-02	6.4009	-2.512192	0.000362	3.617450	1.225625	0.029127
 161	8.0000e-02	6.4282	-2.512192	0.000000	0.000000	0.000000	0.000000
 162	8.0500e-02	6.4971	-2.475783	0.000090	0.904362	0.306406	0.007282
 163	8.1000e-02	6.4907	-2.220923	-0.000633	-6.330537	-2.144844	0.050972
 164	8.1500e-02	6.5597	-2.184515	0.000090	0.904362	0.306406	0.007282
 165	8.2000e-02	6.6078	-2.330149	-0.000362	-3.617450	-1.225625	-0.029127
 166	8.2500e-02	6.6271	-1.820429	0.001266	12.661074	4.289688	0.101944
 167	8.3000e-02	6.6736	-2.075289	-0.000633	-6.330537	-2.144844	-0.050972
 168	8.3500e-02	6.7041	-1.784020	0.000723	7.234899	2.451250	0.058254
 169	8.4000e-02	6.7410	-1.893246	-0.000271	-2.713087	-0.919219	-0.021845
 170	8.4500e-02	6.7875	-2.075289	-0.000452	-4.521812	-1.532031	-0.036409
 171	8.5000e-02	6.8421	-2.184515	-0.000271	-2.713087	-0.919219	-0.021845
 172	8.5500e-02	6.8790	-1.929655	0.000633	6.330537	2.144844	0.050972
 173	8.6000e-02	6.9223	-1.492752	0.001085	10.852349	3.676875	0.087381
 174	8.6500e-02	6.9527	-2.038880	-0.001357	-13.565437	-4.596094	-0.109226
 175	8.7000e-02	6.9736	-1.529160	0.001266	12.661074	4.289688	0.101944
 176	8.7500e-02	7.0362	-1.674795	-0.000362	-3.617450	-1.225625	-0.029127
 177	8.8000e-02	7.0779	-1.674795	0.000000	0.000000	0.000000	0.000000
 178	8.8500e-02	7.1308	-1.529160	0.000362	3.617450	1.225625	0.029127
 179	8.9000e-02	7.1597	-1.529160	0.000000	0.000000	0.000000	0.000000
 180	8.9500e-02	7.1822	-1.565569	-0.000090	-0.904362	-0.306406	-0.007282
 181	9.0000e-02	7.2367	-1.237892	0.000814	8.139262	2.757657	0.065535
 182	9.0500e-02	7.2592	-0.983032	0.000633	6.330537	2.144844	0.050972
 183	9.1000e-02	7.3105	-1.165074	-0.000452	-4.521812	-1.532031	-0.036409
 184	9.1500e-02	7.3586	-1.347117	-0.000452	-4.521812	-1.532031	-0.036409
 185	9.2000e-02	7.4100	-0.946623	0.000995	9.947987	3.370469	0.080099
 186	9.2500e-02	7.4260	-1.128666	-0.000452	-4.521812	-1.532031	-0.036409
 187	9.3000e-02	7.4998	-0.873806	0.000633	6.330537	2.144844	0.050972
 188	9.3500e-02	7.5014	-1.092257	-0.000543	-5.426175	-1.838438	-0.043690
 189	9.4000e-02	7.5463	-0.800989	0.000723	7.234899	2.451250	0.058254
 190	9.4500e-02	7.6201	-0.910214	-0.000271	-2.713087	-0.919219	-0.021845
 191	9.5000e-02	7.6410	-0.946623	-0.000090	-0.904362	-0.306406	-0.007282
 192	9.5500e-02	7.6682	-0.910214	0.000090	0.904362	0.306406	0.007282
 193	9.6000e-02	7.7468	-0.618946	0.000723	7.234899	2.451250	0.058254
 194	9.6500e-02	7.7661	-0.582537	0.000090	0.904362	0.306406	0.007282
 195	9.7000e-02	7.7853	-0.218451	0.000904	9.043624	3.064063	0.072817
 196	9.7500e-02	7.8351	-0.873806	-0.001628	-16.278524	-5.515313	-0.131071
 197	9.8000e-02	7.8720	-0.327677	0.001357	13.565437	4.596094	0.109226
 198	9.8500e-02	7.9041	-0.582537	-0.000633	-6.330537	-2.144844	-0.050972
 199	9.9000e-02	7.9602	-0.436903	0.000362	3.617450	1.225625	0.029127
 200	9.9500e-02	8.0051	-0.582537	-0.000362	-3.617450	-1.225625	-0.029127
 201	1.0000e-01	8.0180	-0.254860	0.000814	8.139262	2.757657	0.065535
 202	1.0050e-01	8.0709	-0.327677	-0.000181	-1.808725	-0.612813	-0.014563
 203	1.0100e-01	8.1286	-0.218451	0.000271	2.713087	0.919219	0.021845
 204	1.0150e-01	8.1495	-0.145634	0.000181	1.808725	0.612813	0.014563
 205	1.0200e-01	8.2057	0.109226	0.000633	6.330537	2.144844	0.050972
 206	1.0250e-01	8.2201	-0.254860	-0.000904	-9.043624	-3.064063	-0.072817
 207	1.0300e-01	8.3019	0.509720	0.001899	18.991611	6.434532	0.152916
 208	1.0350e-01	8.3179	-0.109226	-0.001537	-15.374161	-5.208907	-0.123789
 209	1.0400e-01	8.3581	0.291269	0.000995	9.947987	3.370469	0.080099
 210	1.0450e-01	8.3853	-0.072817	-0.000904	-9.043624	-3.064063	-0.072817
 211	1.0500e-01	8.4318	0.436903	0.001266	12.661074	4.289688	0.101944
 212	1.0550e-01	8.4784	0.182043	-0.000633	-6.330537	-2.144844	-0.050972
 213	1.0600e-01	8.5217	0.218451	0.000090	0.904362	0.306406	0.007282
 214	1.0650e-01	8.5522	0.582537	0.000904	9.043624	3.064063	0.072817
 215	1.0700e-01	8.5939	0.182043	-0.000995	-9.947987	-3.370469	-0.080099
 216	1.0750e-01	8.6211	0.582537	0.000995	9.947987	3.370469	0.080099
 217	1.0800e-01	8.7014	0.436903	-0.000362	-3.617450	-1.225625	-0.029127
 218	1.0850e-01	8.7110	0.800989	0.000904	9.043624	3.064063	0.072817
 219	1.0900e-01	8.7495	0.800989	0.000000	0.000000	0.000000	0.000000
 220	1.0950e-01	8.7896	0.873806	0.000181	1.808725	0.612813	0.014563
 221	1.1000e-01	8.8602	0.509720	-0.000904	-9.043624	-3.064063	-0.072817
 222	1.1050e-01	8.8682	0.582537	0.000181	1.808725	0.612813	0.014563
 223	1.1100e-01	8.9388	0.983032	0.000995	9.947987	3.370469	0.080099
 224	1.1150e-01	8.9580	0.946623	-0.000090	-0.904362	-0.306406	-0.007282
 225	1.1200e-01	9.0286	1.092257	0.000362	3.617450	1.225625	0.029127
 226	1.1250e-01	9.0415	0.691763	-0.000995	-9.947987	-3.370469	-0.080099
 227	1.1300e-01	9.0703	1.347117	0.001628	16.278524	5.515313	0.131071
 228	1.1350e-01	9.1265	0.582537	-0.001899	-18.991611	-6.434532	-0.152916
 229	1.1400e-01	9.1586	0.946623	0.000904	9.043624	3.064063	0.072817
 230	1.1450e-01	9.2099	1.019440	0.000181	1.808725	0.612813	0.014563
 231	1.1500e-01	9.2356	1.529160	0.001266	12.661074	4.289688	0.101944
 232	1.1550e-01	9.2757	1.347117	-0.000452	-4.521812	-1.532031	-0.036409
 233	1.1600e-01	9.3270	1.893246	0.001357	13.565437	4.596094	0.109226
 234	1.1650e-01	9.3639	1.601977	-0.000723	-7.234899	-2.451250	-0.058254
 235	1.1700e-01	9.3928	1.638386	0.000090	0.904362	0.306406	0.007282
 236	1.1750e-01	9.4233	1.383526	-0.000633	-6.330537	-2.144844	-0.050972
 237	1.1800e-01	9.4794	1.601977	0.000543	5.426175	1.838438	0.043690
 238	1.1850e-01	9.5211	1.820429	0.000543	5.426175	1.838438	0.043690
 239	1.1900e-01	9.5516	1.565569	-0.000633	-6.330537	-2.144844	-0.050972
 240	1.1950e-01	9.6206	1.856837	0.000723	7.234899	2.451250	0.058254
 241	1.2000e-01	9.6398	1.929655	0.000181	1.808725	0.612813	0.014563
 242	1.2050e-01	9.6976	1.820429	-0.000271	-2.713087	-0.919219	-0.021845
 243	1.2100e-01	9.7233	2.111697	0.000723	7.234899	2.451250	0.058254
 244	1.2150e-01	9.7457	1.966063	-0.000362	-3.617450	-1.225625	-0.029127
 245	1.2200e-01	9.8147	1.820429	-0.000362	-3.617450	-1.225625	-0.029127
 246	1.2250e-01	9.8436	1.929655	0.000271	2.713087	0.919219	0.021845
 247	1.2300e-01	9.8628	2.220923	0.000723	7.234899	2.451250	0.058254
 248	1.2350e-01	9.9190	2.002472	-0.000543	-5.426175	-1.838438	-0.043690
 249	1.2400e-01	9.9478	2.148106	0.000362	3.617450	1.225625	0.029127
 250	1.2450e-01	10.0168	2.439375	0.000723	7.234899	2.451250	0.058254
 251	1.2500e-01	10.0393	2.366558	-0.000181	-1.808725	-0.612813	-0.014563
 252	1.2550e-01	10.0762	2.220923	-0.000362	-3.617450	-1.225625	-0.029127
 253	1.2600e-01	10.1115	2.293740	0.000181	1.808725	0.612813	0.014563
 254	1.2650e-01	10.1724	2.402966	0.000271	2.713087	0.919219	0.021845
 255	1.2700e-01	10.1837	2.111697	-0.000723	-7.234899	-2.451250	-0.058254
 256	1.2750e-01	10.2350	2.512192	0.000995	9.947987	3.370469	0.080099
 257	1.2800e-01	10.2719	2.402966	-0.000271	-2.713087	-0.919219	-0.021845
 258	1.2850e-01	10.3281	2.585009	0.000452	4.521812	1.532031	0.036409
 259	1.2900e-01	10.3441	2.512192	-0.000181	-1.808725	-0.612813	-0.014563
