»»»»»»»»»»»»»»»»»»»»»»»»»»»»»»»»»»»» Hysteresis ««««««««««««««««««««««««««««««««««««
»»»  Executed Version:	5.48.1
»»»  Vision Version:	5.48.4 (R)
»»»  Vision Compiled:	9/18/24
»»»  Driver Version:	5.47.0
»»»  Windows Version:	Windows 8 or 8.1
»»»  Processor Information:	x86 (AMD or Intel) - 32 Processors
»»»  Tester Name:	PMF21124-494 (100V)
»»»  Tester S/N:	PMF21124-494
»»»  Internal Amp Type:	100V RevK 270k
»»»  Internal Amp S/N:	iAB2-596/K     
»»»  Execution Count:	1
»»»»»»»»»»»»»»»»»»»»»»»»»»»»»»»»»»»»»»»»»»««««««««««««««««««««««««««««««««««««««««««

Stored:	10/10/2025 - 15:22:37
Configured:	10/10/25 10:37:25 AM
Executed:	10/10/25 03:22:08 PM

»»»»»»»»»»»»»»»»»»»»»»»»»»»»»»»»»»» Sample Info ««««««««««««««««««««««««««««««««««««
Sample Name:	Int. Ref. Ferroelectric
Lot Name:	N/A
Wafer Name:	N/A
Die Row/Column:	0/0
Capacitor Number:	0
Sample Area (cm2):	1.00e-04
Sample Thickness (microns):	3.00e-01

Amplifier:	Internal

»»»»»»»»»»»»»»»»»»»»»»»»»»»»»»»»»»» Tester Info «««««««««««««««««««««««««««««««««««
Tester Name:	PMF21124-494 (100V)
Tester Serial Number:	PMF21124-494
Return Signal Amp. Level:	0.02 [Index: 2]

»»»»»»»»»»»»»»»»»»»»»»»»»»»»»»»» Hysteresis Info ««««««««««««««««««««««««««««««««««
Task Name:	Hyst-170
Volts:	20.00
Field:	666.67 (kV/cm)
DCBias:	0.00
DCField:	0.00 (kV/cm)
Hysteresis Period (ms):	5.00e-01
Preset:	Enabled
Preset Delay (ms):	1.00e+03
Profile:	Standard Monopolar

»»»»»»»»»»»»»»»»»»»»»»»»»»»»»»»»»»»»»» Data «««««««««««««««««««««««««««««««««««««««
Points:	1001

Valid Data

Point	Time (ms)	Drive Voltage	Measured Polarization (uC/cm2)	Capacitance (uF)	Normalized Capacitance (uF/cm2)	Dielectric Constant	Instantaneous Current (mA)
   1	0.0000e+00	0.0433	-21.481060	-0.000447	-4.466025	-1.513130	0.036409
   2	5.0000e-04	0.0337	-21.299018	-0.000447	-4.466025	-1.513130	0.036409
   3	1.0000e-03	0.1299	-21.044157	0.000625	6.252434	2.118382	0.050972
   4	1.5000e-03	0.1749	-21.116975	-0.000179	-1.786410	-0.605252	-0.014563
   5	2.0000e-03	0.1989	-21.299018	-0.000447	-4.466025	-1.513130	-0.036409
   6	2.5000e-03	0.2487	-20.971340	0.000804	8.038844	2.723634	0.065535
   7	3.0000e-03	0.2583	-20.789297	0.000447	4.466025	1.513130	0.036409
   8	3.5000e-03	0.3112	-20.461620	0.000804	8.038844	2.723634	0.065535
   9	4.0000e-03	0.3914	-20.643663	-0.000447	-4.466025	-1.513130	-0.036409
  10	4.5000e-03	0.4139	-20.388803	0.000625	6.252434	2.118382	0.050972
  11	5.0000e-03	0.4508	-20.243169	0.000357	3.572820	1.210504	0.029127
  12	5.5000e-03	0.4973	-20.716480	-0.001161	-11.611664	-3.934138	-0.094662
  13	6.0000e-03	0.5230	-20.206760	0.001250	12.504869	4.236764	0.101944
  14	6.5000e-03	0.5358	-19.951900	0.000625	6.252434	2.118382	0.050972
  15	7.0000e-03	0.6417	-20.206760	-0.000625	-6.252434	-2.118382	-0.050972
  16	7.5000e-03	0.6401	-19.806266	-0.000983	-9.825254	-3.328886	0.080099
  17	8.0000e-03	0.6850	-20.133943	-0.000804	-8.038844	-2.723634	-0.065535
  18	8.5000e-03	0.7171	-19.697040	0.001072	10.718459	3.631512	0.087381
  19	9.0000e-03	0.7588	-19.660632	0.000089	0.893205	0.302626	0.007282
  20	9.5000e-03	0.7909	-19.223729	0.001072	10.718459	3.631512	0.087381
  21	1.0000e-02	0.8438	-19.332954	-0.000268	-2.679615	-0.907878	-0.021845
  22	1.0500e-02	0.8920	-19.369363	-0.000089	-0.893205	-0.302626	-0.007282
  23	1.1000e-02	0.9192	-19.187320	0.000447	4.466025	1.513130	0.036409
  24	1.1500e-02	0.9978	-19.187320	0.000000	0.000000	0.000000	0.000000
  25	1.2000e-02	1.0010	-18.786826	0.000983	9.825254	3.328886	0.080099
  26	1.2500e-02	1.0524	-18.568374	0.000536	5.359229	1.815756	0.043690
  27	1.3000e-02	1.0941	-18.786826	-0.000536	-5.359229	-1.815756	-0.043690
  28	1.3500e-02	1.1454	-18.531966	0.000625	6.252434	2.118382	0.050972
  29	1.4000e-02	1.1839	-18.459149	0.000179	1.786410	0.605252	0.014563
  30	1.4500e-02	1.2160	-18.604783	-0.000357	-3.572820	-1.210504	-0.029127
  31	1.5000e-02	1.2433	-18.349923	0.000625	6.252434	2.118382	0.050972
  32	1.5500e-02	1.2850	-18.167880	0.000447	4.466025	1.513130	0.036409
  33	1.6000e-02	1.3010	-17.949428	0.000536	5.359229	1.815756	0.043690
  34	1.6500e-02	1.3668	-17.730977	0.000536	5.359229	1.815756	0.043690
  35	1.7000e-02	1.4069	-17.876611	-0.000357	-3.572820	-1.210504	-0.029127
  36	1.7500e-02	1.4534	-17.985837	-0.000268	-2.679615	-0.907878	-0.021845
  37	1.8000e-02	1.5016	-17.548934	0.001072	10.718459	3.631512	0.087381
  38	1.8500e-02	1.5320	-17.548934	0.000000	0.000000	0.000000	0.000000
  39	1.9000e-02	1.5609	-17.330483	0.000536	5.359229	1.815756	0.043690
  40	1.9500e-02	1.6026	-17.330483	0.000000	0.000000	0.000000	0.000000
  41	2.0000e-02	1.6668	-17.366891	-0.000089	-0.893205	-0.302626	-0.007282
  42	2.0500e-02	1.6925	-17.257665	0.000268	2.679615	0.907878	0.021845
  43	2.1000e-02	1.7454	-17.002805	0.000625	6.252434	2.118382	0.050972
  44	2.1500e-02	1.7759	-17.002805	0.000000	0.000000	0.000000	0.000000
  45	2.2000e-02	1.7919	-16.857171	0.000357	3.572820	1.210504	0.029127
  46	2.2500e-02	1.8625	-16.529494	0.000804	8.038844	2.723634	0.065535
  47	2.3000e-02	1.8770	-16.493085	0.000089	0.893205	0.302626	0.007282
  48	2.3500e-02	1.9475	-16.311042	0.000447	4.466025	1.513130	0.036409
  49	2.4000e-02	1.9652	-16.529494	-0.000536	-5.359229	-1.815756	-0.043690
  50	2.4500e-02	2.0197	-16.311042	0.000536	5.359229	1.815756	0.043690
  51	2.5000e-02	2.0614	-16.274634	0.000089	0.893205	0.302626	0.007282
  52	2.5500e-02	2.1112	-15.874140	0.000983	9.825254	3.328886	0.080099
  53	2.6000e-02	2.1160	-16.165408	-0.000715	-7.145639	-2.421008	-0.058254
  54	2.6500e-02	2.1657	-15.874140	0.000715	7.145639	2.421008	0.058254
  55	2.7000e-02	2.2283	-15.400828	0.001161	11.611664	3.934138	0.094662
  56	2.7500e-02	2.2395	-15.837731	-0.001072	-10.718459	-3.631512	-0.087381
  57	2.8000e-02	2.2860	-15.255194	0.001429	14.291279	4.842016	0.116507
  58	2.8500e-02	2.2892	-15.655688	-0.000983	-9.825254	-3.328886	-0.080099
  59	2.9000e-02	2.3727	-15.328011	0.000804	8.038844	2.723634	0.065535
  60	2.9500e-02	2.4336	-15.255194	0.000179	1.786410	0.605252	0.014563
  61	3.0000e-02	2.4513	-15.182377	0.000179	1.786410	0.605252	0.014563
  62	3.0500e-02	2.4914	-14.963925	0.000536	5.359229	1.815756	0.043690
  63	3.1000e-02	2.5106	-14.818291	0.000357	3.572820	1.210504	0.029127
  64	3.1500e-02	2.5588	-14.891108	-0.000179	-1.786410	-0.605252	-0.014563
  65	3.2000e-02	2.6117	-14.854699	0.000089	0.893205	0.302626	0.007282
  66	3.2500e-02	2.6630	-14.454205	0.000983	9.825254	3.328886	0.080099
  67	3.3000e-02	2.6422	-14.781882	0.000804	8.038844	2.723634	-0.065535
  68	3.3500e-02	2.7513	-14.381388	0.000983	9.825254	3.328886	0.080099
  69	3.4000e-02	2.7561	-14.017302	0.000893	8.932049	3.026260	0.072817
  70	3.4500e-02	2.8138	-14.272162	-0.000625	-6.252434	-2.118382	-0.050972
  71	3.5000e-02	2.8218	-13.944485	0.000804	8.038844	2.723634	0.065535
  72	3.5500e-02	2.9197	-14.053711	-0.000268	-2.679615	-0.907878	-0.021845
  73	3.6000e-02	2.9502	-13.762442	0.000715	7.145639	2.421008	0.058254
  74	3.6500e-02	2.9470	-13.616808	-0.000357	-3.572820	-1.210504	0.029127
  75	3.7000e-02	2.9791	-13.944485	-0.000804	-8.038844	-2.723634	-0.065535
  76	3.7500e-02	3.0304	-13.179905	0.001876	18.757303	6.355146	0.152916
  77	3.8000e-02	3.0673	-13.471173	-0.000715	-7.145639	-2.421008	-0.058254
  78	3.8500e-02	3.1026	-12.852228	0.001518	15.184483	5.144642	0.123789
  79	3.9000e-02	3.1684	-13.507582	-0.001608	-16.077688	-5.447268	-0.131071
  80	3.9500e-02	3.1988	-13.216313	0.000715	7.145639	2.421008	0.058254
  81	4.0000e-02	3.2566	-12.997862	0.000536	5.359229	1.815756	0.043690
  82	4.0500e-02	3.2678	-13.107088	-0.000268	-2.679615	-0.907878	-0.021845
  83	4.1000e-02	3.3512	-12.852228	0.000625	6.252434	2.118382	0.050972
  84	4.1500e-02	3.3673	-12.378916	0.001161	11.611664	3.934138	0.094662
  85	4.2000e-02	3.4138	-12.815819	-0.001072	-10.718459	-3.631512	-0.087381
  86	4.2500e-02	3.4363	-12.233282	0.001429	14.291279	4.842016	0.116507
  87	4.3000e-02	3.4972	-12.451733	-0.000536	-5.359229	-1.815756	-0.043690
  88	4.3500e-02	3.5245	-12.051239	0.000983	9.825254	3.328886	0.080099
  89	4.4000e-02	3.5630	-12.124056	-0.000179	-1.786410	-0.605252	-0.014563
  90	4.4500e-02	3.5983	-12.196873	-0.000179	-1.786410	-0.605252	-0.014563
  91	4.5000e-02	3.6336	-11.759970	0.001072	10.718459	3.631512	0.087381
  92	4.5500e-02	3.6881	-11.905605	-0.000357	-3.572820	-1.210504	-0.029127
  93	4.6000e-02	3.7379	-11.687153	0.000536	5.359229	1.815756	0.043690
  94	4.6500e-02	3.7667	-11.577927	0.000268	2.679615	0.907878	0.021845
  95	4.7000e-02	3.8165	-11.832788	-0.000625	-6.252434	-2.118382	-0.050972
  96	4.7500e-02	3.8566	-11.323067	0.001250	12.504869	4.236764	0.101944
  97	4.8000e-02	3.8790	-11.104616	0.000536	5.359229	1.815756	0.043690
  98	4.8500e-02	3.9207	-11.177433	-0.000179	-1.786410	-0.605252	-0.014563
  99	4.9000e-02	3.9592	-11.286659	-0.000268	-2.679615	-0.907878	-0.021845
 100	4.9500e-02	4.0218	-11.250250	0.000089	0.893205	0.302626	0.007282
 101	5.0000e-02	4.0395	-11.286659	-0.000089	-0.893205	-0.302626	-0.007282
 102	5.0500e-02	4.0908	-10.886165	0.000983	9.825254	3.328886	0.080099
 103	5.1000e-02	4.1389	-10.704122	0.000447	4.466025	1.513130	0.036409
 104	5.1500e-02	4.1951	-10.485670	0.000536	5.359229	1.815756	0.043690
 105	5.2000e-02	4.2095	-10.922573	-0.001072	-10.718459	-3.631512	-0.087381
 106	5.2500e-02	4.2544	-10.157993	0.001876	18.757303	6.355146	0.152916
 107	5.3000e-02	4.2657	-10.376444	-0.000536	-5.359229	-1.815756	-0.043690
 108	5.3500e-02	4.3699	-10.267219	0.000268	2.679615	0.907878	0.021845
 109	5.4000e-02	4.3523	-10.230810	-0.000089	-0.893205	-0.302626	0.007282
 110	5.4500e-02	4.3828	-10.048767	0.000447	4.466025	1.513130	0.036409
 111	5.5000e-02	4.4277	-9.684681	0.000893	8.932049	3.026260	0.072817
 112	5.5500e-02	4.5095	-9.939542	-0.000625	-6.252434	-2.118382	-0.050972
 113	5.6000e-02	4.5304	-9.903133	0.000089	0.893205	0.302626	0.007282
 114	5.6500e-02	4.5785	-9.429821	0.001161	11.611664	3.934138	0.094662
 115	5.7000e-02	4.5929	-9.757499	-0.000804	-8.038844	-2.723634	-0.065535
 116	5.7500e-02	4.6475	-9.721090	0.000089	0.893205	0.302626	0.007282
 117	5.8000e-02	4.6635	-9.429821	0.000715	7.145639	2.421008	0.058254
 118	5.8500e-02	4.7052	-9.320596	0.000268	2.679615	0.907878	0.021845
 119	5.9000e-02	4.7549	-9.320596	0.000000	0.000000	0.000000	0.000000
 120	5.9500e-02	4.8175	-8.738058	0.001429	14.291279	4.842016	0.116507
 121	6.0000e-02	4.8560	-8.774467	-0.000089	-0.893205	-0.302626	-0.007282
 122	6.0500e-02	4.8865	-9.247779	-0.001161	-11.611664	-3.934138	-0.094662
 123	6.1000e-02	4.9298	-8.446790	0.001965	19.650508	6.657772	0.160198
 124	6.1500e-02	4.9394	-8.592424	-0.000357	-3.572820	-1.210504	-0.029127
 125	6.2000e-02	5.0229	-8.592424	0.000000	0.000000	0.000000	0.000000
 126	6.2500e-02	5.0437	-8.410381	0.000447	4.466025	1.513130	0.036409
 127	6.3000e-02	5.0838	-8.155521	0.000625	6.252434	2.118382	0.050972
 128	6.3500e-02	5.1015	-8.446790	-0.000715	-7.145639	-2.421008	-0.058254
 129	6.4000e-02	5.1592	-8.410381	0.000089	0.893205	0.302626	0.007282
 130	6.4500e-02	5.1753	-8.082704	0.000804	8.038844	2.723634	0.065535
 131	6.5000e-02	5.2442	-8.119113	-0.000089	-0.893205	-0.302626	-0.007282
 132	6.5500e-02	5.2972	-7.900661	0.000536	5.359229	1.815756	0.043690
 133	6.6000e-02	5.3277	-7.864253	0.000089	0.893205	0.302626	0.007282
 134	6.6500e-02	5.3838	-7.900661	-0.000089	-0.893205	-0.302626	-0.007282
 135	6.7000e-02	5.4095	-7.500167	0.000983	9.825254	3.328886	0.080099
 136	6.7500e-02	5.4400	-7.281715	0.000536	5.359229	1.815756	0.043690
 137	6.8000e-02	5.4785	-7.572984	-0.000715	-7.145639	-2.421008	-0.058254
 138	6.8500e-02	5.5442	-7.318124	0.000625	6.252434	2.118382	0.050972
 139	6.9000e-02	5.5940	-6.990447	0.000804	8.038844	2.723634	0.065535
 140	6.9500e-02	5.6036	-7.682210	-0.001697	-16.970893	-5.749894	-0.138353
 141	7.0000e-02	5.6405	-6.771995	0.002233	22.330123	7.565650	0.182043
 142	7.0500e-02	5.6870	-6.881221	-0.000268	-2.679615	-0.907878	-0.021845
 143	7.1000e-02	5.7576	-6.626361	0.000625	6.252434	2.118382	0.050972
 144	7.1500e-02	5.7464	-6.444318	-0.000447	-4.466025	-1.513130	0.036409
 145	7.2000e-02	5.7913	-6.917630	-0.001161	-11.611664	-3.934138	-0.094662
 146	7.2500e-02	5.8426	-6.116641	0.001965	19.650508	6.657772	0.160198
 147	7.3000e-02	5.8683	-6.553544	-0.001072	-10.718459	-3.631512	-0.087381
 148	7.3500e-02	5.9613	-6.335092	0.000536	5.359229	1.815756	0.043690
 149	7.4000e-02	5.9677	-5.861781	0.001161	11.611664	3.934138	0.094662
 150	7.4500e-02	6.0143	-5.971007	-0.000268	-2.679615	-0.907878	-0.021845
 151	7.5000e-02	6.0560	-6.043824	-0.000179	-1.786410	-0.605252	-0.014563
 152	7.5500e-02	6.0961	-6.262275	-0.000536	-5.359229	-1.815756	-0.043690
 153	7.6000e-02	6.1153	-5.716147	0.001340	13.398074	4.539390	0.109226
 154	7.6500e-02	6.1619	-5.788964	-0.000179	-1.786410	-0.605252	-0.014563
 155	7.7000e-02	6.1988	-5.643329	0.000357	3.572820	1.210504	0.029127
 156	7.7500e-02	6.2485	-5.788964	-0.000357	-3.572820	-1.210504	-0.029127
 157	7.8000e-02	6.2902	-5.643329	0.000357	3.572820	1.210504	0.029127
 158	7.8500e-02	6.3431	-5.170018	0.001161	11.611664	3.934138	0.094662
 159	7.9000e-02	6.3479	-5.242835	-0.000179	-1.786410	-0.605252	-0.014563
 160	7.9500e-02	6.4153	-5.170018	0.000179	1.786410	0.605252	0.014563
 161	8.0000e-02	6.4426	-5.170018	0.000000	0.000000	0.000000	0.000000
 162	8.0500e-02	6.4811	-5.024384	0.000357	3.572820	1.210504	0.029127
 163	8.1000e-02	6.5036	-4.733115	0.000715	7.145639	2.421008	0.058254
 164	8.1500e-02	6.5774	-4.587481	0.000357	3.572820	1.210504	0.029127
 165	8.2000e-02	6.6014	-4.587481	0.000000	0.000000	0.000000	0.000000
 166	8.2500e-02	6.6271	-4.769524	-0.000447	-4.466025	-1.513130	-0.036409
 167	8.3000e-02	6.6688	-4.878749	-0.000268	-2.679615	-0.907878	-0.021845
 168	8.3500e-02	6.6897	-4.405438	0.001161	11.611664	3.934138	0.094662
 169	8.4000e-02	6.7570	-4.369029	0.000089	0.893205	0.302626	0.007282
 170	8.4500e-02	6.8084	-3.968535	0.000983	9.825254	3.328886	0.080099
 171	8.5000e-02	6.8212	-4.186986	-0.000536	-5.359229	-1.815756	-0.043690
 172	8.5500e-02	6.8950	-4.004943	0.000447	4.466025	1.513130	0.036409
 173	8.6000e-02	6.9479	-4.077761	-0.000179	-1.786410	-0.605252	-0.014563
 174	8.6500e-02	6.9415	-4.150578	0.000179	1.786410	0.605252	-0.014563
 175	8.7000e-02	7.0041	-3.276772	0.002144	21.436918	7.263024	0.174761
 176	8.7500e-02	7.0410	-3.604449	-0.000804	-8.038844	-2.723634	-0.065535
 177	8.8000e-02	7.1019	-3.385998	0.000536	5.359229	1.815756	0.043690
 178	8.8500e-02	7.1100	-3.568041	-0.000447	-4.466025	-1.513130	-0.036409
 179	8.9000e-02	7.1581	-3.531632	0.000089	0.893205	0.302626	0.007282
 180	8.9500e-02	7.1805	-3.349589	0.000447	4.466025	1.513130	0.036409
 181	9.0000e-02	7.2431	-3.167546	0.000447	4.466025	1.513130	0.036409
 182	9.0500e-02	7.2864	-3.167546	0.000000	0.000000	0.000000	0.000000
 183	9.1000e-02	7.3089	-2.803460	0.000893	8.932049	3.026260	0.072817
 184	9.1500e-02	7.3554	-3.021912	-0.000536	-5.359229	-1.815756	-0.043690
 185	9.2000e-02	7.3923	-2.803460	0.000536	5.359229	1.815756	0.043690
 186	9.2500e-02	7.4549	-2.220923	0.001429	14.291279	4.842016	0.116507
 187	9.3000e-02	7.4837	-2.949095	-0.001786	-17.864098	-6.052520	-0.145634
 188	9.3500e-02	7.5078	-2.657826	0.000715	7.145639	2.421008	0.058254
 189	9.4000e-02	7.5752	-2.038880	0.001518	15.184483	5.144642	0.123789
 190	9.4500e-02	7.6169	-2.912686	-0.002144	-21.436918	-7.263024	-0.174761
 191	9.5000e-02	7.6522	-2.220923	0.001697	16.970893	5.749894	0.138353
 192	9.5500e-02	7.6779	-2.184515	0.000089	0.893205	0.302626	0.007282
 193	9.6000e-02	7.7132	-2.111697	0.000179	1.786410	0.605252	0.014563
 194	9.6500e-02	7.7902	-2.002472	0.000268	2.679615	0.907878	0.021845
 195	9.7000e-02	7.8158	-1.784020	0.000536	5.359229	1.815756	0.043690
 196	9.7500e-02	7.8335	-1.565569	0.000536	5.359229	1.815756	0.043690
 197	9.8000e-02	7.8864	-1.784020	-0.000536	-5.359229	-1.815756	-0.043690
 198	9.8500e-02	7.9169	-1.419935	0.000893	8.932049	3.026260	0.072817
 199	9.9000e-02	7.9618	-1.711203	-0.000715	-7.145639	-2.421008	-0.058254
 200	9.9500e-02	8.0276	-1.092257	0.001518	15.184483	5.144642	0.123789
 201	1.0000e-01	8.0276	-1.383526	0.000715	7.145639	2.421008	-0.058254
 202	1.0050e-01	8.0918	-1.274300	0.000268	2.679615	0.907878	0.021845
 203	1.0100e-01	8.1319	-1.274300	0.000000	0.000000	0.000000	0.000000
 204	1.0150e-01	8.1655	-0.873806	0.000983	9.825254	3.328886	0.080099
 205	1.0200e-01	8.2185	-0.983032	-0.000268	-2.679615	-0.907878	-0.021845
 206	1.0250e-01	8.2361	-0.800989	0.000447	4.466025	1.513130	0.036409
 207	1.0300e-01	8.3099	-0.837397	-0.000089	-0.893205	-0.302626	-0.007282
 208	1.0350e-01	8.3099	-0.436903	-0.000983	-9.825254	-3.328886	0.080099
 209	1.0400e-01	8.3484	-0.546129	-0.000268	-2.679615	-0.907878	-0.021845
 210	1.0450e-01	8.4254	-0.327677	0.000536	5.359229	1.815756	0.043690
 211	1.0500e-01	8.4431	-0.291269	0.000089	0.893205	0.302626	0.007282
 212	1.0550e-01	8.4720	-0.327677	-0.000089	-0.893205	-0.302626	-0.007282
 213	1.0600e-01	8.5297	-0.218451	0.000268	2.679615	0.907878	0.021845
 214	1.0650e-01	8.5441	-0.254860	-0.000089	-0.893205	-0.302626	-0.007282
 215	1.0700e-01	8.6179	0.036409	0.000715	7.145639	2.421008	0.058254
 216	1.0750e-01	8.6388	-0.145634	-0.000447	-4.466025	-1.513130	-0.036409
 217	1.0800e-01	8.6885	0.582537	0.001786	17.864098	6.052520	0.145634
 218	1.0850e-01	8.7254	-0.145634	-0.001786	-17.864098	-6.052520	-0.145634
 219	1.0900e-01	8.7511	-0.072817	0.000179	1.786410	0.605252	0.014563
 220	1.0950e-01	8.8088	0.364086	0.001072	10.718459	3.631512	0.087381
 221	1.1000e-01	8.8457	0.618946	0.000625	6.252434	2.118382	0.050972
 222	1.1050e-01	8.9179	0.582537	-0.000089	-0.893205	-0.302626	-0.007282
 223	1.1100e-01	8.9099	0.436903	0.000357	3.572820	1.210504	-0.029127
 224	1.1150e-01	8.9580	0.800989	0.000893	8.932049	3.026260	0.072817
 225	1.1200e-01	9.0046	0.873806	0.000179	1.786410	0.605252	0.014563
 226	1.1250e-01	9.0415	0.728172	-0.000357	-3.572820	-1.210504	-0.029127
 227	1.1300e-01	9.0992	1.019440	0.000715	7.145639	2.421008	0.058254
 228	1.1350e-01	9.1056	1.128666	0.000268	2.679615	0.907878	0.021845
 229	1.1400e-01	9.1762	1.310709	0.000447	4.466025	1.513130	0.036409
 230	1.1450e-01	9.2452	1.383526	0.000179	1.786410	0.605252	0.014563
 231	1.1500e-01	9.2308	1.347117	0.000089	0.893205	0.302626	-0.007282
 232	1.1550e-01	9.2869	1.310709	-0.000089	-0.893205	-0.302626	-0.007282
 233	1.1600e-01	9.3238	1.674795	0.000893	8.932049	3.026260	0.072817
 234	1.1650e-01	9.3398	1.674795	0.000000	0.000000	0.000000	0.000000
 235	1.1700e-01	9.4249	1.565569	-0.000268	-2.679615	-0.907878	-0.021845
 236	1.1750e-01	9.4393	1.674795	0.000268	2.679615	0.907878	0.021845
 237	1.1800e-01	9.4505	2.002472	0.000804	8.038844	2.723634	0.065535
 238	1.1850e-01	9.5083	2.184515	0.000447	4.466025	1.513130	0.036409
 239	1.1900e-01	9.5644	2.111697	-0.000179	-1.786410	-0.605252	-0.014563
 240	1.1950e-01	9.6078	2.111697	0.000000	0.000000	0.000000	0.000000
 241	1.2000e-01	9.6382	2.293740	0.000447	4.466025	1.513130	0.036409
 242	1.2050e-01	9.6848	2.111697	-0.000447	-4.466025	-1.513130	-0.036409
 243	1.2100e-01	9.7393	2.366558	0.000625	6.252434	2.118382	0.050972
 244	1.2150e-01	9.7602	2.402966	0.000089	0.893205	0.302626	0.007282
 245	1.2200e-01	9.8067	2.839869	0.001072	10.718459	3.631512	0.087381
 246	1.2250e-01	9.8532	2.694235	-0.000357	-3.572820	-1.210504	-0.029127
 247	1.2300e-01	9.8997	2.730643	0.000089	0.893205	0.302626	0.007282
 248	1.2350e-01	9.9591	3.021912	0.000715	7.145639	2.421008	0.058254
 249	1.2400e-01	9.9575	3.094729	-0.000179	-1.786410	-0.605252	0.014563
 250	1.2450e-01	9.9831	2.803460	-0.000715	-7.145639	-2.421008	-0.058254
 251	1.2500e-01	10.0313	3.313181	0.001250	12.504869	4.236764	0.101944
 252	1.2550e-01	10.0874	3.094729	-0.000536	-5.359229	-1.815756	-0.043690
 253	1.2600e-01	10.1307	3.349589	0.000625	6.252434	2.118382	0.050972
 254	1.2650e-01	10.1740	3.313181	-0.000089	-0.893205	-0.302626	-0.007282
 255	1.2700e-01	10.1869	3.604449	0.000715	7.145639	2.421008	0.058254
 256	1.2750e-01	10.2366	3.495223	-0.000268	-2.679615	-0.907878	-0.021845
 257	1.2800e-01	10.2831	3.604449	0.000268	2.679615	0.907878	0.021845
 258	1.2850e-01	10.3056	3.895718	0.000715	7.145639	2.421008	0.058254
