»»»»»»»»»»»»»»»»»»»»»»»»»»»»»»»»»»»» Hysteresis ««««««««««««««««««««««««««««««««««««
»»»  Executed Version:	5.48.1
»»»  Vision Version:	5.48.4 (R)
»»»  Vision Compiled:	9/18/24
»»»  Driver Version:	5.47.0
»»»  Windows Version:	Windows 8 or 8.1
»»»  Processor Information:	x86 (AMD or Intel) - 32 Processors
»»»  Tester Name:	PMF21124-494 (100V)
»»»  Tester S/N:	PMF21124-494
»»»  Internal Amp Type:	100V RevK 270k
»»»  Internal Amp S/N:	iAB2-596/K     
»»»  Execution Count:	1
»»»»»»»»»»»»»»»»»»»»»»»»»»»»»»»»»»»»»»»»»»««««««««««««««««««««««««««««««««««««««««««

Stored:	10/10/2025 - 16:26:48
Configured:	10/10/25 10:37:25 AM
Executed:	10/10/25 04:26:26 PM

»»»»»»»»»»»»»»»»»»»»»»»»»»»»»»»»»»» Sample Info ««««««««««««««««««««««««««««««««««««
Sample Name:	Int. Ref. Ferroelectric
Lot Name:	N/A
Wafer Name:	N/A
Die Row/Column:	0/0
Capacitor Number:	0
Sample Area (cm2):	1.00e-04
Sample Thickness (microns):	3.00e-01

Amplifier:	Internal

»»»»»»»»»»»»»»»»»»»»»»»»»»»»»»»»»»» Tester Info «««««««««««««««««««««««««««««««««««
Tester Name:	PMF21124-494 (100V)
Tester Serial Number:	PMF21124-494
Return Signal Amp. Level:	0.02 [Index: 2]

»»»»»»»»»»»»»»»»»»»»»»»»»»»»»»»» Hysteresis Info ««««««««««««««««««««««««««««««««««
Task Name:	Hyst-170
Volts:	20.00
Field:	666.67 (kV/cm)
DCBias:	0.00
DCField:	0.00 (kV/cm)
Hysteresis Period (ms):	5.00e-01
Preset:	Enabled
Preset Delay (ms):	1.00e+03
Profile:	Standard Monopolar

»»»»»»»»»»»»»»»»»»»»»»»»»»»»»»»»»»»»»» Data «««««««««««««««««««««««««««««««««««««««
Points:	1001

Valid Data

Point	Time (ms)	Drive Voltage	Measured Polarization (uC/cm2)	Capacitance (uF)	Normalized Capacitance (uF/cm2)	Dielectric Constant	Instantaneous Current (mA)
   1	0.0000e+00	0.0529	-30.291936	-0.001262	-12.619350	-4.275551	0.101944
   2	5.0000e-04	0.0433	-29.782216	-0.001262	-12.619350	-4.275551	0.101944
   3	1.0000e-03	0.1508	-30.109893	-0.000811	-8.112439	-2.748569	-0.065535
   4	1.5000e-03	0.1668	-29.709399	0.000992	9.915203	3.359362	0.080099
   5	2.0000e-03	0.1989	-29.236087	0.001172	11.717967	3.970155	0.094662
   6	2.5000e-03	0.2358	-29.381722	-0.000361	-3.605528	-1.221586	-0.029127
   7	3.0000e-03	0.2807	-29.418130	-0.000090	-0.901382	-0.305397	-0.007282
   8	3.5000e-03	0.3626	-28.944819	0.001172	11.717967	3.970155	0.094662
   9	4.0000e-03	0.3866	-28.944819	0.000000	0.000000	0.000000	0.000000
  10	4.5000e-03	0.4187	-28.944819	0.000000	0.000000	0.000000	0.000000
  11	5.0000e-03	0.4283	-28.653550	0.000721	7.211057	2.443172	0.058254
  12	5.5000e-03	0.4797	-28.726367	-0.000180	-1.802764	-0.610793	-0.014563
  13	6.0000e-03	0.5134	-28.362281	0.000901	9.013821	3.053965	0.072817
  14	6.5000e-03	0.5535	-28.253056	0.000270	2.704146	0.916190	0.021845
  15	7.0000e-03	0.6128	-28.180239	0.000180	1.802764	0.610793	0.014563
  16	7.5000e-03	0.6465	-27.998196	0.000451	4.506911	1.526983	0.036409
  17	8.0000e-03	0.6770	-27.561293	0.001082	10.816585	3.664758	0.087381
  18	8.5000e-03	0.7251	-27.597701	-0.000090	-0.901382	-0.305397	-0.007282
  19	9.0000e-03	0.7636	-27.561293	0.000090	0.901382	0.305397	0.007282
  20	9.5000e-03	0.7957	-27.270024	0.000721	7.211057	2.443172	0.058254
  21	1.0000e-02	0.8390	-27.051573	0.000541	5.408293	1.832379	0.043690
  22	1.0500e-02	0.8887	-27.270024	-0.000541	-5.408293	-1.832379	-0.043690
  23	1.1000e-02	0.9337	-26.905938	0.000901	9.013821	3.053965	0.072817
  24	1.1500e-02	0.9641	-26.723895	0.000451	4.506911	1.526983	0.036409
  25	1.2000e-02	0.9850	-26.469035	0.000631	6.309675	2.137776	0.050972
  26	1.2500e-02	1.0652	-26.687487	-0.000541	-5.408293	-1.832379	-0.043690
  27	1.3000e-02	1.0508	-26.541853	-0.000361	-3.605528	-1.221586	0.029127
  28	1.3500e-02	1.1149	-26.177767	0.000901	9.013821	3.053965	0.072817
  29	1.4000e-02	1.1438	-25.740864	0.001082	10.816585	3.664758	0.087381
  30	1.4500e-02	1.1968	-25.813681	-0.000180	-1.802764	-0.610793	-0.014563
  31	1.5000e-02	1.2609	-25.704455	0.000270	2.704146	0.916190	0.021845
  32	1.5500e-02	1.2786	-25.558821	0.000361	3.605528	1.221586	0.029127
  33	1.6000e-02	1.3379	-25.631638	-0.000180	-1.802764	-0.610793	-0.014563
  34	1.6500e-02	1.3652	-25.085510	0.001352	13.520732	4.580948	0.109226
  35	1.7000e-02	1.4005	-25.012692	0.000180	1.802764	0.610793	0.014563
  36	1.7500e-02	1.4743	-24.976284	0.000090	0.901382	0.305397	0.007282
  37	1.8000e-02	1.4807	-24.721424	0.000631	6.309675	2.137776	0.050972
  38	1.8500e-02	1.5224	-24.830649	-0.000270	-2.704146	-0.916190	-0.021845
  39	1.9000e-02	1.5609	-24.757832	0.000180	1.802764	0.610793	0.014563
  40	1.9500e-02	1.6235	-24.430155	0.000811	8.112439	2.748569	0.065535
  41	2.0000e-02	1.6524	-24.393747	0.000090	0.901382	0.305397	0.007282
  42	2.0500e-02	1.6556	-24.211704	0.000451	4.506911	1.526983	0.036409
  43	2.1000e-02	1.7165	-24.029661	0.000451	4.506911	1.526983	0.036409
  44	2.1500e-02	1.7887	-23.811209	0.000541	5.408293	1.832379	0.043690
  45	2.2000e-02	1.8032	-23.701984	0.000270	2.704146	0.916190	0.021845
  46	2.2500e-02	1.8417	-23.410715	0.000721	7.211057	2.443172	0.058254
  47	2.3000e-02	1.9058	-23.192264	0.000541	5.408293	1.832379	0.043690
  48	2.3500e-02	1.9283	-23.192264	0.000000	0.000000	0.000000	0.000000
  49	2.4000e-02	1.9427	-23.192264	0.000000	0.000000	0.000000	0.000000
  50	2.4500e-02	2.0133	-22.791769	0.000992	9.915203	3.359362	0.080099
  51	2.5000e-02	2.0438	-22.864586	-0.000180	-1.802764	-0.610793	-0.014563
  52	2.5500e-02	2.0711	-22.500501	0.000901	9.013821	3.053965	0.072817
  53	2.6000e-02	2.1256	-22.391275	0.000270	2.704146	0.916190	0.021845
  54	2.6500e-02	2.1625	-22.391275	0.000000	0.000000	0.000000	0.000000
  55	2.7000e-02	2.1994	-22.245641	0.000361	3.605528	1.221586	0.029127
  56	2.7500e-02	2.2443	-22.063598	0.000451	4.506911	1.526983	0.036409
  57	2.8000e-02	2.2941	-22.063598	0.000000	0.000000	0.000000	0.000000
  58	2.8500e-02	2.3277	-21.626695	0.001082	10.816585	3.664758	0.087381
  59	2.9000e-02	2.3695	-21.590286	0.000090	0.901382	0.305397	0.007282
  60	2.9500e-02	2.3951	-21.699512	-0.000270	-2.704146	-0.916190	-0.021845
  61	3.0000e-02	2.4432	-21.481060	0.000541	5.408293	1.832379	0.043690
  62	3.0500e-02	2.4689	-21.116975	0.000901	9.013821	3.053965	0.072817
  63	3.1000e-02	2.5138	-21.116975	0.000000	0.000000	0.000000	0.000000
  64	3.1500e-02	2.5491	-21.044157	0.000180	1.802764	0.610793	0.014563
  65	3.2000e-02	2.6229	-20.680072	0.000901	9.013821	3.053965	0.072817
  66	3.2500e-02	2.6598	-20.825706	-0.000361	-3.605528	-1.221586	-0.029127
  67	3.3000e-02	2.6662	-20.461620	0.000901	9.013821	3.053965	0.072817
  68	3.3500e-02	2.7272	-20.133943	0.000811	8.112439	2.748569	0.065535
  69	3.4000e-02	2.7497	-20.097534	0.000090	0.901382	0.305397	0.007282
  70	3.4500e-02	2.8090	-19.951900	0.000361	3.605528	1.221586	0.029127
  71	3.5000e-02	2.8603	-19.660632	0.000721	7.211057	2.443172	0.058254
  72	3.5500e-02	2.8764	-20.097534	-0.001082	-10.816585	-3.664758	-0.087381
  73	3.6000e-02	2.9325	-19.187320	0.002253	22.534553	7.634913	0.182043
  74	3.6500e-02	2.9726	-19.842674	-0.001622	-16.224878	-5.497137	-0.131071
  75	3.7000e-02	3.0127	-19.369363	0.001172	11.717967	3.970155	0.094662
  76	3.7500e-02	3.0368	-19.296546	0.000180	1.802764	0.610793	0.014563
  77	3.8000e-02	3.0865	-18.714009	0.001442	14.422114	4.886344	0.116507
  78	3.8500e-02	3.1090	-19.187320	-0.001172	-11.717967	-3.970155	-0.094662
  79	3.9000e-02	3.1716	-18.896051	0.000721	7.211057	2.443172	0.058254
  80	3.9500e-02	3.2085	-18.786826	0.000270	2.704146	0.916190	0.021845
  81	4.0000e-02	3.2373	-18.531966	0.000631	6.309675	2.137776	0.050972
  82	4.0500e-02	3.2566	-18.531966	0.000000	0.000000	0.000000	0.000000
  83	4.1000e-02	3.3352	-18.095063	0.001082	10.816585	3.664758	0.087381
  84	4.1500e-02	3.3528	-18.058654	0.000090	0.901382	0.305397	0.007282
  85	4.2000e-02	3.3785	-17.840203	0.000541	5.408293	1.832379	0.043690
  86	4.2500e-02	3.4427	-17.548934	0.000721	7.211057	2.443172	0.058254
  87	4.3000e-02	3.4764	-17.876611	-0.000811	-8.112439	-2.748569	-0.065535
  88	4.3500e-02	3.5229	-17.621751	0.000631	6.309675	2.137776	0.050972
  89	4.4000e-02	3.5582	-17.330483	0.000721	7.211057	2.443172	0.058254
  90	4.4500e-02	3.6240	-17.221257	0.000270	2.704146	0.916190	0.021845
  91	4.5000e-02	3.6577	-17.075623	0.000361	3.605528	1.221586	0.029127
  92	4.5500e-02	3.6929	-16.966397	0.000270	2.704146	0.916190	0.021845
  93	4.6000e-02	3.7635	-17.075623	-0.000270	-2.704146	-0.916190	-0.021845
  94	4.6500e-02	3.7523	-16.675128	-0.000992	-9.915203	-3.359362	0.080099
  95	4.7000e-02	3.7940	-16.201817	0.001172	11.717967	3.970155	0.094662
  96	4.7500e-02	3.8550	-16.565903	-0.000901	-9.013821	-3.053965	-0.072817
  97	4.8000e-02	3.9047	-16.529494	0.000090	0.901382	0.305397	0.007282
  98	4.8500e-02	3.9528	-16.165408	0.000901	9.013821	3.053965	0.072817
  99	4.9000e-02	3.9544	-15.874140	0.000721	7.211057	2.443172	0.058254
 100	4.9500e-02	4.0154	-15.764914	0.000270	2.704146	0.916190	0.021845
 101	5.0000e-02	4.0475	-15.837731	-0.000180	-1.802764	-0.610793	-0.014563
 102	5.0500e-02	4.1197	-15.655688	0.000451	4.506911	1.526983	0.036409
 103	5.1000e-02	4.1116	-15.182377	-0.001172	-11.717967	-3.970155	0.094662
 104	5.1500e-02	4.1806	-15.546462	-0.000901	-9.013821	-3.053965	-0.072817
 105	5.2000e-02	4.2031	-15.291602	0.000631	6.309675	2.137776	0.050972
 106	5.2500e-02	4.2336	-14.854699	0.001082	10.816585	3.664758	0.087381
 107	5.3000e-02	4.2657	-14.636248	0.000541	5.408293	1.832379	0.043690
 108	5.3500e-02	4.3186	-14.854699	-0.000541	-5.408293	-1.832379	-0.043690
 109	5.4000e-02	4.3619	-14.381388	0.001172	11.717967	3.970155	0.094662
 110	5.4500e-02	4.4116	-14.563431	-0.000451	-4.506911	-1.526983	-0.036409
 111	5.5000e-02	4.4325	-14.126528	0.001082	10.816585	3.664758	0.087381
 112	5.5500e-02	4.4919	-14.344979	-0.000541	-5.408293	-1.832379	-0.043690
 113	5.6000e-02	4.5352	-14.090119	0.000631	6.309675	2.137776	0.050972
 114	5.6500e-02	4.5592	-13.871668	0.000541	5.408293	1.832379	0.043690
 115	5.7000e-02	4.6282	-13.908076	-0.000090	-0.901382	-0.305397	-0.007282
 116	5.7500e-02	4.6635	-13.653216	0.000631	6.309675	2.137776	0.050972
 117	5.8000e-02	4.7052	-13.325539	0.000811	8.112439	2.748569	0.065535
 118	5.8500e-02	4.7325	-13.398356	-0.000180	-1.802764	-0.610793	-0.014563
 119	5.9000e-02	4.7742	-12.997862	0.000992	9.915203	3.359362	0.080099
 120	5.9500e-02	4.8031	-13.070679	-0.000180	-1.802764	-0.610793	-0.014563
 121	6.0000e-02	4.8384	-13.143496	-0.000180	-1.802764	-0.610793	-0.014563
 122	6.0500e-02	4.9186	-12.670185	0.001172	11.717967	3.970155	0.094662
 123	6.1000e-02	4.9202	-12.706593	-0.000090	-0.901382	-0.305397	-0.007282
 124	6.1500e-02	4.9603	-12.415325	0.000721	7.211057	2.443172	0.058254
 125	6.2000e-02	4.9667	-12.378916	0.000090	0.901382	0.305397	0.007282
 126	6.2500e-02	5.0437	-12.415325	-0.000090	-0.901382	-0.305397	-0.007282
 127	6.3000e-02	5.0806	-12.196873	0.000541	5.408293	1.832379	0.043690
 128	6.3500e-02	5.1351	-12.306099	-0.000270	-2.704146	-0.916190	-0.021845
 129	6.4000e-02	5.1528	-11.395885	0.002253	22.534553	7.634913	0.182043
 130	6.4500e-02	5.2105	-11.796379	-0.000992	-9.915203	-3.359362	-0.080099
 131	6.5000e-02	5.2507	-11.505110	0.000721	7.211057	2.443172	0.058254
 132	6.5500e-02	5.2763	-11.323067	0.000451	4.506911	1.526983	0.036409
 133	6.6000e-02	5.3036	-11.323067	0.000000	0.000000	0.000000	0.000000
 134	6.6500e-02	5.3854	-10.995390	0.000811	8.112439	2.748569	0.065535
 135	6.7000e-02	5.3966	-11.395885	-0.000992	-9.915203	-3.359362	-0.080099
 136	6.7500e-02	5.4560	-10.776939	0.001532	15.323496	5.191741	0.123789
 137	6.8000e-02	5.4528	-10.740530	-0.000090	-0.901382	-0.305397	0.007282
 138	6.8500e-02	5.5234	-10.740530	0.000000	0.000000	0.000000	0.000000
 139	6.9000e-02	5.5506	-10.522079	0.000541	5.408293	1.832379	0.043690
 140	6.9500e-02	5.6100	-10.267219	0.000631	6.309675	2.137776	0.050972
 141	7.0000e-02	5.6405	-10.048767	0.000541	5.408293	1.832379	0.043690
 142	7.0500e-02	5.6998	-10.267219	-0.000541	-5.408293	-1.832379	-0.043690
 143	7.1000e-02	5.7143	-9.975950	0.000721	7.211057	2.443172	0.058254
 144	7.1500e-02	5.7608	-9.757499	0.000541	5.408293	1.832379	0.043690
 145	7.2000e-02	5.8025	-9.466230	0.000721	7.211057	2.443172	0.058254
 146	7.2500e-02	5.8442	-9.102144	0.000901	9.013821	3.053965	0.072817
 147	7.3000e-02	5.8891	-9.757499	-0.001622	-16.224878	-5.497137	-0.131071
 148	7.3500e-02	5.9469	-9.102144	0.001622	16.224878	5.497137	0.131071
 149	7.4000e-02	5.9485	-9.357004	-0.000631	-6.309675	-2.137776	-0.050972
 150	7.4500e-02	5.9998	-8.701650	0.001622	16.224878	5.497137	0.131071
 151	7.5000e-02	6.0191	-8.701650	0.000000	0.000000	0.000000	0.000000
 152	7.5500e-02	6.0865	-8.701650	0.000000	0.000000	0.000000	0.000000
 153	7.6000e-02	6.0993	-8.301156	0.000992	9.915203	3.359362	0.080099
 154	7.6500e-02	6.1586	-8.228338	0.000180	1.802764	0.610793	0.014563
 155	7.7000e-02	6.2036	-8.337564	-0.000270	-2.704146	-0.916190	-0.021845
 156	7.7500e-02	6.2485	-7.937070	0.000992	9.915203	3.359362	0.080099
 157	7.8000e-02	6.2870	-8.009887	-0.000180	-1.802764	-0.610793	-0.014563
 158	7.8500e-02	6.3239	-7.827844	0.000451	4.506911	1.526983	0.036409
 159	7.9000e-02	6.3640	-7.572984	0.000631	6.309675	2.137776	0.050972
 160	7.9500e-02	6.4089	-7.500167	0.000180	1.802764	0.610793	0.014563
 161	8.0000e-02	6.4506	-7.463758	0.000090	0.901382	0.305397	0.007282
 162	8.0500e-02	6.4763	-7.318124	0.000361	3.605528	1.221586	0.029127
 163	8.1000e-02	6.5068	-7.172490	0.000361	3.605528	1.221586	0.029127
 164	8.1500e-02	6.5758	-6.881221	0.000721	7.211057	2.443172	0.058254
 165	8.2000e-02	6.6110	-6.808404	0.000180	1.802764	0.610793	0.014563
 166	8.2500e-02	6.6367	-6.954038	-0.000361	-3.605528	-1.221586	-0.029127
 167	8.3000e-02	6.6656	-6.553544	0.000992	9.915203	3.359362	0.080099
 168	8.3500e-02	6.7249	-6.517135	0.000090	0.901382	0.305397	0.007282
 169	8.4000e-02	6.7795	-6.262275	0.000631	6.309675	2.137776	0.050972
 170	8.4500e-02	6.7923	-6.371501	-0.000270	-2.704146	-0.916190	-0.021845
 171	8.5000e-02	6.8260	-6.225867	0.000361	3.605528	1.221586	0.029127
 172	8.5500e-02	6.8806	-6.335092	-0.000270	-2.704146	-0.916190	-0.021845
 173	8.6000e-02	6.9415	-5.534104	0.001983	19.830406	6.718724	0.160198
 174	8.6500e-02	6.9624	-5.752555	-0.000541	-5.408293	-1.832379	-0.043690
 175	8.7000e-02	7.0073	-5.606921	0.000361	3.605528	1.221586	0.029127
 176	8.7500e-02	7.0586	-5.424878	0.000451	4.506911	1.526983	0.036409
 177	8.8000e-02	7.0666	-5.352061	0.000180	1.802764	0.610793	0.014563
 178	8.8500e-02	7.1372	-5.024384	0.000811	8.112439	2.748569	0.065535
 179	8.9000e-02	7.1533	-4.951566	0.000180	1.802764	0.610793	0.014563
 180	8.9500e-02	7.1966	-5.060792	-0.000270	-2.704146	-0.916190	-0.021845
 181	9.0000e-02	7.2062	-4.805932	0.000631	6.309675	2.137776	0.050972
 182	9.0500e-02	7.2624	-4.769524	0.000090	0.901382	0.305397	0.007282
 183	9.1000e-02	7.3089	-5.024384	-0.000631	-6.309675	-2.137776	-0.050972
 184	9.1500e-02	7.3618	-4.186986	0.002073	20.731789	7.024120	0.167479
 185	9.2000e-02	7.4035	-4.223395	-0.000090	-0.901382	-0.305397	-0.007282
 186	9.2500e-02	7.4436	-4.150578	0.000180	1.802764	0.610793	0.014563
 187	9.3000e-02	7.4998	-3.822901	0.000811	8.112439	2.748569	0.065535
 188	9.3500e-02	7.5319	-3.895718	-0.000180	-1.802764	-0.610793	-0.014563
 189	9.4000e-02	7.5431	-4.077761	-0.000451	-4.506911	-1.526983	-0.036409
 190	9.4500e-02	7.6025	-3.822901	0.000631	6.309675	2.137776	0.050972
 191	9.5000e-02	7.6426	-3.568041	0.000631	6.309675	2.137776	0.050972
 192	9.5500e-02	7.6971	-3.313181	0.000631	6.309675	2.137776	0.050972
 193	9.6000e-02	7.7180	-3.495223	-0.000451	-4.506911	-1.526983	-0.036409
 194	9.6500e-02	7.7709	-3.276772	0.000541	5.408293	1.832379	0.043690
 195	9.7000e-02	7.7998	-3.167546	0.000270	2.704146	0.916190	0.021845
 196	9.7500e-02	7.8495	-2.912686	0.000631	6.309675	2.137776	0.050972
 197	9.8000e-02	7.9041	-2.694235	0.000541	5.408293	1.832379	0.043690
 198	9.8500e-02	7.9217	-2.767052	-0.000180	-1.802764	-0.610793	-0.014563
 199	9.9000e-02	7.9811	-2.257332	0.001262	12.619350	4.275551	0.101944
 200	9.9500e-02	8.0099	-2.330149	-0.000180	-1.802764	-0.610793	-0.014563
 201	1.0000e-01	8.0500	-1.929655	0.000992	9.915203	3.359362	0.080099
 202	1.0050e-01	8.0853	-2.439375	-0.001262	-12.619350	-4.275551	-0.101944
 203	1.0100e-01	8.0885	-1.929655	0.001262	12.619350	4.275551	0.101944
 204	1.0150e-01	8.1639	-2.002472	-0.000180	-1.802764	-0.610793	-0.014563
 205	1.0200e-01	8.1944	-1.820429	0.000451	4.506911	1.526983	0.036409
 206	1.0250e-01	8.2329	-1.601977	0.000541	5.408293	1.832379	0.043690
 207	1.0300e-01	8.2778	-1.529160	0.000180	1.802764	0.610793	0.014563
 208	1.0350e-01	8.3115	-0.983032	0.001352	13.520732	4.580948	0.109226
 209	1.0400e-01	8.3741	-1.419935	-0.001082	-10.816585	-3.664758	-0.087381
 210	1.0450e-01	8.3998	-1.019440	0.000992	9.915203	3.359362	0.080099
 211	1.0500e-01	8.4367	-1.055849	-0.000090	-0.901382	-0.305397	-0.007282
 212	1.0550e-01	8.4736	-1.055849	0.000000	0.000000	0.000000	0.000000
 213	1.0600e-01	8.5249	-0.837397	0.000541	5.408293	1.832379	0.043690
 214	1.0650e-01	8.5618	-0.436903	0.000992	9.915203	3.359362	0.080099
 215	1.0700e-01	8.6179	-0.327677	0.000270	2.704146	0.916190	0.021845
 216	1.0750e-01	8.6276	-0.145634	0.000451	4.506911	1.526983	0.036409
 217	1.0800e-01	8.6901	-0.182043	-0.000090	-0.901382	-0.305397	-0.007282
 218	1.0850e-01	8.7126	-0.072817	0.000270	2.704146	0.916190	0.021845
 219	1.0900e-01	8.7687	-0.254860	-0.000451	-4.506911	-1.526983	-0.036409
 220	1.0950e-01	8.7944	0.109226	0.000901	9.013821	3.053965	0.072817
 221	1.1000e-01	8.8441	0.182043	0.000180	1.802764	0.610793	0.014563
 222	1.1050e-01	8.8762	0.327677	0.000361	3.605528	1.221586	0.029127
 223	1.1100e-01	8.9099	0.400494	0.000180	1.802764	0.610793	0.014563
 224	1.1150e-01	8.9580	0.582537	0.000451	4.506911	1.526983	0.036409
 225	1.1200e-01	9.0030	0.837397	0.000631	6.309675	2.137776	0.050972
 226	1.1250e-01	9.0527	0.837397	0.000000	0.000000	0.000000	0.000000
 227	1.1300e-01	9.0559	1.128666	0.000721	7.211057	2.443172	0.058254
 228	1.1350e-01	9.1185	1.201483	0.000180	1.802764	0.610793	0.014563
 229	1.1400e-01	9.1602	1.747612	0.001352	13.520732	4.580948	0.109226
 230	1.1450e-01	9.2051	1.565569	-0.000451	-4.506911	-1.526983	-0.036409
 231	1.1500e-01	9.2468	1.638386	0.000180	1.802764	0.610793	0.014563
 232	1.1550e-01	9.2821	1.601977	-0.000090	-0.901382	-0.305397	-0.007282
 233	1.1600e-01	9.3190	1.784020	0.000451	4.506911	1.526983	0.036409
 234	1.1650e-01	9.3703	1.893246	0.000270	2.704146	0.916190	0.021845
 235	1.1700e-01	9.4329	2.184515	0.000721	7.211057	2.443172	0.058254
 236	1.1750e-01	9.4441	2.330149	0.000361	3.605528	1.221586	0.029127
 237	1.1800e-01	9.5083	2.257332	-0.000180	-1.802764	-0.610793	-0.014563
 238	1.1850e-01	9.5035	2.585009	-0.000811	-8.112439	-2.748569	0.065535
 239	1.1900e-01	9.5644	2.621418	0.000090	0.901382	0.305397	0.007282
 240	1.1950e-01	9.5853	2.657826	0.000090	0.901382	0.305397	0.007282
 241	1.2000e-01	9.6479	2.730643	0.000180	1.802764	0.610793	0.014563
 242	1.2050e-01	9.6992	2.985503	0.000631	6.309675	2.137776	0.050972
 243	1.2100e-01	9.7184	3.021912	0.000090	0.901382	0.305397	0.007282
 244	1.2150e-01	9.7409	3.094729	0.000180	1.802764	0.610793	0.014563
 245	1.2200e-01	9.8099	3.568041	0.001172	11.717967	3.970155	0.094662
 246	1.2250e-01	9.8596	3.313181	-0.000631	-6.309675	-2.137776	-0.050972
 247	1.2300e-01	9.8853	3.786492	0.001172	11.717967	3.970155	0.094662
 248	1.2350e-01	9.9142	3.531632	-0.000631	-6.309675	-2.137776	-0.050972
 249	1.2400e-01	9.9446	3.750083	0.000541	5.408293	1.832379	0.043690
 250	1.2450e-01	9.9976	3.895718	0.000361	3.605528	1.221586	0.029127
 251	1.2500e-01	10.0152	4.186986	0.000721	7.211057	2.443172	0.058254
 252	1.2550e-01	10.0794	4.150578	-0.000090	-0.901382	-0.305397	-0.007282
 253	1.2600e-01	10.1259	4.587481	0.001082	10.816585	3.664758	0.087381
 254	1.2650e-01	10.1484	4.623889	0.000090	0.901382	0.305397	0.007282
 255	1.2700e-01	10.1933	4.369029	-0.000631	-6.309675	-2.137776	-0.050972
 256	1.2750e-01	10.2398	4.733115	0.000901	9.013821	3.053965	0.072817
 257	1.2800e-01	10.2799	4.842341	0.000270	2.704146	0.916190	0.021845
 258	1.2850e-01	10.3345	4.915158	0.000180	1.802764	0.610793	0.014563
 259	1.2900e-01	10.3521	4.842341	-0.000180	-1.802764	-0.610793	-0.014563
