»»»»»»»»»»»»»»»»»»»»»»»»»»»»»»»»»»»» Hysteresis ««««««««««««««««««««««««««««««««««««
»»»  Executed Version:	5.48.1
»»»  Vision Version:	5.48.4 (R)
»»»  Vision Compiled:	9/18/24
»»»  Driver Version:	5.47.0
»»»  Windows Version:	Windows 8 or 8.1
»»»  Processor Information:	x86 (AMD or Intel) - 32 Processors
»»»  Tester Name:	PMF21124-494 (100V)
»»»  Tester S/N:	PMF21124-494
»»»  Internal Amp Type:	100V RevK 270k
»»»  Internal Amp S/N:	iAB2-596/K     
»»»  Execution Count:	1
»»»»»»»»»»»»»»»»»»»»»»»»»»»»»»»»»»»»»»»»»»««««««««««««««««««««««««««««««««««««««««««

Stored:	10/10/2025 - 16:23:4
Configured:	10/10/25 10:37:25 AM
Executed:	10/10/25 04:22:35 PM

»»»»»»»»»»»»»»»»»»»»»»»»»»»»»»»»»»» Sample Info ««««««««««««««««««««««««««««««««««««
Sample Name:	Int. Ref. Ferroelectric
Lot Name:	N/A
Wafer Name:	N/A
Die Row/Column:	0/0
Capacitor Number:	0
Sample Area (cm2):	1.00e-04
Sample Thickness (microns):	3.00e-01

Amplifier:	Internal

»»»»»»»»»»»»»»»»»»»»»»»»»»»»»»»»»»» Tester Info «««««««««««««««««««««««««««««««««««
Tester Name:	PMF21124-494 (100V)
Tester Serial Number:	PMF21124-494
Return Signal Amp. Level:	0.02 [Index: 2]

»»»»»»»»»»»»»»»»»»»»»»»»»»»»»»»» Hysteresis Info ««««««««««««««««««««««««««««««««««
Task Name:	Hyst-170
Volts:	20.00
Field:	666.67 (kV/cm)
DCBias:	0.00
DCField:	0.00 (kV/cm)
Hysteresis Period (ms):	5.00e-01
Preset:	Enabled
Preset Delay (ms):	1.00e+03
Profile:	Standard Monopolar

»»»»»»»»»»»»»»»»»»»»»»»»»»»»»»»»»»»»»» Data «««««««««««««««««««««««««««««««««««««««
Points:	1001

Valid Data

Point	Time (ms)	Drive Voltage	Measured Polarization (uC/cm2)	Capacitance (uF)	Normalized Capacitance (uF/cm2)	Dielectric Constant	Instantaneous Current (mA)
   1	0.0000e+00	0.0529	-28.799184	0.000000	0.000000	0.000000	0.000000
   2	5.0000e-04	0.0578	-28.799184	0.000000	0.000000	0.000000	0.000000
   3	1.0000e-03	0.1428	-28.689959	0.000268	2.681463	0.908504	0.021845
   4	1.5000e-03	0.1604	-28.908410	-0.000536	-5.362926	-1.817009	-0.043690
   5	2.0000e-03	0.1909	-28.471507	0.001073	10.725852	3.634017	0.087381
   6	2.5000e-03	0.2390	-28.653550	-0.000447	-4.469105	-1.514174	-0.036409
   7	3.0000e-03	0.3160	-28.325873	0.000804	8.044389	2.725513	0.065535
   8	3.5000e-03	0.3241	-28.253056	0.000179	1.787642	0.605670	0.014563
   9	4.0000e-03	0.3626	-28.143830	0.000268	2.681463	0.908504	0.021845
  10	4.5000e-03	0.3882	-28.034604	0.000268	2.681463	0.908504	0.021845
  11	5.0000e-03	0.4460	-28.034604	0.000000	0.000000	0.000000	0.000000
  12	5.5000e-03	0.4861	-27.961787	0.000179	1.787642	0.605670	0.014563
  13	6.0000e-03	0.5470	-27.779744	0.000447	4.469105	1.514174	0.036409
  14	6.5000e-03	0.5615	-27.233616	0.001341	13.407315	4.542521	0.109226
  15	7.0000e-03	0.6032	-27.379250	-0.000358	-3.575284	-1.211339	-0.029127
  16	7.5000e-03	0.6593	-27.379250	0.000000	0.000000	0.000000	0.000000
  17	8.0000e-03	0.6946	-27.197207	0.000447	4.469105	1.514174	0.036409
  18	8.5000e-03	0.7331	-26.905938	0.000715	7.150568	2.422678	0.058254
  19	9.0000e-03	0.7460	-27.015164	-0.000268	-2.681463	-0.908504	-0.021845
  20	9.5000e-03	0.8150	-26.614670	0.000983	9.832031	3.331182	0.080099
  21	1.0000e-02	0.8599	-26.723895	-0.000268	-2.681463	-0.908504	-0.021845
  22	1.0500e-02	0.9144	-26.833121	-0.000268	-2.681463	-0.908504	-0.021845
  23	1.1000e-02	0.9449	-26.141358	0.001698	16.982599	5.753860	0.138353
  24	1.1500e-02	0.9818	-26.068541	0.000179	1.787642	0.605670	0.014563
  25	1.2000e-02	1.0171	-26.323401	-0.000626	-6.256747	-2.119843	-0.050972
  26	1.2500e-02	1.0716	-26.214175	0.000268	2.681463	0.908504	0.021845
  27	1.3000e-02	1.0941	-25.631638	0.001430	14.301136	4.845356	0.116507
  28	1.3500e-02	1.1246	-25.558821	0.000179	1.787642	0.605670	0.014563
  29	1.4000e-02	1.1887	-25.668047	-0.000268	-2.681463	-0.908504	-0.021845
  30	1.4500e-02	1.2112	-25.303961	0.000894	8.938210	3.028348	0.072817
  31	1.5000e-02	1.2288	-25.267552	0.000089	0.893821	0.302835	0.007282
  32	1.5500e-02	1.2754	-25.303961	-0.000089	-0.893821	-0.302835	-0.007282
  33	1.6000e-02	1.3379	-25.231144	0.000179	1.787642	0.605670	0.014563
  34	1.6500e-02	1.3443	-24.721424	0.001251	12.513494	4.239687	0.101944
  35	1.7000e-02	1.4262	-24.648607	0.000179	1.787642	0.605670	0.014563
  36	1.7500e-02	1.4663	-24.757832	-0.000268	-2.681463	-0.908504	-0.021845
  37	1.8000e-02	1.4871	-24.466564	0.000715	7.150568	2.422678	0.058254
  38	1.8500e-02	1.5256	-24.320929	0.000358	3.575284	1.211339	0.029127
  39	1.9000e-02	1.5962	-23.920435	0.000983	9.832031	3.331182	0.080099
  40	1.9500e-02	1.6155	-23.993252	-0.000179	-1.787642	-0.605670	-0.014563
  41	2.0000e-02	1.6427	-23.847618	0.000358	3.575284	1.211339	0.029127
  42	2.0500e-02	1.6844	-23.629166	0.000536	5.362926	1.817009	0.043690
  43	2.1000e-02	1.7502	-23.665575	-0.000089	-0.893821	-0.302835	-0.007282
  44	2.1500e-02	1.7839	-23.265081	0.000983	9.832031	3.331182	0.080099
  45	2.2000e-02	1.8016	-23.010221	0.000626	6.256747	2.119843	0.050972
  46	2.2500e-02	1.8721	-23.265081	-0.000626	-6.256747	-2.119843	-0.050972
  47	2.3000e-02	1.8689	-23.265081	-0.000000	-0.000000	-0.000000	0.000000
  48	2.3500e-02	1.9395	-22.755361	0.001251	12.513494	4.239687	0.101944
  49	2.4000e-02	1.9524	-22.500501	0.000626	6.256747	2.119843	0.050972
  50	2.4500e-02	2.0085	-22.646135	-0.000358	-3.575284	-1.211339	-0.029127
  51	2.5000e-02	2.0695	-22.391275	0.000626	6.256747	2.119843	0.050972
  52	2.5500e-02	2.0823	-22.318458	0.000179	1.787642	0.605670	0.014563
  53	2.6000e-02	2.1048	-21.917963	0.000983	9.832031	3.331182	0.080099
  54	2.6500e-02	2.1641	-21.954372	-0.000089	-0.893821	-0.302835	-0.007282
  55	2.7000e-02	2.2170	-21.699512	0.000626	6.256747	2.119843	0.050972
  56	2.7500e-02	2.2539	-21.808738	-0.000268	-2.681463	-0.908504	-0.021845
  57	2.8000e-02	2.2973	-21.699512	0.000268	2.681463	0.908504	0.021845
  58	2.8500e-02	2.3261	-21.189792	0.001251	12.513494	4.239687	0.101944
  59	2.9000e-02	2.3839	-20.934932	0.000626	6.256747	2.119843	0.050972
  60	2.9500e-02	2.4208	-21.262609	-0.000804	-8.044389	-2.725513	-0.065535
  61	3.0000e-02	2.4593	-20.898523	0.000894	8.938210	3.028348	0.072817
  62	3.0500e-02	2.4817	-21.153383	-0.000626	-6.256747	-2.119843	-0.050972
  63	3.1000e-02	2.5106	-20.643663	0.001251	12.513494	4.239687	0.101944
  64	3.1500e-02	2.5716	-20.680072	-0.000089	-0.893821	-0.302835	-0.007282
  65	3.2000e-02	2.5924	-20.170352	0.001251	12.513494	4.239687	0.101944
  66	3.2500e-02	2.6454	-20.206760	-0.000089	-0.893821	-0.302835	-0.007282
  67	3.3000e-02	2.6710	-20.279577	-0.000179	-1.787642	-0.605670	-0.014563
  68	3.3500e-02	2.7224	-20.024717	0.000626	6.256747	2.119843	0.050972
  69	3.4000e-02	2.7705	-19.733449	0.000715	7.150568	2.422678	0.058254
  70	3.4500e-02	2.8154	-20.097534	-0.000894	-8.938210	-3.028348	-0.072817
  71	3.5000e-02	2.8652	-19.478589	0.001519	15.194957	5.148191	0.123789
  72	3.5500e-02	2.9069	-19.697040	-0.000536	-5.362926	-1.817009	-0.043690
  73	3.6000e-02	2.9566	-19.041686	0.001609	16.088778	5.451026	0.131071
  74	3.6500e-02	2.9839	-19.187320	-0.000358	-3.575284	-1.211339	-0.029127
  75	3.7000e-02	3.0192	-19.223729	-0.000089	-0.893821	-0.302835	-0.007282
  76	3.7500e-02	3.0593	-18.896051	0.000804	8.044389	2.725513	0.065535
  77	3.8000e-02	3.1026	-18.714009	0.000447	4.469105	1.514174	0.036409
  78	3.8500e-02	3.1331	-18.641191	0.000179	1.787642	0.605670	0.014563
  79	3.9000e-02	3.1603	-18.277106	0.000894	8.938210	3.028348	0.072817
  80	3.9500e-02	3.2133	-18.313514	-0.000089	-0.893821	-0.302835	-0.007282
  81	4.0000e-02	3.2646	-18.349923	-0.000089	-0.893821	-0.302835	-0.007282
  82	4.0500e-02	3.2518	-18.277106	-0.000179	-1.787642	-0.605670	0.014563
  83	4.1000e-02	3.3159	-18.095063	0.000447	4.469105	1.514174	0.036409
  84	4.1500e-02	3.3609	-17.913020	0.000447	4.469105	1.514174	0.036409
  85	4.2000e-02	3.4266	-17.730977	0.000447	4.469105	1.514174	0.036409
  86	4.2500e-02	3.4411	-17.330483	0.000983	9.832031	3.331182	0.080099
  87	4.3000e-02	3.4956	-17.403300	-0.000179	-1.787642	-0.605670	-0.014563
  88	4.3500e-02	3.5309	-17.366891	0.000089	0.893821	0.302835	0.007282
  89	4.4000e-02	3.5710	-17.148440	0.000536	5.362926	1.817009	0.043690
  90	4.4500e-02	3.6143	-17.294074	-0.000358	-3.575284	-1.211339	-0.029127
  91	4.5000e-02	3.6785	-16.929988	0.000894	8.938210	3.028348	0.072817
  92	4.5500e-02	3.6577	-16.747945	-0.000447	-4.469105	-1.514174	0.036409
  93	4.6000e-02	3.7347	-16.383860	0.000894	8.938210	3.028348	0.072817
  94	4.6500e-02	3.7443	-16.274634	0.000268	2.681463	0.908504	0.021845
  95	4.7000e-02	3.8068	-16.165408	0.000268	2.681463	0.908504	0.021845
  96	4.7500e-02	3.8373	-16.019774	0.000358	3.575284	1.211339	0.029127
  97	4.8000e-02	3.8871	-16.129000	-0.000268	-2.681463	-0.908504	-0.021845
  98	4.8500e-02	3.9352	-16.201817	-0.000179	-1.787642	-0.605670	-0.014563
  99	4.9000e-02	3.9625	-15.874140	0.000804	8.044389	2.725513	0.065535
 100	4.9500e-02	4.0250	-15.837731	0.000089	0.893821	0.302835	0.007282
 101	5.0000e-02	4.0250	-15.364419	-0.001162	-11.619673	-3.936852	0.094662
 102	5.0500e-02	4.0860	-15.400828	-0.000089	-0.893821	-0.302835	-0.007282
 103	5.1000e-02	4.1100	-15.182377	0.000536	5.362926	1.817009	0.043690
 104	5.1500e-02	4.1614	-15.291602	-0.000268	-2.681463	-0.908504	-0.021845
 105	5.2000e-02	4.1887	-14.891108	0.000983	9.832031	3.331182	0.080099
 106	5.2500e-02	4.2560	-15.036742	-0.000358	-3.575284	-1.211339	-0.029127
 107	5.3000e-02	4.2689	-14.891108	0.000358	3.575284	1.211339	0.029127
 108	5.3500e-02	4.3138	-14.490614	0.000983	9.832031	3.331182	0.080099
 109	5.4000e-02	4.3539	-14.235754	0.000626	6.256747	2.119843	0.050972
 110	5.4500e-02	4.4277	-14.490614	-0.000626	-6.256747	-2.119843	-0.050972
 111	5.5000e-02	4.4582	-14.090119	0.000983	9.832031	3.331182	0.080099
 112	5.5500e-02	4.4951	-13.980894	0.000268	2.681463	0.908504	0.021845
 113	5.6000e-02	4.5544	-13.944485	0.000089	0.893821	0.302835	0.007282
 114	5.6500e-02	4.5640	-13.908076	0.000089	0.893821	0.302835	0.007282
 115	5.7000e-02	4.5945	-13.726034	0.000447	4.469105	1.514174	0.036409
 116	5.7500e-02	4.6523	-13.325539	0.000983	9.832031	3.331182	0.080099
 117	5.8000e-02	4.6972	-13.143496	0.000447	4.469105	1.514174	0.036409
 118	5.8500e-02	4.7389	-13.325539	-0.000447	-4.469105	-1.514174	-0.036409
 119	5.9000e-02	4.7758	-12.997862	0.000804	8.044389	2.725513	0.065535
 120	5.9500e-02	4.7902	-13.034271	-0.000089	-0.893821	-0.302835	-0.007282
 121	6.0000e-02	4.8368	-12.888636	0.000358	3.575284	1.211339	0.029127
 122	6.0500e-02	4.8672	-12.925045	-0.000089	-0.893821	-0.302835	-0.007282
 123	6.1000e-02	4.9523	-12.815819	0.000268	2.681463	0.908504	0.021845
 124	6.1500e-02	4.9683	-12.378916	0.001073	10.725852	3.634017	0.087381
 125	6.2000e-02	5.0020	-12.560959	-0.000447	-4.469105	-1.514174	-0.036409
 126	6.2500e-02	5.0389	-12.306099	0.000626	6.256747	2.119843	0.050972
 127	6.3000e-02	5.0822	-11.905605	0.000983	9.832031	3.331182	0.080099
 128	6.3500e-02	5.1688	-11.978422	-0.000179	-1.787642	-0.605670	-0.014563
 129	6.4000e-02	5.1608	-11.869196	-0.000268	-2.681463	-0.908504	0.021845
 130	6.4500e-02	5.2122	-11.650745	0.000536	5.362926	1.817009	0.043690
 131	6.5000e-02	5.2458	-11.650745	0.000000	0.000000	0.000000	0.000000
 132	6.5500e-02	5.3020	-11.541519	0.000268	2.681463	0.908504	0.021845
 133	6.6000e-02	5.3309	-11.286659	0.000626	6.256747	2.119843	0.050972
 134	6.6500e-02	5.3774	-11.177433	0.000268	2.681463	0.908504	0.021845
 135	6.7000e-02	5.4223	-10.849756	0.000804	8.044389	2.725513	0.065535
 136	6.7500e-02	5.4512	-10.631304	0.000536	5.362926	1.817009	0.043690
 137	6.8000e-02	5.4977	-10.740530	-0.000268	-2.681463	-0.908504	-0.021845
 138	6.8500e-02	5.5202	-10.813347	-0.000179	-1.787642	-0.605670	-0.014563
 139	6.9000e-02	5.5490	-10.340036	0.001162	11.619673	3.936852	0.094662
 140	6.9500e-02	5.6084	-10.267219	0.000179	1.787642	0.605670	0.014563
 141	7.0000e-02	5.6629	-9.866724	0.000983	9.832031	3.331182	0.080099
 142	7.0500e-02	5.6870	-10.230810	-0.000894	-8.938210	-3.028348	-0.072817
 143	7.1000e-02	5.7014	-9.793907	0.001073	10.725852	3.634017	0.087381
 144	7.1500e-02	5.7801	-9.575456	0.000536	5.362926	1.817009	0.043690
 145	7.2000e-02	5.8218	-9.611864	-0.000089	-0.893821	-0.302835	-0.007282
 146	7.2500e-02	5.8651	-9.429821	0.000447	4.469105	1.514174	0.036409
 147	7.3000e-02	5.8843	-8.956510	0.001162	11.619673	3.936852	0.094662
 148	7.3500e-02	5.9421	-9.247779	-0.000715	-7.150568	-2.422678	-0.058254
 149	7.4000e-02	5.9774	-9.393413	-0.000358	-3.575284	-1.211339	-0.029127
 150	7.4500e-02	5.9982	-9.102144	0.000715	7.150568	2.422678	0.058254
 151	7.5000e-02	6.0608	-8.883693	0.000536	5.362926	1.817009	0.043690
 152	7.5500e-02	6.0945	-8.810876	0.000179	1.787642	0.605670	0.014563
 153	7.6000e-02	6.1137	-8.628833	0.000447	4.469105	1.514174	0.036409
 154	7.6500e-02	6.1715	-8.592424	0.000089	0.893821	0.302835	0.007282
 155	7.7000e-02	6.1939	-8.373973	0.000536	5.362926	1.817009	0.043690
 156	7.7500e-02	6.2308	-8.191930	0.000447	4.469105	1.514174	0.036409
 157	7.8000e-02	6.2822	-8.264747	-0.000179	-1.787642	-0.605670	-0.014563
 158	7.8500e-02	6.3223	-8.264747	0.000000	0.000000	0.000000	0.000000
 159	7.9000e-02	6.3608	-7.827844	0.001073	10.725852	3.634017	0.087381
 160	7.9500e-02	6.4169	-7.755027	0.000179	1.787642	0.605670	0.014563
 161	8.0000e-02	6.4570	-7.718618	0.000089	0.893821	0.302835	0.007282
 162	8.0500e-02	6.4667	-7.755027	-0.000089	-0.893821	-0.302835	-0.007282
 163	8.1000e-02	6.5052	-7.427350	0.000804	8.044389	2.725513	0.065535
 164	8.1500e-02	6.5437	-7.063264	0.000894	8.938210	3.028348	0.072817
 165	8.2000e-02	6.6159	-7.136081	-0.000179	-1.787642	-0.605670	-0.014563
 166	8.2500e-02	6.6560	-6.844812	0.000715	7.150568	2.422678	0.058254
 167	8.3000e-02	6.6576	-6.808404	0.000089	0.893821	0.302835	0.007282
 168	8.3500e-02	6.7426	-6.480727	0.000804	8.044389	2.725513	0.065535
 169	8.4000e-02	6.7586	-6.771995	-0.000715	-7.150568	-2.422678	-0.058254
 170	8.4500e-02	6.7939	-6.189458	0.001430	14.301136	4.845356	0.116507
 171	8.5000e-02	6.8613	-6.189458	0.000000	0.000000	0.000000	0.000000
 172	8.5500e-02	6.8773	-6.517135	-0.000804	-8.044389	-2.725513	-0.065535
 173	8.6000e-02	6.9207	-6.335092	0.000447	4.469105	1.514174	0.036409
 174	8.6500e-02	6.9608	-6.080232	0.000626	6.256747	2.119843	0.050972
 175	8.7000e-02	6.9961	-5.825372	0.000626	6.256747	2.119843	0.050972
 176	8.7500e-02	7.0474	-5.643329	0.000447	4.469105	1.514174	0.036409
 177	8.8000e-02	7.0650	-5.679738	-0.000089	-0.893821	-0.302835	-0.007282
 178	8.8500e-02	7.1517	-5.315652	0.000894	8.938210	3.028348	0.072817
 179	8.9000e-02	7.1789	-5.461287	-0.000358	-3.575284	-1.211339	-0.029127
 180	8.9500e-02	7.2014	-5.352061	0.000268	2.681463	0.908504	0.021845
 181	9.0000e-02	7.2495	-4.951566	0.000983	9.832031	3.331182	0.080099
 182	9.0500e-02	7.2688	-5.024384	-0.000179	-1.787642	-0.605670	-0.014563
 183	9.1000e-02	7.3041	-4.623889	0.000983	9.832031	3.331182	0.080099
 184	9.1500e-02	7.3698	-4.478255	0.000358	3.575284	1.211339	0.029127
 185	9.2000e-02	7.4116	-4.696706	-0.000536	-5.362926	-1.817009	-0.043690
 186	9.2500e-02	7.4436	-4.623889	0.000179	1.787642	0.605670	0.014563
 187	9.3000e-02	7.4854	-4.259804	0.000894	8.938210	3.028348	0.072817
 188	9.3500e-02	7.5046	-4.514664	-0.000626	-6.256747	-2.119843	-0.050972
 189	9.4000e-02	7.5591	-3.968535	0.001341	13.407315	4.542521	0.109226
 190	9.4500e-02	7.6041	-3.932126	0.000089	0.893821	0.302835	0.007282
 191	9.5000e-02	7.6378	-3.968535	-0.000089	-0.893821	-0.302835	-0.007282
 192	9.5500e-02	7.6795	-3.677266	0.000715	7.150568	2.422678	0.058254
 193	9.6000e-02	7.7276	-3.495223	0.000447	4.469105	1.514174	0.036409
 194	9.6500e-02	7.7629	-3.531632	-0.000089	-0.893821	-0.302835	-0.007282
 195	9.7000e-02	7.8094	-3.531632	0.000000	0.000000	0.000000	0.000000
 196	9.7500e-02	7.8431	-3.131138	0.000983	9.832031	3.331182	0.080099
 197	9.8000e-02	7.9089	-3.313181	-0.000447	-4.469105	-1.514174	-0.036409
 198	9.8500e-02	7.9041	-2.730643	-0.001430	-14.301136	-4.845356	0.116507
 199	9.9000e-02	7.9538	-3.203955	-0.001162	-11.619673	-3.936852	-0.094662
 200	9.9500e-02	7.9923	-2.111697	0.002681	26.814630	9.085043	0.218451
 201	1.0000e-01	8.0404	-2.475783	-0.000894	-8.938210	-3.028348	-0.072817
 202	1.0050e-01	8.0661	-2.803460	-0.000804	-8.044389	-2.725513	-0.065535
 203	1.0100e-01	8.1238	-2.402966	0.000983	9.832031	3.331182	0.080099
 204	1.0150e-01	8.1623	-2.111697	0.000715	7.150568	2.422678	0.058254
 205	1.0200e-01	8.1832	-1.966063	0.000358	3.575284	1.211339	0.029127
 206	1.0250e-01	8.2458	-2.038880	-0.000179	-1.787642	-0.605670	-0.014563
 207	1.0300e-01	8.2634	-1.383526	0.001609	16.088778	5.451026	0.131071
 208	1.0350e-01	8.3083	-1.674795	-0.000715	-7.150568	-2.422678	-0.058254
 209	1.0400e-01	8.3885	-1.711203	-0.000089	-0.893821	-0.302835	-0.007282
 210	1.0450e-01	8.4030	-1.347117	0.000894	8.938210	3.028348	0.072817
 211	1.0500e-01	8.4752	-1.201483	0.000358	3.575284	1.211339	0.029127
 212	1.0550e-01	8.4816	-1.055849	0.000358	3.575284	1.211339	0.029127
 213	1.0600e-01	8.5249	-0.691763	0.000894	8.938210	3.028348	0.072817
 214	1.0650e-01	8.5746	-0.983032	-0.000715	-7.150568	-2.422678	-0.058254
 215	1.0700e-01	8.6035	-0.983032	0.000000	0.000000	0.000000	0.000000
 216	1.0750e-01	8.6211	-0.691763	0.000715	7.150568	2.422678	0.058254
 217	1.0800e-01	8.6837	-0.800989	-0.000268	-2.681463	-0.908504	-0.021845
 218	1.0850e-01	8.7078	-0.582537	0.000536	5.362926	1.817009	0.043690
 219	1.0900e-01	8.7334	-0.400494	0.000447	4.469105	1.514174	0.036409
 220	1.0950e-01	8.8088	-0.036409	0.000894	8.938210	3.028348	0.072817
 221	1.1000e-01	8.8634	-0.182043	-0.000358	-3.575284	-1.211339	-0.029127
 222	1.1050e-01	8.8842	0.036409	0.000536	5.362926	1.817009	0.043690
 223	1.1100e-01	8.9179	0.291269	0.000626	6.256747	2.119843	0.050972
 224	1.1150e-01	8.9853	0.036409	-0.000626	-6.256747	-2.119843	-0.050972
 225	1.1200e-01	9.0046	0.400494	0.000894	8.938210	3.028348	0.072817
 226	1.1250e-01	9.0447	0.364086	-0.000089	-0.893821	-0.302835	-0.007282
 227	1.1300e-01	9.0896	0.546129	0.000447	4.469105	1.514174	0.036409
 228	1.1350e-01	9.1281	1.165074	0.001519	15.194957	5.148191	0.123789
 229	1.1400e-01	9.1842	0.728172	-0.001073	-10.725852	-3.634017	-0.087381
 230	1.1450e-01	9.2147	0.728172	0.000000	0.000000	0.000000	0.000000
 231	1.1500e-01	9.2660	1.310709	0.001430	14.301136	4.845356	0.116507
 232	1.1550e-01	9.2965	1.165074	-0.000358	-3.575284	-1.211339	-0.029127
 233	1.1600e-01	9.3174	1.128666	-0.000089	-0.893821	-0.302835	-0.007282
 234	1.1650e-01	9.3479	1.456343	0.000804	8.044389	2.725513	0.065535
 235	1.1700e-01	9.3960	1.711203	0.000626	6.256747	2.119843	0.050972
 236	1.1750e-01	9.4586	1.820429	0.000268	2.681463	0.908504	0.021845
 237	1.1800e-01	9.4810	1.674795	-0.000358	-3.575284	-1.211339	-0.029127
 238	1.1850e-01	9.5147	1.747612	0.000179	1.787642	0.605670	0.014563
 239	1.1900e-01	9.5596	1.893246	0.000358	3.575284	1.211339	0.029127
 240	1.1950e-01	9.6318	2.075289	0.000447	4.469105	1.514174	0.036409
 241	1.2000e-01	9.6446	2.038880	-0.000089	-0.893821	-0.302835	-0.007282
 242	1.2050e-01	9.6751	2.330149	0.000715	7.150568	2.422678	0.058254
 243	1.2100e-01	9.7168	2.548600	0.000536	5.362926	1.817009	0.043690
 244	1.2150e-01	9.7778	2.402966	-0.000358	-3.575284	-1.211339	-0.029127
 245	1.2200e-01	9.8083	2.730643	0.000804	8.044389	2.725513	0.065535
 246	1.2250e-01	9.8404	3.021912	0.000715	7.150568	2.422678	0.058254
 247	1.2300e-01	9.8805	2.839869	-0.000447	-4.469105	-1.514174	-0.036409
 248	1.2350e-01	9.9302	3.021912	0.000447	4.469105	1.514174	0.036409
 249	1.2400e-01	9.9655	3.203955	0.000447	4.469105	1.514174	0.036409
 250	1.2450e-01	10.0072	3.385998	0.000447	4.469105	1.514174	0.036409
 251	1.2500e-01	10.0521	3.458815	0.000179	1.787642	0.605670	0.014563
 252	1.2550e-01	10.0730	3.422406	-0.000089	-0.893821	-0.302835	-0.007282
 253	1.2600e-01	10.1227	3.713675	0.000715	7.150568	2.422678	0.058254
 254	1.2650e-01	10.1644	3.822901	0.000268	2.681463	0.908504	0.021845
 255	1.2700e-01	10.2045	4.114169	0.000715	7.150568	2.422678	0.058254
 256	1.2750e-01	10.2655	3.932126	-0.000447	-4.469105	-1.514174	-0.036409
 257	1.2800e-01	10.3072	3.859309	-0.000179	-1.787642	-0.605670	-0.014563
 258	1.2850e-01	10.3120	4.405438	0.001341	13.407315	4.542521	0.109226
