»»»»»»»»»»»»»»»»»»»»»»»»»»»»»»»»»»»» Hysteresis ««««««««««««««««««««««««««««««««««««
»»»  Executed Version:	5.48.1
»»»  Vision Version:	5.48.4 (R)
»»»  Vision Compiled:	9/18/24
»»»  Driver Version:	5.47.0
»»»  Windows Version:	Windows 8 or 8.1
»»»  Processor Information:	x86 (AMD or Intel) - 32 Processors
»»»  Tester Name:	PMF21124-494 (100V)
»»»  Tester S/N:	PMF21124-494
»»»  Internal Amp Type:	100V RevK 270k
»»»  Internal Amp S/N:	iAB2-596/K     
»»»  Execution Count:	1
»»»»»»»»»»»»»»»»»»»»»»»»»»»»»»»»»»»»»»»»»»««««««««««««««««««««««««««««««««««««««««««

Stored:	10/10/2025 - 16:9:41
Configured:	10/10/25 10:37:25 AM
Executed:	10/10/25 04:09:17 PM

»»»»»»»»»»»»»»»»»»»»»»»»»»»»»»»»»»» Sample Info ««««««««««««««««««««««««««««««««««««
Sample Name:	Int. Ref. Ferroelectric
Lot Name:	N/A
Wafer Name:	N/A
Die Row/Column:	0/0
Capacitor Number:	0
Sample Area (cm2):	1.00e-04
Sample Thickness (microns):	3.00e-01

Amplifier:	Internal

»»»»»»»»»»»»»»»»»»»»»»»»»»»»»»»»»»» Tester Info «««««««««««««««««««««««««««««««««««
Tester Name:	PMF21124-494 (100V)
Tester Serial Number:	PMF21124-494
Return Signal Amp. Level:	0.02 [Index: 2]

»»»»»»»»»»»»»»»»»»»»»»»»»»»»»»»» Hysteresis Info ««««««««««««««««««««««««««««««««««
Task Name:	Hyst-170
Volts:	20.00
Field:	666.67 (kV/cm)
DCBias:	0.00
DCField:	0.00 (kV/cm)
Hysteresis Period (ms):	5.00e-01
Preset:	Enabled
Preset Delay (ms):	1.00e+03
Profile:	Standard Monopolar

»»»»»»»»»»»»»»»»»»»»»»»»»»»»»»»»»»»»»» Data «««««««««««««««««««««««««««««««««««««««
Points:	1001

Valid Data

Point	Time (ms)	Drive Voltage	Measured Polarization (uC/cm2)	Capacitance (uF)	Normalized Capacitance (uF/cm2)	Dielectric Constant	Instantaneous Current (mA)
   1	0.0000e+00	0.0561	-36.881888	-0.000631	-6.305464	-2.136349	0.050972
   2	5.0000e-04	0.0433	-36.627028	-0.000631	-6.305464	-2.136349	0.050972
   3	1.0000e-03	0.1444	-36.590620	0.000090	0.900781	0.305193	0.007282
   4	1.5000e-03	0.1636	-36.408577	0.000450	4.503903	1.525964	0.036409
   5	2.0000e-03	0.1957	-36.190126	0.000540	5.404683	1.831156	0.043690
   6	2.5000e-03	0.2342	-36.408577	-0.000540	-5.404683	-1.831156	-0.043690
   7	3.0000e-03	0.2823	-35.898857	0.001261	12.610928	4.272698	0.101944
   8	3.5000e-03	0.3353	-35.643997	0.000631	6.305464	2.136349	0.050972
   9	4.0000e-03	0.3802	-35.607588	0.000090	0.900781	0.305193	0.007282
  10	4.5000e-03	0.4091	-35.170685	0.001081	10.809367	3.662313	0.087381
  11	5.0000e-03	0.4556	-35.207094	-0.000090	-0.900781	-0.305193	-0.007282
  12	5.5000e-03	0.4829	-34.988642	0.000540	5.404683	1.831156	0.043690
  13	6.0000e-03	0.5246	-34.588148	0.000991	9.908586	3.357120	0.080099
  14	6.5000e-03	0.5519	-34.624557	-0.000090	-0.900781	-0.305193	-0.007282
  15	7.0000e-03	0.6289	-34.588148	0.000090	0.900781	0.305193	0.007282
  16	7.5000e-03	0.6593	-34.151245	0.001081	10.809367	3.662313	0.087381
  17	8.0000e-03	0.6513	-34.224062	0.000180	1.801561	0.610385	-0.014563
  18	8.5000e-03	0.7315	-33.932794	0.000721	7.206244	2.441542	0.058254
  19	9.0000e-03	0.7716	-33.605117	0.000811	8.107025	2.746734	0.065535
  20	9.5000e-03	0.8294	-33.386665	0.000540	5.404683	1.831156	0.043690
  21	1.0000e-02	0.8454	-33.168214	0.000540	5.404683	1.831156	0.043690
  22	1.0500e-02	0.8952	-33.168214	0.000000	0.000000	0.000000	0.000000
  23	1.1000e-02	0.9128	-32.876945	0.000721	7.206244	2.441542	0.058254
  24	1.1500e-02	0.9625	-32.840536	0.000090	0.900781	0.305193	0.007282
  25	1.2000e-02	1.0171	-32.622085	0.000540	5.404683	1.831156	0.043690
  26	1.2500e-02	1.0652	-32.512859	0.000270	2.702342	0.915578	0.021845
  27	1.3000e-02	1.1021	-32.003139	0.001261	12.610928	4.272698	0.101944
  28	1.3500e-02	1.1518	-32.112365	-0.000270	-2.702342	-0.915578	-0.021845
  29	1.4000e-02	1.1534	-31.457010	0.001621	16.214050	5.493469	0.131071
  30	1.4500e-02	1.2128	-31.347785	0.000270	2.702342	0.915578	0.021845
  31	1.5000e-02	1.2433	-31.420602	-0.000180	-1.801561	-0.610385	-0.014563
  32	1.5500e-02	1.2994	-31.092925	0.000811	8.107025	2.746734	0.065535
  33	1.6000e-02	1.3315	-31.238559	-0.000360	-3.603122	-1.220771	-0.029127
  34	1.6500e-02	1.3684	-30.801656	0.001081	10.809367	3.662313	0.087381
  35	1.7000e-02	1.4053	-30.546796	0.000631	6.305464	2.136349	0.050972
  36	1.7500e-02	1.4422	-30.619613	-0.000180	-1.801561	-0.610385	-0.014563
  37	1.8000e-02	1.4759	-30.146302	0.001171	11.710147	3.967505	0.094662
  38	1.8500e-02	1.5320	-30.109893	0.000090	0.900781	0.305193	0.007282
  39	1.9000e-02	1.5641	-30.073485	0.000090	0.900781	0.305193	0.007282
  40	1.9500e-02	1.5962	-29.527356	0.001351	13.511708	4.577891	0.109226
  41	2.0000e-02	1.6251	-29.600173	-0.000180	-1.801561	-0.610385	-0.014563
  42	2.0500e-02	1.6700	-29.236087	0.000901	9.007806	3.051927	0.072817
  43	2.1000e-02	1.7181	-29.272496	-0.000090	-0.900781	-0.305193	-0.007282
  44	2.1500e-02	1.7663	-29.090453	0.000450	4.503903	1.525964	0.036409
  45	2.2000e-02	1.7983	-28.799184	0.000721	7.206244	2.441542	0.058254
  46	2.2500e-02	1.8304	-28.726367	0.000180	1.801561	0.610385	0.014563
  47	2.3000e-02	1.8673	-28.325873	0.000991	9.908586	3.357120	0.080099
  48	2.3500e-02	1.9042	-28.180239	0.000360	3.603122	1.220771	0.029127
  49	2.4000e-02	1.9556	-28.071013	0.000270	2.702342	0.915578	0.021845
  50	2.4500e-02	2.0101	-27.597701	0.001171	11.710147	3.967505	0.094662
  51	2.5000e-02	2.0759	-27.524884	0.000180	1.801561	0.610385	0.014563
  52	2.5500e-02	2.0775	-27.561293	-0.000090	-0.900781	-0.305193	-0.007282
  53	2.6000e-02	2.1112	-27.342841	0.000540	5.404683	1.831156	0.043690
  54	2.6500e-02	2.1481	-27.087981	0.000631	6.305464	2.136349	0.050972
  55	2.7000e-02	2.2058	-27.124390	-0.000090	-0.900781	-0.305193	-0.007282
  56	2.7500e-02	2.2507	-26.432627	0.001711	17.114831	5.798662	0.138353
  57	2.8000e-02	2.2957	-26.541853	-0.000270	-2.702342	-0.915578	-0.021845
  58	2.8500e-02	2.3101	-26.469035	0.000180	1.801561	0.610385	0.014563
  59	2.9000e-02	2.3807	-26.250584	0.000540	5.404683	1.831156	0.043690
  60	2.9500e-02	2.3887	-25.995724	0.000631	6.305464	2.136349	0.050972
  61	3.0000e-02	2.4304	-26.068541	-0.000180	-1.801561	-0.610385	-0.014563
  62	3.0500e-02	2.4737	-25.668047	0.000991	9.908586	3.357120	0.080099
  63	3.1000e-02	2.5251	-25.413187	0.000631	6.305464	2.136349	0.050972
  64	3.1500e-02	2.5588	-25.303961	0.000270	2.702342	0.915578	0.021845
  65	3.2000e-02	2.6293	-25.049101	0.000631	6.305464	2.136349	0.050972
  66	3.2500e-02	2.6502	-25.049101	0.000000	0.000000	0.000000	0.000000
  67	3.3000e-02	2.6951	-24.867058	0.000450	4.503903	1.525964	0.036409
  68	3.3500e-02	2.7192	-24.648607	0.000540	5.404683	1.831156	0.043690
  69	3.4000e-02	2.7384	-24.430155	0.000540	5.404683	1.831156	0.043690
  70	3.4500e-02	2.8459	-24.393747	0.000090	0.900781	0.305193	0.007282
  71	3.5000e-02	2.8652	-23.811209	0.001441	14.412489	4.883083	0.116507
  72	3.5500e-02	2.8507	-23.847618	0.000090	0.900781	0.305193	-0.007282
  73	3.6000e-02	2.9261	-23.665575	0.000450	4.503903	1.525964	0.036409
  74	3.6500e-02	2.9678	-23.374306	0.000721	7.206244	2.441542	0.058254
  75	3.7000e-02	3.0320	-23.519941	-0.000360	-3.603122	-1.220771	-0.029127
  76	3.7500e-02	3.0400	-22.900995	0.001531	15.313270	5.188276	0.123789
  77	3.8000e-02	3.0721	-22.973812	-0.000180	-1.801561	-0.610385	-0.014563
  78	3.8500e-02	3.1058	-22.791769	0.000450	4.503903	1.525964	0.036409
  79	3.9000e-02	3.1555	-22.500501	0.000721	7.206244	2.441542	0.058254
  80	3.9500e-02	3.2261	-22.427683	0.000180	1.801561	0.610385	0.014563
  81	4.0000e-02	3.2758	-22.100006	0.000811	8.107025	2.746734	0.065535
  82	4.0500e-02	3.2726	-22.027189	-0.000180	-1.801561	-0.610385	0.014563
  83	4.1000e-02	3.3192	-21.590286	0.001081	10.809367	3.662313	0.087381
  84	4.1500e-02	3.3304	-21.517469	0.000180	1.801561	0.610385	0.014563
  85	4.2000e-02	3.4138	-21.371835	0.000360	3.603122	1.220771	0.029127
  86	4.2500e-02	3.4395	-21.408243	-0.000090	-0.900781	-0.305193	-0.007282
  87	4.3000e-02	3.4684	-21.044157	0.000901	9.007806	3.051927	0.072817
  88	4.3500e-02	3.5261	-21.262609	-0.000540	-5.404683	-1.831156	-0.043690
  89	4.4000e-02	3.5534	-20.825706	0.001081	10.809367	3.662313	0.087381
  90	4.4500e-02	3.6047	-20.607255	0.000540	5.404683	1.831156	0.043690
  91	4.5000e-02	3.6304	-20.607255	0.000000	0.000000	0.000000	0.000000
  92	4.5500e-02	3.6849	-20.498029	0.000270	2.702342	0.915578	0.021845
  93	4.6000e-02	3.7507	-20.097534	0.000991	9.908586	3.357120	0.080099
  94	4.6500e-02	3.7443	-20.024717	-0.000180	-1.801561	-0.610385	0.014563
  95	4.7000e-02	3.8004	-19.915492	0.000270	2.702342	0.915578	0.021845
  96	4.7500e-02	3.8486	-19.332954	0.001441	14.412489	4.883083	0.116507
  97	4.8000e-02	3.9063	-19.624223	-0.000721	-7.206244	-2.441542	-0.058254
  98	4.8500e-02	3.9320	-19.223729	0.000991	9.908586	3.357120	0.080099
  99	4.9000e-02	3.9496	-19.041686	0.000450	4.503903	1.525964	0.036409
 100	4.9500e-02	4.0090	-18.750417	0.000721	7.206244	2.441542	0.058254
 101	5.0000e-02	4.0379	-19.005277	-0.000631	-6.305464	-2.136349	-0.050972
 102	5.0500e-02	4.0844	-18.422740	0.001441	14.412489	4.883083	0.116507
 103	5.1000e-02	4.1052	-18.386331	0.000090	0.900781	0.305193	0.007282
 104	5.1500e-02	4.1854	-17.985837	0.000991	9.908586	3.357120	0.080099
 105	5.2000e-02	4.2127	-18.058654	-0.000180	-1.801561	-0.610385	-0.014563
 106	5.2500e-02	4.2673	-17.913020	0.000360	3.603122	1.220771	0.029127
 107	5.3000e-02	4.2865	-17.658160	0.000631	6.305464	2.136349	0.050972
 108	5.3500e-02	4.3250	-17.585343	0.000180	1.801561	0.610385	0.014563
 109	5.4000e-02	4.3780	-17.403300	0.000450	4.503903	1.525964	0.036409
 110	5.4500e-02	4.4004	-17.330483	0.000180	1.801561	0.610385	0.014563
 111	5.5000e-02	4.4485	-16.966397	0.000901	9.007806	3.051927	0.072817
 112	5.5500e-02	4.4902	-16.784354	0.000450	4.503903	1.525964	0.036409
 113	5.6000e-02	4.5111	-16.638720	0.000360	3.603122	1.220771	0.029127
 114	5.6500e-02	4.5673	-16.311042	0.000811	8.107025	2.746734	0.065535
 115	5.7000e-02	4.6090	-16.347451	-0.000090	-0.900781	-0.305193	-0.007282
 116	5.7500e-02	4.6346	-15.910548	0.001081	10.809367	3.662313	0.087381
 117	5.8000e-02	4.6908	-16.056182	-0.000360	-3.603122	-1.220771	-0.029127
 118	5.8500e-02	4.7213	-15.874140	0.000450	4.503903	1.525964	0.036409
 119	5.9000e-02	4.7533	-15.728505	0.000360	3.603122	1.220771	0.029127
 120	5.9500e-02	4.8143	-15.510054	0.000540	5.404683	1.831156	0.043690
 121	6.0000e-02	4.8336	-15.546462	-0.000090	-0.900781	-0.305193	-0.007282
 122	6.0500e-02	4.8769	-15.364419	0.000450	4.503903	1.525964	0.036409
 123	6.1000e-02	4.8993	-14.781882	0.001441	14.412489	4.883083	0.116507
 124	6.1500e-02	4.9635	-15.073151	-0.000721	-7.206244	-2.441542	-0.058254
 125	6.2000e-02	4.9972	-14.417796	0.001621	16.214050	5.493469	0.131071
 126	6.2500e-02	5.0309	-14.563431	-0.000360	-3.603122	-1.220771	-0.029127
 127	6.3000e-02	5.0886	-14.126528	0.001081	10.809367	3.662313	0.087381
 128	6.3500e-02	5.1031	-14.126528	0.000000	0.000000	0.000000	0.000000
 129	6.4000e-02	5.1913	-13.762442	0.000901	9.007806	3.051927	0.072817
 130	6.4500e-02	5.1977	-13.835259	-0.000180	-1.801561	-0.610385	-0.014563
 131	6.5000e-02	5.2490	-13.726034	0.000270	2.702342	0.915578	0.021845
 132	6.5500e-02	5.2779	-13.471173	0.000631	6.305464	2.136349	0.050972
 133	6.6000e-02	5.2988	-13.289131	0.000450	4.503903	1.525964	0.036409
 134	6.6500e-02	5.3646	-13.143496	0.000360	3.603122	1.220771	0.029127
 135	6.7000e-02	5.4143	-12.852228	0.000721	7.206244	2.441542	0.058254
 136	6.7500e-02	5.4464	-12.925045	-0.000180	-1.801561	-0.610385	-0.014563
 137	6.8000e-02	5.4913	-12.633776	0.000721	7.206244	2.441542	0.058254
 138	6.8500e-02	5.5330	-12.451733	0.000450	4.503903	1.525964	0.036409
 139	6.9000e-02	5.5683	-12.378916	0.000180	1.801561	0.610385	0.014563
 140	6.9500e-02	5.5956	-12.051239	0.000811	8.107025	2.746734	0.065535
 141	7.0000e-02	5.6581	-11.869196	0.000450	4.503903	1.525964	0.036409
 142	7.0500e-02	5.7127	-11.687153	0.000450	4.503903	1.525964	0.036409
 143	7.1000e-02	5.7383	-11.577927	0.000270	2.702342	0.915578	0.021845
 144	7.1500e-02	5.7640	-11.359476	0.000540	5.404683	1.831156	0.043690
 145	7.2000e-02	5.8282	-11.031799	0.000811	8.107025	2.746734	0.065535
 146	7.2500e-02	5.8603	-11.250250	-0.000540	-5.404683	-1.831156	-0.043690
 147	7.3000e-02	5.8843	-10.958982	0.000721	7.206244	2.441542	0.058254
 148	7.3500e-02	5.9533	-10.776939	0.000450	4.503903	1.525964	0.036409
 149	7.4000e-02	5.9421	-10.485670	-0.000721	-7.206244	-2.441542	0.058254
 150	7.4500e-02	6.0271	-10.157993	0.000811	8.107025	2.746734	0.065535
 151	7.5000e-02	6.0624	-10.085176	0.000180	1.801561	0.610385	0.014563
 152	7.5500e-02	6.0865	-10.012359	0.000180	1.801561	0.610385	0.014563
 153	7.6000e-02	6.1121	-9.939542	0.000180	1.801561	0.610385	0.014563
 154	7.6500e-02	6.1731	-9.721090	0.000540	5.404683	1.831156	0.043690
 155	7.7000e-02	6.2100	-9.466230	0.000631	6.305464	2.136349	0.050972
 156	7.7500e-02	6.2693	-9.247779	0.000540	5.404683	1.831156	0.043690
 157	7.8000e-02	6.2886	-9.393413	-0.000360	-3.603122	-1.220771	-0.029127
 158	7.8500e-02	6.3399	-8.956510	0.001081	10.809367	3.662313	0.087381
 159	7.9000e-02	6.3576	-9.029327	-0.000180	-1.801561	-0.610385	-0.014563
 160	7.9500e-02	6.3993	-8.956510	0.000180	1.801561	0.610385	0.014563
 161	8.0000e-02	6.4554	-8.701650	0.000631	6.305464	2.136349	0.050972
 162	8.0500e-02	6.4699	-8.191930	0.001261	12.610928	4.272698	0.101944
 163	8.1000e-02	6.4907	-8.155521	0.000090	0.900781	0.305193	0.007282
 164	8.1500e-02	6.5453	-8.337564	-0.000450	-4.503903	-1.525964	-0.036409
 165	8.2000e-02	6.6014	-7.973478	0.000901	9.007806	3.051927	0.072817
 166	8.2500e-02	6.6319	-7.973478	0.000000	0.000000	0.000000	0.000000
 167	8.3000e-02	6.6993	-7.572984	0.000991	9.908586	3.357120	0.080099
 168	8.3500e-02	6.7442	-7.463758	0.000270	2.702342	0.915578	0.021845
 169	8.4000e-02	6.7586	-7.136081	0.000811	8.107025	2.746734	0.065535
 170	8.4500e-02	6.8148	-7.318124	-0.000450	-4.503903	-1.525964	-0.036409
 171	8.5000e-02	6.8324	-7.136081	0.000450	4.503903	1.525964	0.036409
 172	8.5500e-02	6.8709	-7.026855	0.000270	2.702342	0.915578	0.021845
 173	8.6000e-02	6.9287	-6.589952	0.001081	10.809367	3.662313	0.087381
 174	8.6500e-02	6.9864	-6.480727	0.000270	2.702342	0.915578	0.021845
 175	8.7000e-02	7.0057	-6.116641	0.000901	9.007806	3.051927	0.072817
 176	8.7500e-02	7.0474	-6.043824	0.000180	1.801561	0.610385	0.014563
 177	8.8000e-02	7.0859	-5.971007	0.000180	1.801561	0.610385	0.014563
 178	8.8500e-02	7.1116	-5.788964	0.000450	4.503903	1.525964	0.036409
 179	8.9000e-02	7.1613	-5.752555	0.000090	0.900781	0.305193	0.007282
 180	8.9500e-02	7.2110	-5.497695	0.000631	6.305464	2.136349	0.050972
 181	9.0000e-02	7.2431	-5.606921	-0.000270	-2.702342	-0.915578	-0.021845
 182	9.0500e-02	7.3153	-5.170018	0.001081	10.809367	3.662313	0.087381
 183	9.1000e-02	7.3313	-4.915158	0.000631	6.305464	2.136349	0.050972
 184	9.1500e-02	7.3811	-4.951566	-0.000090	-0.900781	-0.305193	-0.007282
 185	9.2000e-02	7.4019	-4.915158	0.000090	0.900781	0.305193	0.007282
 186	9.2500e-02	7.4677	-4.441846	0.001171	11.710147	3.967505	0.094662
 187	9.3000e-02	7.4677	-4.405438	-0.000090	-0.900781	-0.305193	0.007282
 188	9.3500e-02	7.5222	-3.859309	0.001351	13.511708	4.577891	0.109226
 189	9.4000e-02	7.5495	-4.332621	-0.001171	-11.710147	-3.967505	-0.094662
 190	9.4500e-02	7.6105	-3.895718	0.001081	10.809367	3.662313	0.087381
 191	9.5000e-02	7.6329	-3.932126	-0.000090	-0.900781	-0.305193	-0.007282
 192	9.5500e-02	7.6730	-3.968535	-0.000090	-0.900781	-0.305193	-0.007282
 193	9.6000e-02	7.7212	-3.276772	0.001711	17.114831	5.798662	0.138353
 194	9.6500e-02	7.7533	-3.203955	0.000180	1.801561	0.610385	0.014563
 195	9.7000e-02	7.7934	-3.131138	0.000180	1.801561	0.610385	0.014563
 196	9.7500e-02	7.8415	-2.876278	0.000631	6.305464	2.136349	0.050972
 197	9.8000e-02	7.8832	-2.548600	0.000811	8.107025	2.746734	0.065535
 198	9.8500e-02	7.9265	-2.512192	0.000090	0.900781	0.305193	0.007282
 199	9.9000e-02	7.9730	-2.512192	0.000000	0.000000	0.000000	0.000000
 200	9.9500e-02	8.0180	-2.439375	0.000180	1.801561	0.610385	0.014563
 201	1.0000e-01	8.0468	-2.257332	0.000450	4.503903	1.525964	0.036409
 202	1.0050e-01	8.0869	-1.893246	0.000901	9.007806	3.051927	0.072817
 203	1.0100e-01	8.1351	-1.601977	0.000721	7.206244	2.441542	0.058254
 204	1.0150e-01	8.1511	-1.893246	-0.000721	-7.206244	-2.441542	-0.058254
 205	1.0200e-01	8.2153	-1.419935	0.001171	11.710147	3.967505	0.094662
 206	1.0250e-01	8.2377	-1.419935	0.000000	0.000000	0.000000	0.000000
 207	1.0300e-01	8.2698	-1.128666	0.000721	7.206244	2.441542	0.058254
 208	1.0350e-01	8.3244	-1.092257	0.000090	0.900781	0.305193	0.007282
 209	1.0400e-01	8.3677	-0.983032	0.000270	2.702342	0.915578	0.021845
 210	1.0450e-01	8.3950	-0.728172	0.000631	6.305464	2.136349	0.050972
 211	1.0500e-01	8.4495	-0.655354	0.000180	1.801561	0.610385	0.014563
 212	1.0550e-01	8.5008	-0.218451	0.001081	10.809367	3.662313	0.087381
 213	1.0600e-01	8.5169	-0.582537	-0.000901	-9.007806	-3.051927	-0.072817
 214	1.0650e-01	8.5490	-0.218451	0.000901	9.007806	3.051927	0.072817
 215	1.0700e-01	8.6035	0.109226	0.000811	8.107025	2.746734	0.065535
 216	1.0750e-01	8.6179	-0.072817	-0.000450	-4.503903	-1.525964	-0.036409
 217	1.0800e-01	8.6741	0.182043	0.000631	6.305464	2.136349	0.050972
 218	1.0850e-01	8.7222	0.291269	0.000270	2.702342	0.915578	0.021845
 219	1.0900e-01	8.7447	0.436903	0.000360	3.603122	1.220771	0.029127
 220	1.0950e-01	8.8281	1.128666	0.001711	17.114831	5.798662	0.138353
 221	1.1000e-01	8.8393	0.946623	-0.000450	-4.503903	-1.525964	-0.036409
 222	1.1050e-01	8.8907	0.873806	-0.000180	-1.801561	-0.610385	-0.014563
 223	1.1100e-01	8.9051	1.274300	0.000991	9.908586	3.357120	0.080099
 224	1.1150e-01	8.9468	1.055849	-0.000540	-5.404683	-1.831156	-0.043690
 225	1.1200e-01	8.9949	1.711203	0.001621	16.214050	5.493469	0.131071
 226	1.1250e-01	9.0495	1.565569	-0.000360	-3.603122	-1.220771	-0.029127
 227	1.1300e-01	9.0944	2.220923	0.001621	16.214050	5.493469	0.131071
 228	1.1350e-01	9.1233	1.820429	-0.000991	-9.908586	-3.357120	-0.080099
 229	1.1400e-01	9.1554	2.184515	0.000901	9.007806	3.051927	0.072817
 230	1.1450e-01	9.2051	2.148106	-0.000090	-0.900781	-0.305193	-0.007282
 231	1.1500e-01	9.2596	2.220923	0.000180	1.801561	0.610385	0.014563
 232	1.1550e-01	9.2981	2.548600	0.000811	8.107025	2.746734	0.065535
 233	1.1600e-01	9.3190	2.293740	-0.000631	-6.305464	-2.136349	-0.050972
 234	1.1650e-01	9.3687	2.694235	0.000991	9.908586	3.357120	0.080099
 235	1.1700e-01	9.4168	2.949095	0.000631	6.305464	2.136349	0.050972
 236	1.1750e-01	9.4281	3.058320	0.000270	2.702342	0.915578	0.021845
 237	1.1800e-01	9.4874	3.058320	0.000000	0.000000	0.000000	0.000000
 238	1.1850e-01	9.5532	3.422406	0.000901	9.007806	3.051927	0.072817
 239	1.1900e-01	9.5420	3.495223	-0.000180	-1.801561	-0.610385	0.014563
 240	1.1950e-01	9.6029	3.859309	0.000901	9.007806	3.051927	0.072817
 241	1.2000e-01	9.6575	4.077761	0.000540	5.404683	1.831156	0.043690
 242	1.2050e-01	9.6719	4.041352	-0.000090	-0.900781	-0.305193	-0.007282
 243	1.2100e-01	9.7152	4.041352	0.000000	0.000000	0.000000	0.000000
 244	1.2150e-01	9.7585	4.332621	0.000721	7.206244	2.441542	0.058254
 245	1.2200e-01	9.8291	4.478255	0.000360	3.603122	1.220771	0.029127
 246	1.2250e-01	9.8420	4.587481	0.000270	2.702342	0.915578	0.021845
 247	1.2300e-01	9.8965	4.842341	0.000631	6.305464	2.136349	0.050972
 248	1.2350e-01	9.9158	5.206427	0.000901	9.007806	3.051927	0.072817
 249	1.2400e-01	9.9543	4.951566	-0.000631	-6.305464	-2.136349	-0.050972
 250	1.2450e-01	10.0008	5.024384	0.000180	1.801561	0.610385	0.014563
 251	1.2500e-01	10.0666	5.643329	0.001531	15.313270	5.188276	0.123789
 252	1.2550e-01	10.0906	5.388469	-0.000631	-6.305464	-2.136349	-0.050972
 253	1.2600e-01	10.1243	5.752555	0.000901	9.007806	3.051927	0.072817
 254	1.2650e-01	10.1420	5.934598	0.000450	4.503903	1.525964	0.036409
 255	1.2700e-01	10.1949	5.934598	0.000000	0.000000	0.000000	0.000000
 256	1.2750e-01	10.1965	6.262275	0.000811	8.107025	2.746734	0.065535
 257	1.2800e-01	10.2863	6.480727	0.000540	5.404683	1.831156	0.043690
 258	1.2850e-01	10.3056	6.225867	-0.000631	-6.305464	-2.136349	-0.050972
 259	1.2900e-01	10.3922	6.626361	0.000991	9.908586	3.357120	0.080099
