»»»»»»»»»»»»»»»»»»»»»»»»»»»»»»»»»»»» Hysteresis ««««««««««««««««««««««««««««««««««««
»»»  Executed Version:	5.48.1
»»»  Vision Version:	5.48.4 (R)
»»»  Vision Compiled:	9/18/24
»»»  Driver Version:	5.47.0
»»»  Windows Version:	Windows 8 or 8.1
»»»  Processor Information:	x86 (AMD or Intel) - 32 Processors
»»»  Tester Name:	PMF21124-494 (100V)
»»»  Tester S/N:	PMF21124-494
»»»  Internal Amp Type:	100V RevK 270k
»»»  Internal Amp S/N:	iAB2-596/K     
»»»  Execution Count:	1
»»»»»»»»»»»»»»»»»»»»»»»»»»»»»»»»»»»»»»»»»»««««««««««««««««««««««««««««««««««««««««««

Stored:	10/10/2025 - 17:5:23
Configured:	10/10/25 10:37:25 AM
Executed:	10/10/25 05:05:04 PM

»»»»»»»»»»»»»»»»»»»»»»»»»»»»»»»»»»» Sample Info ««««««««««««««««««««««««««««««««««««
Sample Name:	Int. Ref. Ferroelectric
Lot Name:	N/A
Wafer Name:	N/A
Die Row/Column:	0/0
Capacitor Number:	0
Sample Area (cm2):	1.00e-04
Sample Thickness (microns):	3.00e-01

Amplifier:	Internal

»»»»»»»»»»»»»»»»»»»»»»»»»»»»»»»»»»» Tester Info «««««««««««««««««««««««««««««««««««
Tester Name:	PMF21124-494 (100V)
Tester Serial Number:	PMF21124-494
Return Signal Amp. Level:	0.02 [Index: 2]

»»»»»»»»»»»»»»»»»»»»»»»»»»»»»»»» Hysteresis Info ««««««««««««««««««««««««««««««««««
Task Name:	Hyst-170
Volts:	20.00
Field:	666.67 (kV/cm)
DCBias:	0.00
DCField:	0.00 (kV/cm)
Hysteresis Period (ms):	5.00e-01
Preset:	Enabled
Preset Delay (ms):	1.00e+03
Profile:	Standard Monopolar

»»»»»»»»»»»»»»»»»»»»»»»»»»»»»»»»»»»»»» Data «««««««««««««««««««««««««««««««««««««««
Points:	1001

Valid Data

Point	Time (ms)	Drive Voltage	Measured Polarization (uC/cm2)	Capacitance (uF)	Normalized Capacitance (uF/cm2)	Dielectric Constant	Instantaneous Current (mA)
   1	0.0000e+00	0.0160	-23.574554	0.000819	8.185048	2.773169	0.065535
   2	5.0000e-04	0.0305	-23.246876	0.000819	8.185048	2.773169	0.065535
   3	1.0000e-03	0.0963	-23.174059	0.000182	1.818900	0.616260	0.014563
   4	1.5000e-03	0.1604	-23.283285	-0.000273	-2.728349	-0.924390	-0.021845
   5	2.0000e-03	0.2134	-22.992016	0.000728	7.275599	2.465040	0.058254
   6	2.5000e-03	0.2487	-22.955608	0.000091	0.909450	0.308130	0.007282
   7	3.0000e-03	0.2711	-23.064834	-0.000273	-2.728349	-0.924390	-0.021845
   8	3.5000e-03	0.3064	-22.555113	0.001273	12.732298	4.313819	0.101944
   9	4.0000e-03	0.3593	-21.717716	0.002092	20.917346	7.086989	0.167479
  10	4.5000e-03	0.3834	-22.300253	-0.001455	-14.551197	-4.930079	-0.116507
  11	5.0000e-03	0.4155	-22.445888	-0.000364	-3.637799	-1.232520	-0.029127
  12	5.5000e-03	0.4781	-21.936168	0.001273	12.732298	4.313819	0.101944
  13	6.0000e-03	0.5262	-21.899759	0.000091	0.909450	0.308130	0.007282
  14	6.5000e-03	0.5679	-21.972576	-0.000182	-1.818900	-0.616260	-0.014563
  15	7.0000e-03	0.5952	-21.681308	0.000728	7.275599	2.465040	0.058254
  16	7.5000e-03	0.6289	-22.008985	-0.000819	-8.185048	-2.773169	-0.065535
  17	8.0000e-03	0.6513	-21.717716	0.000728	7.275599	2.465040	0.058254
  18	8.5000e-03	0.6962	-21.390039	0.000819	8.185048	2.773169	0.065535
  19	9.0000e-03	0.7700	-21.572082	-0.000455	-4.547249	-1.540650	-0.036409
  20	9.5000e-03	0.8085	-21.171588	0.001000	10.003948	3.389429	0.080099
  21	1.0000e-02	0.8214	-21.062362	0.000273	2.728349	0.924390	0.021845
  22	1.0500e-02	0.8551	-21.317222	-0.000637	-6.366149	-2.156910	-0.050972
  23	1.1000e-02	0.9096	-20.443416	0.002183	21.826796	7.395119	0.174761
  24	1.1500e-02	0.9802	-20.516233	-0.000182	-1.818900	-0.616260	-0.014563
  25	1.2000e-02	1.0235	-20.989545	-0.001182	-11.822848	-4.005689	-0.094662
  26	1.2500e-02	1.0524	-20.479825	0.001273	12.732298	4.313819	0.101944
  27	1.3000e-02	1.0813	-20.261373	0.000546	5.456699	1.848780	0.043690
  28	1.3500e-02	1.1230	-20.334190	-0.000182	-1.818900	-0.616260	-0.014563
  29	1.4000e-02	1.1454	-20.370599	-0.000091	-0.909450	-0.308130	-0.007282
  30	1.4500e-02	1.1903	-19.678836	0.001728	17.279547	5.854469	0.138353
  31	1.5000e-02	1.2112	-19.933696	-0.000637	-6.366149	-2.156910	-0.050972
  32	1.5500e-02	1.2593	-19.751653	0.000455	4.547249	1.540650	0.036409
  33	1.6000e-02	1.3107	-19.715244	0.000091	0.909450	0.308130	0.007282
  34	1.6500e-02	1.3492	-19.423976	0.000728	7.275599	2.465040	0.058254
  35	1.7000e-02	1.3636	-19.132707	0.000728	7.275599	2.465040	0.058254
  36	1.7500e-02	1.4374	-19.096299	0.000091	0.909450	0.308130	0.007282
  37	1.8000e-02	1.4903	-19.387567	-0.000728	-7.275599	-2.465040	-0.058254
  38	1.8500e-02	1.5160	-19.241933	0.000364	3.637799	1.232520	0.029127
  39	1.9000e-02	1.5705	-18.732213	0.001273	12.732298	4.313819	0.101944
  40	1.9500e-02	1.6251	-18.550170	0.000455	4.547249	1.540650	0.036409
  41	2.0000e-02	1.6620	-18.695804	-0.000364	-3.637799	-1.232520	-0.029127
  42	2.0500e-02	1.6941	-18.695804	0.000000	0.000000	0.000000	0.000000
  43	2.1000e-02	1.7069	-18.331719	0.000909	9.094498	3.081299	0.072817
  44	2.1500e-02	1.7438	-18.149676	0.000455	4.547249	1.540650	0.036409
  45	2.2000e-02	1.7743	-18.076858	0.000182	1.818900	0.616260	0.014563
  46	2.2500e-02	1.8224	-17.858407	0.000546	5.456699	1.848780	0.043690
  47	2.3000e-02	1.8962	-17.931224	-0.000182	-1.818900	-0.616260	-0.014563
  48	2.3500e-02	1.9090	-18.295310	-0.000909	-9.094498	-3.081299	-0.072817
  49	2.4000e-02	1.9379	-18.149676	0.000364	3.637799	1.232520	0.029127
  50	2.4500e-02	1.9700	-17.676364	0.001182	11.822848	4.005689	0.094662
  51	2.5000e-02	2.0486	-17.494321	0.000455	4.547249	1.540650	0.036409
  52	2.5500e-02	2.0919	-17.967633	-0.001182	-11.822848	-4.005689	-0.094662
  53	2.6000e-02	2.1320	-17.057418	0.002274	22.736246	7.703249	0.182043
  54	2.6500e-02	2.1625	-17.057418	0.000000	0.000000	0.000000	0.000000
  55	2.7000e-02	2.1930	-17.312278	-0.000637	-6.366149	-2.156910	-0.050972
  56	2.7500e-02	2.2235	-17.093827	0.000546	5.456699	1.848780	0.043690
  57	2.8000e-02	2.2684	-16.656924	0.001091	10.913398	3.697559	0.087381
  58	2.8500e-02	2.3261	-16.547698	0.000273	2.728349	0.924390	0.021845
  59	2.9000e-02	2.3390	-16.547698	0.000000	0.000000	0.000000	0.000000
  60	2.9500e-02	2.4015	-16.693333	-0.000364	-3.637799	-1.232520	-0.029127
  61	3.0000e-02	2.4449	-16.256430	0.001091	10.913398	3.697559	0.087381
  62	3.0500e-02	2.4689	-16.037978	0.000546	5.456699	1.848780	0.043690
  63	3.1000e-02	2.5235	-15.928752	0.000273	2.728349	0.924390	0.021845
  64	3.1500e-02	2.5491	-16.438472	-0.001273	-12.732298	-4.313819	-0.101944
  65	3.2000e-02	2.5908	-15.965161	0.001182	11.822848	4.005689	0.094662
  66	3.2500e-02	2.6390	-15.346215	0.001546	15.460647	5.238209	0.123789
  67	3.3000e-02	2.6887	-15.892344	-0.001364	-13.641747	-4.621949	-0.109226
  68	3.3500e-02	2.7432	-15.855935	0.000091	0.909450	0.308130	0.007282
  69	3.4000e-02	2.7513	-15.236989	0.001546	15.460647	5.238209	0.123789
  70	3.4500e-02	2.7914	-15.382624	-0.000364	-3.637799	-1.232520	-0.029127
  71	3.5000e-02	2.8507	-14.836495	0.001364	13.641747	4.621949	0.109226
  72	3.5500e-02	2.8940	-15.236989	-0.001000	-10.003948	-3.389429	-0.080099
  73	3.6000e-02	2.9406	-14.909312	0.000819	8.185048	2.773169	0.065535
  74	3.6500e-02	2.9502	-14.727269	0.000455	4.547249	1.540650	0.036409
  75	3.7000e-02	2.9919	-15.054947	-0.000819	-8.185048	-2.773169	-0.065535
  76	3.7500e-02	3.0256	-14.436001	0.001546	15.460647	5.238209	0.123789
  77	3.8000e-02	3.0849	-14.690861	-0.000637	-6.366149	-2.156910	-0.050972
  78	3.8500e-02	3.1459	-14.472409	0.000546	5.456699	1.848780	0.043690
  79	3.9000e-02	3.1668	-14.363184	0.000273	2.728349	0.924390	0.021845
  80	3.9500e-02	3.1924	-13.926281	0.001091	10.913398	3.697559	0.087381
  81	4.0000e-02	3.2389	-13.817055	0.000273	2.728349	0.924390	0.021845
  82	4.0500e-02	3.2855	-14.181141	-0.000909	-9.094498	-3.081299	-0.072817
  83	4.1000e-02	3.3111	-13.380152	0.002001	20.007896	6.778859	0.160198
  84	4.1500e-02	3.3689	-13.562195	-0.000455	-4.547249	-1.540650	-0.036409
  85	4.2000e-02	3.4186	-13.380152	0.000455	4.547249	1.540650	0.036409
  86	4.2500e-02	3.4363	-13.125292	0.000637	6.366149	2.156910	0.050972
  87	4.3000e-02	3.4764	-13.307335	-0.000455	-4.547249	-1.540650	-0.036409
  88	4.3500e-02	3.4812	-13.380152	-0.000182	-1.818900	-0.616260	-0.014563
  89	4.4000e-02	3.5341	-12.870432	0.001273	12.732298	4.313819	0.101944
  90	4.4500e-02	3.5967	-12.724798	0.000364	3.637799	1.232520	0.029127
  91	4.5000e-02	3.6191	-12.761206	-0.000091	-0.909450	-0.308130	-0.007282
  92	4.5500e-02	3.6609	-12.870432	-0.000273	-2.728349	-0.924390	-0.021845
  93	4.6000e-02	3.7234	-12.724798	0.000364	3.637799	1.232520	0.029127
  94	4.6500e-02	3.7411	-12.360712	0.000909	9.094498	3.081299	0.072817
  95	4.7000e-02	3.8004	-12.615572	-0.000637	-6.366149	-2.156910	-0.050972
  96	4.7500e-02	3.8389	-12.360712	0.000637	6.366149	2.156910	0.050972
  97	4.8000e-02	3.8919	-12.105852	0.000637	6.366149	2.156910	0.050972
  98	4.8500e-02	3.9240	-12.178669	-0.000182	-1.818900	-0.616260	-0.014563
  99	4.9000e-02	3.9576	-11.923809	0.000637	6.366149	2.156910	0.050972
 100	4.9500e-02	4.0186	-11.850992	0.000182	1.818900	0.616260	0.014563
 101	5.0000e-02	4.0603	-11.923809	-0.000182	-1.818900	-0.616260	-0.014563
 102	5.0500e-02	4.0828	-11.923809	0.000000	0.000000	0.000000	0.000000
 103	5.1000e-02	4.1165	-11.632540	0.000728	7.275599	2.465040	0.058254
 104	5.1500e-02	4.1598	-11.559723	0.000182	1.818900	0.616260	0.014563
 105	5.2000e-02	4.1742	-11.159229	0.001000	10.003948	3.389429	0.080099
 106	5.2500e-02	4.2143	-11.050003	0.000273	2.728349	0.924390	0.021845
 107	5.3000e-02	4.2464	-10.940777	0.000273	2.728349	0.924390	0.021845
 108	5.3500e-02	4.2929	-10.904369	0.000091	0.909450	0.308130	0.007282
 109	5.4000e-02	4.3635	-10.613100	0.000728	7.275599	2.465040	0.058254
 110	5.4500e-02	4.3892	-10.613100	0.000000	0.000000	0.000000	0.000000
 111	5.5000e-02	4.4309	-10.503874	0.000273	2.728349	0.924390	0.021845
 112	5.5500e-02	4.4694	-10.503874	0.000000	0.000000	0.000000	0.000000
 113	5.6000e-02	4.5352	-10.685917	-0.000455	-4.547249	-1.540650	-0.036409
 114	5.6500e-02	4.5624	-10.285423	0.001000	10.003948	3.389429	0.080099
 115	5.7000e-02	4.6090	-9.812111	0.001182	11.822848	4.005689	0.094662
 116	5.7500e-02	4.6346	-10.139789	-0.000819	-8.185048	-2.773169	-0.065535
 117	5.8000e-02	4.6715	-9.775703	0.000909	9.094498	3.081299	0.072817
 118	5.8500e-02	4.6940	-9.593660	0.000455	4.547249	1.540650	0.036409
 119	5.9000e-02	4.7501	-9.848520	-0.000637	-6.366149	-2.156910	-0.050972
 120	5.9500e-02	4.7999	-9.812111	0.000091	0.909450	0.308130	0.007282
 121	6.0000e-02	4.8191	-9.193166	0.001546	15.460647	5.238209	0.123789
 122	6.0500e-02	4.8785	-9.775703	-0.001455	-14.551197	-4.930079	-0.116507
 123	6.1000e-02	4.9378	-8.901897	0.002183	21.826796	7.395119	0.174761
 124	6.1500e-02	4.9635	-9.156757	-0.000637	-6.366149	-2.156910	-0.050972
 125	6.2000e-02	5.0004	-9.229574	-0.000182	-1.818900	-0.616260	-0.014563
 126	6.2500e-02	5.0421	-9.193166	0.000091	0.909450	0.308130	0.007282
 127	6.3000e-02	5.0774	-9.047531	0.000364	3.637799	1.232520	0.029127
 128	6.3500e-02	5.1127	-8.501403	0.001364	13.641747	4.621949	0.109226
 129	6.4000e-02	5.1624	-8.100908	0.001000	10.003948	3.389429	0.080099
 130	6.4500e-02	5.1817	-8.756263	-0.001637	-16.370097	-5.546339	-0.131071
 131	6.5000e-02	5.2282	-8.537811	0.000546	5.456699	1.848780	0.043690
 132	6.5500e-02	5.2635	-8.173726	0.000909	9.094498	3.081299	0.072817
 133	6.6000e-02	5.2972	-8.137317	0.000091	0.909450	0.308130	0.007282
 134	6.6500e-02	5.3533	-7.846048	0.000728	7.275599	2.465040	0.058254
 135	6.7000e-02	5.3838	-7.991683	-0.000364	-3.637799	-1.232520	-0.029127
 136	6.7500e-02	5.4271	-7.955274	0.000091	0.909450	0.308130	0.007282
 137	6.8000e-02	5.4913	-7.882457	0.000182	1.818900	0.616260	0.014563
 138	6.8500e-02	5.5234	-7.700414	0.000455	4.547249	1.540650	0.036409
 139	6.9000e-02	5.5715	-7.700414	0.000000	0.000000	0.000000	0.000000
 140	6.9500e-02	5.6116	-7.409145	0.000728	7.275599	2.465040	0.058254
 141	7.0000e-02	5.6533	-7.481963	-0.000182	-1.818900	-0.616260	-0.014563
 142	7.0500e-02	5.6950	-7.154285	0.000819	8.185048	2.773169	0.065535
 143	7.1000e-02	5.7239	-6.935834	0.000546	5.456699	1.848780	0.043690
 144	7.1500e-02	5.7640	-6.644565	0.000728	7.275599	2.465040	0.058254
 145	7.2000e-02	5.7849	-6.790200	-0.000364	-3.637799	-1.232520	-0.029127
 146	7.2500e-02	5.8266	-6.280480	0.001273	12.732298	4.313819	0.101944
 147	7.3000e-02	5.8458	-6.207662	0.000182	1.818900	0.616260	0.014563
 148	7.3500e-02	5.9100	-6.353297	-0.000364	-3.637799	-1.232520	-0.029127
 149	7.4000e-02	5.9710	-6.608157	-0.000637	-6.366149	-2.156910	-0.050972
 150	7.4500e-02	6.0079	-6.134845	0.001182	11.822848	4.005689	0.094662
 151	7.5000e-02	6.0544	-6.207662	-0.000182	-1.818900	-0.616260	-0.014563
 152	7.5500e-02	6.0816	-5.879985	0.000819	8.185048	2.773169	0.065535
 153	7.6000e-02	6.0961	-5.879985	0.000000	0.000000	0.000000	0.000000
 154	7.6500e-02	6.1346	-5.843577	0.000091	0.909450	0.308130	0.007282
 155	7.7000e-02	6.1859	-5.697942	0.000364	3.637799	1.232520	0.029127
 156	7.7500e-02	6.2405	-5.661534	0.000091	0.909450	0.308130	0.007282
 157	7.8000e-02	6.3062	-5.843577	-0.000455	-4.547249	-1.540650	-0.036409
 158	7.8500e-02	6.3078	-5.333857	0.001273	12.732298	4.313819	0.101944
 159	7.9000e-02	6.3592	-5.115405	0.000546	5.456699	1.848780	0.043690
 160	7.9500e-02	6.4073	-5.370265	-0.000637	-6.366149	-2.156910	-0.050972
 161	8.0000e-02	6.4041	-4.678502	-0.001728	-17.279547	-5.854469	0.138353
 162	8.0500e-02	6.4795	-5.151814	-0.001182	-11.822848	-4.005689	-0.094662
 163	8.1000e-02	6.4811	-5.078996	0.000182	1.818900	0.616260	0.014563
 164	8.1500e-02	6.5148	-4.642094	0.001091	10.913398	3.697559	0.087381
 165	8.2000e-02	6.5870	-4.423642	0.000546	5.456699	1.848780	0.043690
 166	8.2500e-02	6.6303	-4.532868	-0.000273	-2.728349	-0.924390	-0.021845
 167	8.3000e-02	6.6720	-4.460051	0.000182	1.818900	0.616260	0.014563
 168	8.3500e-02	6.6864	-4.278008	0.000455	4.547249	1.540650	0.036409
 169	8.4000e-02	6.7570	-4.168782	0.000273	2.728349	0.924390	0.021845
 170	8.4500e-02	6.8052	-4.168782	0.000000	0.000000	0.000000	0.000000
 171	8.5000e-02	6.8421	-3.841105	0.000819	8.185048	2.773169	0.065535
 172	8.5500e-02	6.8581	-4.132373	-0.000728	-7.275599	-2.465040	-0.058254
 173	8.6000e-02	6.8918	-3.513428	0.001546	15.460647	5.238209	0.123789
 174	8.6500e-02	6.9447	-3.513428	0.000000	0.000000	0.000000	0.000000
 175	8.7000e-02	6.9816	-3.950331	-0.001091	-10.913398	-3.697559	-0.087381
 176	8.7500e-02	7.0490	-3.367793	0.001455	14.551197	4.930079	0.116507
 177	8.8000e-02	7.0939	-3.367793	0.000000	0.000000	0.000000	0.000000
 178	8.8500e-02	7.1244	-3.549836	-0.000455	-4.547249	-1.540650	-0.036409
 179	8.9000e-02	7.1469	-3.112933	0.001091	10.913398	3.697559	0.087381
 180	8.9500e-02	7.1757	-3.367793	-0.000637	-6.366149	-2.156910	-0.050972
 181	9.0000e-02	7.2431	-2.530396	0.002092	20.917346	7.086989	0.167479
 182	9.0500e-02	7.2672	-3.440611	-0.002274	-22.736246	-7.703249	-0.182043
 183	9.1000e-02	7.3009	-2.493988	0.002365	23.645695	8.011378	0.189325
 184	9.1500e-02	7.3281	-2.639622	-0.000364	-3.637799	-1.232520	-0.029127
 185	9.2000e-02	7.3891	-2.676030	-0.000091	-0.909450	-0.308130	-0.007282
 186	9.2500e-02	7.4276	-2.457579	0.000546	5.456699	1.848780	0.043690
 187	9.3000e-02	7.4661	-1.911450	0.001364	13.641747	4.621949	0.109226
 188	9.3500e-02	7.5126	-2.348353	-0.001091	-10.913398	-3.697559	-0.087381
 189	9.4000e-02	7.5591	-2.057085	0.000728	7.275599	2.465040	0.058254
 190	9.4500e-02	7.5896	-1.802225	0.000637	6.366149	2.156910	0.050972
 191	9.5000e-02	7.6249	-2.311945	-0.001273	-12.732298	-4.313819	-0.101944
 192	9.5500e-02	7.6682	-1.656590	0.001637	16.370097	5.546339	0.131071
 193	9.6000e-02	7.7067	-1.765816	-0.000273	-2.728349	-0.924390	-0.021845
 194	9.6500e-02	7.7597	-1.838633	-0.000182	-1.818900	-0.616260	-0.014563
 195	9.7000e-02	7.7966	-1.474547	0.000909	9.094498	3.081299	0.072817
 196	9.7500e-02	7.8479	-1.802225	-0.000819	-8.185048	-2.773169	-0.065535
 197	9.8000e-02	7.8864	-1.292504	0.001273	12.732298	4.313819	0.101944
 198	9.8500e-02	7.9217	-1.547365	-0.000637	-6.366149	-2.156910	-0.050972
 199	9.9000e-02	7.9570	-1.074053	0.001182	11.822848	4.005689	0.094662
 200	9.9500e-02	8.0164	-0.782784	0.000728	7.275599	2.465040	0.058254
 201	1.0000e-01	8.0388	-1.037644	-0.000637	-6.366149	-2.156910	-0.050972
 202	1.0050e-01	8.0629	-0.673559	0.000909	9.094498	3.081299	0.072817
 203	1.0100e-01	8.1126	-0.855602	-0.000455	-4.547249	-1.540650	-0.036409
 204	1.0150e-01	8.1704	-0.709967	0.000364	3.637799	1.232520	0.029127
 205	1.0200e-01	8.2008	-0.928419	-0.000546	-5.456699	-1.848780	-0.043690
 206	1.0250e-01	8.2361	-0.673559	0.000637	6.366149	2.156910	0.050972
 207	1.0300e-01	8.2762	-0.091021	0.001455	14.551197	4.930079	0.116507
 208	1.0350e-01	8.3212	-0.418699	-0.000819	-8.185048	-2.773169	-0.065535
 209	1.0400e-01	8.3661	-0.091021	0.000819	8.185048	2.773169	0.065535
 210	1.0450e-01	8.4030	-0.018204	0.000182	1.818900	0.616260	0.014563
 211	1.0500e-01	8.4639	-0.455107	-0.001091	-10.913398	-3.697559	-0.087381
 212	1.0550e-01	8.5089	0.091021	0.001364	13.641747	4.621949	0.109226
 213	1.0600e-01	8.5105	-0.200247	-0.000728	-7.275599	-2.465040	-0.058254
 214	1.0650e-01	8.5506	0.418699	0.001546	15.460647	5.238209	0.123789
 215	1.0700e-01	8.5891	0.382290	-0.000091	-0.909450	-0.308130	-0.007282
 216	1.0750e-01	8.6292	0.455107	0.000182	1.818900	0.616260	0.014563
 217	1.0800e-01	8.6789	1.001236	0.001364	13.641747	4.621949	0.109226
 218	1.0850e-01	8.7254	0.527924	-0.001182	-11.822848	-4.005689	-0.094662
 219	1.0900e-01	8.7623	0.382290	-0.000364	-3.637799	-1.232520	-0.029127
 220	1.0950e-01	8.7960	1.146870	0.001910	19.098446	6.470729	0.152916
 221	1.1000e-01	8.8409	0.746376	-0.001000	-10.003948	-3.389429	-0.080099
 222	1.1050e-01	8.8666	1.438139	0.001728	17.279547	5.854469	0.138353
 223	1.1100e-01	8.8955	0.855602	-0.001455	-14.551197	-4.930079	-0.116507
 224	1.1150e-01	8.9372	1.365322	0.001273	12.732298	4.313819	0.101944
 225	1.1200e-01	8.9821	1.765816	0.001000	10.003948	3.389429	0.080099
 226	1.1250e-01	9.0495	1.037644	-0.001819	-18.188996	-6.162599	-0.145634
 227	1.1300e-01	9.0960	1.547365	0.001273	12.732298	4.313819	0.101944
 228	1.1350e-01	9.1217	1.838633	0.000728	7.275599	2.465040	0.058254
 229	1.1400e-01	9.1554	1.911450	0.000182	1.818900	0.616260	0.014563
 230	1.1450e-01	9.2179	1.510956	-0.001000	-10.003948	-3.389429	-0.080099
 231	1.1500e-01	9.2500	2.093493	0.001455	14.551197	4.930079	0.116507
 232	1.1550e-01	9.2596	1.875042	-0.000546	-5.456699	-1.848780	-0.043690
 233	1.1600e-01	9.3013	2.129902	0.000637	6.366149	2.156910	0.050972
 234	1.1650e-01	9.3350	2.166310	0.000091	0.909450	0.308130	0.007282
 235	1.1700e-01	9.3799	2.421170	0.000637	6.366149	2.156910	0.050972
 236	1.1750e-01	9.4329	2.748848	0.000819	8.185048	2.773169	0.065535
 237	1.1800e-01	9.4842	2.239127	-0.001273	-12.732298	-4.313819	-0.101944
 238	1.1850e-01	9.5147	2.858073	0.001546	15.460647	5.238209	0.123789
 239	1.1900e-01	9.5484	3.040116	0.000455	4.547249	1.540650	0.036409
 240	1.1950e-01	9.5821	2.566805	-0.001182	-11.822848	-4.005689	-0.094662
 241	1.2000e-01	9.6334	3.185750	0.001546	15.460647	5.238209	0.123789
 242	1.2050e-01	9.6864	3.076525	-0.000273	-2.728349	-0.924390	-0.021845
 243	1.2100e-01	9.7345	3.404202	0.000819	8.185048	2.773169	0.065535
 244	1.2150e-01	9.7377	3.258568	-0.000364	-3.637799	-1.232520	-0.029127
 245	1.2200e-01	9.7746	3.367793	0.000273	2.728349	0.924390	0.021845
 246	1.2250e-01	9.8291	3.331385	-0.000091	-0.909450	-0.308130	-0.007282
 247	1.2300e-01	9.8757	3.586245	0.000637	6.366149	2.156910	0.050972
 248	1.2350e-01	9.9190	3.768288	0.000455	4.547249	1.540650	0.036409
 249	1.2400e-01	9.9623	3.477019	-0.000728	-7.275599	-2.465040	-0.058254
 250	1.2450e-01	10.0024	3.913922	0.001091	10.913398	3.697559	0.087381
 251	1.2500e-01	10.0473	3.768288	-0.000364	-3.637799	-1.232520	-0.029127
 252	1.2550e-01	10.0842	4.059556	0.000728	7.275599	2.465040	0.058254
 253	1.2600e-01	10.1035	4.168782	0.000273	2.728349	0.924390	0.021845
 254	1.2650e-01	10.1500	4.241599	0.000182	1.818900	0.616260	0.014563
 255	1.2700e-01	10.2013	4.278008	0.000091	0.909450	0.308130	0.007282
 256	1.2750e-01	10.2318	4.205191	-0.000182	-1.818900	-0.616260	-0.014563
 257	1.2800e-01	10.2639	4.350825	0.000364	3.637799	1.232520	0.029127
 258	1.2850e-01	10.3200	4.860545	0.001273	12.732298	4.313819	0.101944
