»»»»»»»»»»»»»»»»»»»»»»»»»»»»»»»»»»»» Hysteresis ««««««««««««««««««««««««««««««««««««
»»»  Executed Version:	5.48.1
»»»  Vision Version:	5.48.4 (R)
»»»  Vision Compiled:	9/18/24
»»»  Driver Version:	5.47.0
»»»  Windows Version:	Windows 8 or 8.1
»»»  Processor Information:	x86 (AMD or Intel) - 32 Processors
»»»  Tester Name:	PMF21124-494 (100V)
»»»  Tester S/N:	PMF21124-494
»»»  Internal Amp Type:	100V RevK 270k
»»»  Internal Amp S/N:	iAB2-596/K     
»»»  Execution Count:	1
»»»»»»»»»»»»»»»»»»»»»»»»»»»»»»»»»»»»»»»»»»««««««««««««««««««««««««««««««««««««««««««

Stored:	10/10/2025 - 16:42:28
Configured:	10/10/25 10:37:25 AM
Executed:	10/10/25 04:42:05 PM

»»»»»»»»»»»»»»»»»»»»»»»»»»»»»»»»»»» Sample Info ««««««««««««««««««««««««««««««««««««
Sample Name:	Int. Ref. Ferroelectric
Lot Name:	N/A
Wafer Name:	N/A
Die Row/Column:	0/0
Capacitor Number:	0
Sample Area (cm2):	1.00e-04
Sample Thickness (microns):	3.00e-01

Amplifier:	Internal

»»»»»»»»»»»»»»»»»»»»»»»»»»»»»»»»»»» Tester Info «««««««««««««««««««««««««««««««««««
Tester Name:	PMF21124-494 (100V)
Tester Serial Number:	PMF21124-494
Return Signal Amp. Level:	0.02 [Index: 2]

»»»»»»»»»»»»»»»»»»»»»»»»»»»»»»»» Hysteresis Info ««««««««««««««««««««««««««««««««««
Task Name:	Hyst-170
Volts:	20.00
Field:	666.67 (kV/cm)
DCBias:	0.00
DCField:	0.00 (kV/cm)
Hysteresis Period (ms):	5.00e-01
Preset:	Enabled
Preset Delay (ms):	1.00e+03
Profile:	Standard Monopolar

»»»»»»»»»»»»»»»»»»»»»»»»»»»»»»»»»»»»»» Data «««««««««««««««««««««««««««««««««««««««
Points:	1001

Valid Data

Point	Time (ms)	Drive Voltage	Measured Polarization (uC/cm2)	Capacitance (uF)	Normalized Capacitance (uF/cm2)	Dielectric Constant	Instantaneous Current (mA)
   1	0.0000e+00	0.0337	-34.387901	0.000723	7.226875	2.448532	0.058254
   2	5.0000e-04	0.0690	-34.096632	0.000723	7.226875	2.448532	0.058254
   3	1.0000e-03	0.1219	-34.533535	-0.001084	-10.840313	-3.672797	-0.087381
   4	1.5000e-03	0.1781	-34.205858	0.000813	8.130234	2.754598	0.065535
   5	2.0000e-03	0.2118	-34.205858	0.000000	0.000000	0.000000	0.000000
   6	2.5000e-03	0.2535	-33.805364	0.000994	9.936953	3.366731	0.080099
   7	3.0000e-03	0.2679	-33.841772	-0.000090	-0.903359	-0.306066	-0.007282
   8	3.5000e-03	0.3241	-33.696138	0.000361	3.613438	1.224266	0.029127
   9	4.0000e-03	0.3690	-33.222826	0.001174	11.743672	3.978864	0.094662
  10	4.5000e-03	0.3898	-33.332052	-0.000271	-2.710078	-0.918199	-0.021845
  11	5.0000e-03	0.4347	-33.186418	0.000361	3.613438	1.224266	0.029127
  12	5.5000e-03	0.4684	-32.967966	0.000542	5.420156	1.836399	0.043690
  13	6.0000e-03	0.5005	-32.676698	0.000723	7.226875	2.448532	0.058254
  14	6.5000e-03	0.5663	-32.640289	0.000090	0.903359	0.306066	0.007282
  15	7.0000e-03	0.6240	-32.421838	0.000542	5.420156	1.836399	0.043690
  16	7.5000e-03	0.6577	-31.693666	0.001807	18.067188	6.121329	0.145634
  17	8.0000e-03	0.6802	-32.021343	-0.000813	-8.130234	-2.754598	-0.065535
  18	8.5000e-03	0.7075	-31.657258	0.000903	9.033594	3.060664	0.072817
  19	9.0000e-03	0.7732	-31.802892	-0.000361	-3.613438	-1.224266	-0.029127
  20	9.5000e-03	0.8117	-31.438806	0.000903	9.033594	3.060664	0.072817
  21	1.0000e-02	0.8486	-31.438806	0.000000	0.000000	0.000000	0.000000
  22	1.0500e-02	0.8839	-31.001903	0.001084	10.840313	3.672797	0.087381
  23	1.1000e-02	0.9272	-30.892678	0.000271	2.710078	0.918199	0.021845
  24	1.1500e-02	0.9529	-30.747043	0.000361	3.613438	1.224266	0.029127
  25	1.2000e-02	1.0267	-30.783452	-0.000090	-0.903359	-0.306066	-0.007282
  26	1.2500e-02	1.0139	-30.346549	-0.001084	-10.840313	-3.672797	0.087381
  27	1.3000e-02	1.0893	-30.565000	-0.000542	-5.420156	-1.836399	-0.043690
  28	1.3500e-02	1.1342	-30.200915	0.000903	9.033594	3.060664	0.072817
  29	1.4000e-02	1.1679	-30.018872	0.000452	4.516797	1.530332	0.036409
  30	1.4500e-02	1.2032	-29.800420	0.000542	5.420156	1.836399	0.043690
  31	1.5000e-02	1.2176	-29.764012	0.000090	0.903359	0.306066	0.007282
  32	1.5500e-02	1.2962	-29.363517	0.000994	9.936953	3.366731	0.080099
  33	1.6000e-02	1.3347	-29.399926	-0.000090	-0.903359	-0.306066	-0.007282
  34	1.6500e-02	1.3668	-29.035840	0.000903	9.033594	3.060664	0.072817
  35	1.7000e-02	1.3989	-28.926614	0.000271	2.710078	0.918199	0.021845
  36	1.7500e-02	1.4534	-28.853797	0.000181	1.806719	0.612133	0.014563
  37	1.8000e-02	1.4663	-28.526120	0.000813	8.130234	2.754598	0.065535
  38	1.8500e-02	1.5320	-28.416894	0.000271	2.710078	0.918199	0.021845
  39	1.9000e-02	1.5721	-28.380486	0.000090	0.903359	0.306066	0.007282
  40	1.9500e-02	1.6058	-27.870766	0.001265	12.647031	4.284930	0.101944
  41	2.0000e-02	1.6267	-27.579497	0.000723	7.226875	2.448532	0.058254
  42	2.0500e-02	1.6700	-28.016400	-0.001084	-10.840313	-3.672797	-0.087381
  43	2.1000e-02	1.7262	-27.615906	0.000994	9.936953	3.366731	0.080099
  44	2.1500e-02	1.7647	-27.470271	0.000361	3.613438	1.224266	0.029127
  45	2.2000e-02	1.8096	-27.215411	0.000632	6.323516	2.142465	0.050972
  46	2.2500e-02	1.8561	-26.996960	0.000542	5.420156	1.836399	0.043690
  47	2.3000e-02	1.8914	-26.742100	0.000632	6.323516	2.142465	0.050972
  48	2.3500e-02	1.9363	-26.705691	0.000090	0.903359	0.306066	0.007282
  49	2.4000e-02	1.9636	-26.487240	0.000542	5.420156	1.836399	0.043690
  50	2.4500e-02	1.9796	-26.232380	0.000632	6.323516	2.142465	0.050972
  51	2.5000e-02	2.0358	-26.195971	0.000090	0.903359	0.306066	0.007282
  52	2.5500e-02	2.0695	-26.050337	0.000361	3.613438	1.224266	0.029127
  53	2.6000e-02	2.1160	-25.759068	0.000723	7.226875	2.448532	0.058254
  54	2.6500e-02	2.1609	-25.467800	0.000723	7.226875	2.448532	0.058254
  55	2.7000e-02	2.2074	-25.431391	0.000090	0.903359	0.306066	0.007282
  56	2.7500e-02	2.2283	-25.140122	0.000723	7.226875	2.448532	0.058254
  57	2.8000e-02	2.2876	-25.322165	-0.000452	-4.516797	-1.530332	-0.036409
  58	2.8500e-02	2.3085	-25.322165	0.000000	0.000000	0.000000	0.000000
  59	2.9000e-02	2.3678	-24.921671	0.000994	9.936953	3.366731	0.080099
  60	2.9500e-02	2.3855	-24.666811	0.000632	6.323516	2.142465	0.050972
  61	3.0000e-02	2.4449	-24.448359	0.000542	5.420156	1.836399	0.043690
  62	3.0500e-02	2.4994	-24.411951	0.000090	0.903359	0.306066	0.007282
  63	3.1000e-02	2.5219	-24.011457	0.000994	9.936953	3.366731	0.080099
  64	3.1500e-02	2.5636	-24.011457	0.000000	0.000000	0.000000	0.000000
  65	3.2000e-02	2.6213	-24.011457	0.000000	0.000000	0.000000	0.000000
  66	3.2500e-02	2.6630	-23.720188	0.000723	7.226875	2.448532	0.058254
  67	3.3000e-02	2.6935	-23.720188	0.000000	0.000000	0.000000	0.000000
  68	3.3500e-02	2.7095	-23.101242	0.001536	15.357109	5.203130	0.123789
  69	3.4000e-02	2.7368	-23.210468	-0.000271	-2.710078	-0.918199	-0.021845
  70	3.4500e-02	2.8026	-23.101242	0.000271	2.710078	0.918199	0.021845
  71	3.5000e-02	2.8218	-22.846382	0.000632	6.323516	2.142465	0.050972
  72	3.5500e-02	2.8892	-22.773565	0.000181	1.806719	0.612133	0.014563
  73	3.6000e-02	2.9229	-22.336662	0.001084	10.840313	3.672797	0.087381
  74	3.6500e-02	2.9710	-22.409479	-0.000181	-1.806719	-0.612133	-0.014563
  75	3.7000e-02	3.0336	-22.300253	0.000271	2.710078	0.918199	0.021845
  76	3.7500e-02	3.0513	-21.826942	0.001174	11.743672	3.978864	0.094662
  77	3.8000e-02	3.0833	-21.754125	0.000181	1.806719	0.612133	0.014563
  78	3.8500e-02	3.1106	-21.572082	0.000452	4.516797	1.530332	0.036409
  79	3.9000e-02	3.1732	-21.717716	-0.000361	-3.613438	-1.224266	-0.029127
  80	3.9500e-02	3.2133	-21.207996	0.001265	12.647031	4.284930	0.101944
  81	4.0000e-02	3.2213	-21.462856	-0.000632	-6.323516	-2.142465	-0.050972
  82	4.0500e-02	3.2710	-20.698276	0.001897	18.970547	6.427395	0.152916
  83	4.1000e-02	3.3192	-21.025953	-0.000813	-8.130234	-2.754598	-0.065535
  84	4.1500e-02	3.3801	-20.370599	0.001626	16.260469	5.509196	0.131071
  85	4.2000e-02	3.4298	-20.224965	0.000361	3.613438	1.224266	0.029127
  86	4.2500e-02	3.4571	-20.443416	-0.000542	-5.420156	-1.836399	-0.043690
  87	4.3000e-02	3.4651	-20.261373	0.000452	4.516797	1.530332	0.036409
  88	4.3500e-02	3.5085	-20.224965	0.000090	0.903359	0.306066	0.007282
  89	4.4000e-02	3.5662	-20.079330	0.000361	3.613438	1.224266	0.029127
  90	4.4500e-02	3.6175	-19.642427	0.001084	10.840313	3.672797	0.087381
  91	4.5000e-02	3.6432	-19.241933	0.000994	9.936953	3.366731	0.080099
  92	4.5500e-02	3.6801	-19.423976	-0.000452	-4.516797	-1.530332	-0.036409
  93	4.6000e-02	3.7202	-19.278342	0.000361	3.613438	1.224266	0.029127
  94	4.6500e-02	3.7491	-18.950664	0.000813	8.130234	2.754598	0.065535
  95	4.7000e-02	3.8052	-18.622987	0.000813	8.130234	2.754598	0.065535
  96	4.7500e-02	3.8437	-18.513761	0.000271	2.710078	0.918199	0.021845
  97	4.8000e-02	3.8871	-18.695804	-0.000452	-4.516797	-1.530332	-0.036409
  98	4.8500e-02	3.9015	-18.331719	0.000903	9.033594	3.060664	0.072817
  99	4.9000e-02	3.9705	-18.076858	0.000632	6.323516	2.142465	0.050972
 100	4.9500e-02	4.0106	-18.368127	-0.000723	-7.226875	-2.448532	-0.058254
 101	5.0000e-02	4.0298	-18.004041	0.000903	9.033594	3.060664	0.072817
 102	5.0500e-02	4.0587	-17.712773	0.000723	7.226875	2.448532	0.058254
 103	5.1000e-02	4.1197	-17.494321	0.000542	5.420156	1.836399	0.043690
 104	5.1500e-02	4.1822	-17.275870	0.000542	5.420156	1.836399	0.043690
 105	5.2000e-02	4.2031	-17.348687	-0.000181	-1.806719	-0.612133	-0.014563
 106	5.2500e-02	4.2480	-17.130235	0.000542	5.420156	1.836399	0.043690
 107	5.3000e-02	4.2961	-17.021010	0.000271	2.710078	0.918199	0.021845
 108	5.3500e-02	4.3346	-16.584107	0.001084	10.840313	3.672797	0.087381
 109	5.4000e-02	4.3796	-16.656924	-0.000181	-1.806719	-0.612133	-0.014563
 110	5.4500e-02	4.3844	-16.438472	0.000542	5.420156	1.836399	0.043690
 111	5.5000e-02	4.4309	-15.965161	0.001174	11.743672	3.978864	0.094662
 112	5.5500e-02	4.4983	-16.220021	-0.000632	-6.323516	-2.142465	-0.050972
 113	5.6000e-02	4.5352	-15.783118	0.001084	10.840313	3.672797	0.087381
 114	5.6500e-02	4.5624	-15.637484	0.000361	3.613438	1.224266	0.029127
 115	5.7000e-02	4.5961	-15.419032	0.000542	5.420156	1.836399	0.043690
 116	5.7500e-02	4.6571	-15.273398	0.000361	3.613438	1.224266	0.029127
 117	5.8000e-02	4.6812	-15.455441	-0.000452	-4.516797	-1.530332	-0.036409
 118	5.8500e-02	4.7052	-14.800087	0.001626	16.260469	5.509196	0.131071
 119	5.9000e-02	4.7421	-14.945721	-0.000361	-3.613438	-1.224266	-0.029127
 120	5.9500e-02	4.8287	-14.618044	0.000813	8.130234	2.754598	0.065535
 121	6.0000e-02	4.8368	-14.800087	-0.000452	-4.516797	-1.530332	-0.036409
 122	6.0500e-02	4.8592	-14.872904	-0.000181	-1.806719	-0.612133	-0.014563
 123	6.1000e-02	4.9186	-14.399592	0.001174	11.743672	3.978864	0.094662
 124	6.1500e-02	4.9571	-14.290366	0.000271	2.710078	0.918199	0.021845
 125	6.2000e-02	5.0164	-13.853464	0.001084	10.840313	3.672797	0.087381
 126	6.2500e-02	5.0293	-14.144732	-0.000723	-7.226875	-2.448532	-0.058254
 127	6.3000e-02	5.0774	-13.889872	0.000632	6.323516	2.142465	0.050972
 128	6.3500e-02	5.1079	-13.343743	0.001355	13.550391	4.590997	0.109226
 129	6.4000e-02	5.1881	-13.088883	0.000632	6.323516	2.142465	0.050972
 130	6.4500e-02	5.2330	-13.088883	0.000000	0.000000	0.000000	0.000000
 131	6.5000e-02	5.2234	-12.979658	-0.000271	-2.710078	-0.918199	0.021845
 132	6.5500e-02	5.2747	-12.834023	0.000361	3.613438	1.224266	0.029127
 133	6.6000e-02	5.3148	-12.579163	0.000632	6.323516	2.142465	0.050972
 134	6.6500e-02	5.3485	-12.724798	-0.000361	-3.613438	-1.224266	-0.029127
 135	6.7000e-02	5.3918	-12.506346	0.000542	5.420156	1.836399	0.043690
 136	6.7500e-02	5.4576	-12.215078	0.000723	7.226875	2.448532	0.058254
 137	6.8000e-02	5.5057	-12.215078	0.000000	0.000000	0.000000	0.000000
 138	6.8500e-02	5.5298	-11.850992	0.000903	9.033594	3.060664	0.072817
 139	6.9000e-02	5.5635	-11.523315	0.000813	8.130234	2.754598	0.065535
 140	6.9500e-02	5.6052	-11.632540	-0.000271	-2.710078	-0.918199	-0.021845
 141	7.0000e-02	5.6485	-11.414089	0.000542	5.420156	1.836399	0.043690
 142	7.0500e-02	5.6902	-11.341272	0.000181	1.806719	0.612133	0.014563
 143	7.1000e-02	5.7287	-11.050003	0.000723	7.226875	2.448532	0.058254
 144	7.1500e-02	5.7720	-11.122820	-0.000181	-1.806719	-0.612133	-0.014563
 145	7.2000e-02	5.8025	-10.649509	0.001174	11.743672	3.978864	0.094662
 146	7.2500e-02	5.8490	-10.431057	0.000542	5.420156	1.836399	0.043690
 147	7.3000e-02	5.8699	-10.685917	-0.000632	-6.323516	-2.142465	-0.050972
 148	7.3500e-02	5.9244	-10.285423	0.000994	9.936953	3.366731	0.080099
 149	7.4000e-02	5.9742	-10.249014	0.000090	0.903359	0.306066	0.007282
 150	7.4500e-02	6.0030	-9.884929	0.000903	9.033594	3.060664	0.072817
 151	7.5000e-02	6.0367	-10.249014	-0.000903	-9.033594	-3.060664	-0.072817
 152	7.5500e-02	6.0849	-9.666477	0.001445	14.453750	4.897063	0.116507
 153	7.6000e-02	6.1346	-9.229574	0.001084	10.840313	3.672797	0.087381
 154	7.6500e-02	6.1554	-9.484434	-0.000632	-6.323516	-2.142465	-0.050972
 155	7.7000e-02	6.1827	-9.265983	0.000542	5.420156	1.836399	0.043690
 156	7.7500e-02	6.2132	-9.047531	0.000542	5.420156	1.836399	0.043690
 157	7.8000e-02	6.2886	-8.647037	0.000994	9.936953	3.366731	0.080099
 158	7.8500e-02	6.3223	-8.647037	0.000000	0.000000	0.000000	0.000000
 159	7.9000e-02	6.3640	-8.647037	0.000000	0.000000	0.000000	0.000000
 160	7.9500e-02	6.4073	-8.719854	-0.000181	-1.806719	-0.612133	-0.014563
 161	8.0000e-02	6.4378	-7.991683	0.001807	18.067188	6.121329	0.145634
 162	8.0500e-02	6.4715	-8.464994	-0.001174	-11.743672	-3.978864	-0.094662
 163	8.1000e-02	6.5100	-7.991683	0.001174	11.743672	3.978864	0.094662
 164	8.1500e-02	6.5741	-7.736823	0.000632	6.323516	2.142465	0.050972
 165	8.2000e-02	6.5966	-7.554780	0.000452	4.516797	1.530332	0.036409
 166	8.2500e-02	6.6511	-7.409145	0.000361	3.613438	1.224266	0.029127
 167	8.3000e-02	6.6688	-7.481963	-0.000181	-1.806719	-0.612133	-0.014563
 168	8.3500e-02	6.7458	-6.899425	0.001445	14.453750	4.897063	0.116507
 169	8.4000e-02	6.7554	-7.190694	-0.000723	-7.226875	-2.448532	-0.058254
 170	8.4500e-02	6.7875	-6.644565	0.001355	13.550391	4.590997	0.109226
 171	8.5000e-02	6.8228	-6.790200	-0.000361	-3.613438	-1.224266	-0.029127
 172	8.5500e-02	6.8806	-6.680974	0.000271	2.710078	0.918199	0.021845
 173	8.6000e-02	6.9046	-6.426114	0.000632	6.323516	2.142465	0.050972
 174	8.6500e-02	6.9576	-6.025619	0.000994	9.936953	3.366731	0.080099
 175	8.7000e-02	6.9784	-6.207662	-0.000452	-4.516797	-1.530332	-0.036409
 176	8.7500e-02	7.0297	-5.879985	0.000813	8.130234	2.754598	0.065535
 177	8.8000e-02	7.0795	-6.062028	-0.000452	-4.516797	-1.530332	-0.036409
 178	8.8500e-02	7.1308	-5.697942	0.000903	9.033594	3.060664	0.072817
 179	8.9000e-02	7.1645	-5.188222	0.001265	12.647031	4.284930	0.101944
 180	8.9500e-02	7.1854	-5.734351	-0.001355	-13.550391	-4.590997	-0.109226
 181	9.0000e-02	7.2351	-5.443082	0.000723	7.226875	2.448532	0.058254
 182	9.0500e-02	7.2495	-4.896954	0.001355	13.550391	4.590997	0.109226
 183	9.1000e-02	7.3057	-5.042588	-0.000361	-3.613438	-1.224266	-0.029127
 184	9.1500e-02	7.3522	-4.896954	0.000361	3.613438	1.224266	0.029127
 185	9.2000e-02	7.3971	-4.714911	0.000452	4.516797	1.530332	0.036409
 186	9.2500e-02	7.4292	-4.569276	0.000361	3.613438	1.224266	0.029127
 187	9.3000e-02	7.4757	-4.714911	-0.000361	-3.613438	-1.224266	-0.029127
 188	9.3500e-02	7.5206	-3.986739	0.001807	18.067188	6.121329	0.145634
 189	9.4000e-02	7.5624	-3.913922	0.000181	1.806719	0.612133	0.014563
 190	9.4500e-02	7.5993	-3.549836	0.000903	9.033594	3.060664	0.072817
 191	9.5000e-02	7.6265	-3.513428	0.000090	0.903359	0.306066	0.007282
 192	9.5500e-02	7.6522	-3.549836	-0.000090	-0.903359	-0.306066	-0.007282
 193	9.6000e-02	7.6987	-3.112933	0.001084	10.840313	3.672797	0.087381
 194	9.6500e-02	7.7565	-3.367793	-0.000632	-6.323516	-2.142465	-0.050972
 195	9.7000e-02	7.7853	-3.112933	0.000632	6.323516	2.142465	0.050972
 196	9.7500e-02	7.8463	-2.457579	0.001626	16.260469	5.509196	0.131071
 197	9.8000e-02	7.8688	-2.712439	-0.000632	-6.323516	-2.142465	-0.050972
 198	9.8500e-02	7.9025	-2.821665	-0.000271	-2.710078	-0.918199	-0.021845
 199	9.9000e-02	7.9650	-2.493988	0.000813	8.130234	2.754598	0.065535
 200	9.9500e-02	7.9923	-2.239127	0.000632	6.323516	2.142465	0.050972
 201	1.0000e-01	8.0436	-2.311945	-0.000181	-1.806719	-0.612133	-0.014563
 202	1.0050e-01	8.1094	-2.384762	-0.000181	-1.806719	-0.612133	-0.014563
 203	1.0100e-01	8.1190	-2.311945	0.000181	1.806719	0.612133	0.014563
 204	1.0150e-01	8.1607	-1.547365	0.001897	18.970547	6.427395	0.152916
 205	1.0200e-01	8.2169	-1.656590	-0.000271	-2.710078	-0.918199	-0.021845
 206	1.0250e-01	8.2361	-1.183279	0.001174	11.743672	3.978864	0.094662
 207	1.0300e-01	8.2778	-1.474547	-0.000723	-7.226875	-2.448532	-0.058254
 208	1.0350e-01	8.3228	-1.110462	0.000903	9.033594	3.060664	0.072817
 209	1.0400e-01	8.3581	-0.673559	0.001084	10.840313	3.672797	0.087381
 210	1.0450e-01	8.4062	-0.855602	-0.000452	-4.516797	-1.530332	-0.036409
 211	1.0500e-01	8.4190	-0.527924	0.000813	8.130234	2.754598	0.065535
 212	1.0550e-01	8.4816	-0.564333	-0.000090	-0.903359	-0.306066	-0.007282
 213	1.0600e-01	8.5040	-0.709967	-0.000361	-3.613438	-1.224266	-0.029127
 214	1.0650e-01	8.5538	-0.273064	0.001084	10.840313	3.672797	0.087381
 215	1.0700e-01	8.5907	0.273064	0.001355	13.550391	4.590997	0.109226
 216	1.0750e-01	8.6580	-0.018204	-0.000723	-7.226875	-2.448532	-0.058254
 217	1.0800e-01	8.6677	0.163839	0.000452	4.516797	1.530332	0.036409
 218	1.0850e-01	8.7350	0.418699	0.000632	6.323516	2.142465	0.050972
 219	1.0900e-01	8.7768	0.491516	0.000181	1.806719	0.612133	0.014563
 220	1.0950e-01	8.7896	0.527924	0.000090	0.903359	0.306066	0.007282
 221	1.1000e-01	8.8457	1.292504	0.001897	18.970547	6.427395	0.152916
 222	1.1050e-01	8.8923	1.001236	-0.000723	-7.226875	-2.448532	-0.058254
 223	1.1100e-01	8.9115	0.782784	-0.000542	-5.420156	-1.836399	-0.043690
 224	1.1150e-01	8.9596	1.110462	0.000813	8.130234	2.754598	0.065535
 225	1.1200e-01	9.0078	1.547365	0.001084	10.840313	3.672797	0.087381
 226	1.1250e-01	8.9949	1.365322	0.000452	4.516797	1.530332	-0.036409
 227	1.1300e-01	9.0607	1.802225	0.001084	10.840313	3.672797	0.087381
 228	1.1350e-01	9.1169	1.875042	0.000181	1.806719	0.612133	0.014563
 229	1.1400e-01	9.1714	1.875042	0.000000	0.000000	0.000000	0.000000
 230	1.1450e-01	9.2131	2.020676	0.000361	3.613438	1.224266	0.029127
 231	1.1500e-01	9.2292	2.275536	0.000632	6.323516	2.142465	0.050972
 232	1.1550e-01	9.2981	2.384762	0.000271	2.710078	0.918199	0.021845
 233	1.1600e-01	9.3206	2.166310	-0.000542	-5.420156	-1.836399	-0.043690
 234	1.1650e-01	9.3655	2.457579	0.000723	7.226875	2.448532	0.058254
 235	1.1700e-01	9.3912	2.930890	0.001174	11.743672	3.978864	0.094662
 236	1.1750e-01	9.4425	2.967299	0.000090	0.903359	0.306066	0.007282
 237	1.1800e-01	9.4634	2.967299	0.000000	0.000000	0.000000	0.000000
 238	1.1850e-01	9.5291	3.185750	0.000542	5.420156	1.836399	0.043690
 239	1.1900e-01	9.5628	3.149342	-0.000090	-0.903359	-0.306066	-0.007282
 240	1.1950e-01	9.6013	3.586245	0.001084	10.840313	3.672797	0.087381
 241	1.2000e-01	9.6270	3.549836	-0.000090	-0.903359	-0.306066	-0.007282
 242	1.2050e-01	9.6655	3.841105	0.000723	7.226875	2.448532	0.058254
 243	1.2100e-01	9.7393	4.132373	0.000723	7.226875	2.448532	0.058254
 244	1.2150e-01	9.7409	3.841105	-0.000723	-7.226875	-2.448532	-0.058254
 245	1.2200e-01	9.8179	4.350825	0.001265	12.647031	4.284930	0.101944
 246	1.2250e-01	9.8388	4.642094	0.000723	7.226875	2.448532	0.058254
 247	1.2300e-01	9.8853	4.095965	-0.001355	-13.550391	-4.590997	-0.109226
 248	1.2350e-01	9.9382	4.787728	0.001716	17.163828	5.815262	0.138353
 249	1.2400e-01	9.9671	4.532868	-0.000632	-6.323516	-2.142465	-0.050972
 250	1.2450e-01	10.0072	4.896954	0.000903	9.033594	3.060664	0.072817
 251	1.2500e-01	10.0409	4.896954	0.000000	0.000000	0.000000	0.000000
 252	1.2550e-01	10.0682	5.151814	0.000632	6.323516	2.142465	0.050972
 253	1.2600e-01	10.1243	5.261039	0.000271	2.710078	0.918199	0.021845
 254	1.2650e-01	10.1580	5.406674	0.000361	3.613438	1.224266	0.029127
 255	1.2700e-01	10.2061	5.625125	0.000542	5.420156	1.836399	0.043690
 256	1.2750e-01	10.2607	5.843577	0.000542	5.420156	1.836399	0.043690
 257	1.2800e-01	10.2671	5.879985	0.000090	0.903359	0.306066	0.007282
 258	1.2850e-01	10.2912	6.025619	0.000361	3.613438	1.224266	0.029127
 259	1.2900e-01	10.3601	5.734351	-0.000723	-7.226875	-2.448532	-0.058254
