»»»»»»»»»»»»»»»»»»»»»»»»»»»»»»»»»»»» Hysteresis ««««««««««««««««««««««««««««««««««««
»»»  Executed Version:	5.48.1
»»»  Vision Version:	5.48.4 (R)
»»»  Vision Compiled:	9/18/24
»»»  Driver Version:	5.47.0
»»»  Windows Version:	Windows 8 or 8.1
»»»  Processor Information:	x86 (AMD or Intel) - 32 Processors
»»»  Tester Name:	PMF21124-494 (100V)
»»»  Tester S/N:	PMF21124-494
»»»  Internal Amp Type:	100V RevK 270k
»»»  Internal Amp S/N:	iAB2-596/K     
»»»  Execution Count:	1
»»»»»»»»»»»»»»»»»»»»»»»»»»»»»»»»»»»»»»»»»»««««««««««««««««««««««««««««««««««««««««««

Stored:	10/10/2025 - 16:55:21
Configured:	10/10/25 10:37:25 AM
Executed:	10/10/25 04:54:40 PM

»»»»»»»»»»»»»»»»»»»»»»»»»»»»»»»»»»» Sample Info ««««««««««««««««««««««««««««««««««««
Sample Name:	Int. Ref. Ferroelectric
Lot Name:	N/A
Wafer Name:	N/A
Die Row/Column:	0/0
Capacitor Number:	0
Sample Area (cm2):	1.00e-04
Sample Thickness (microns):	3.00e-01

Amplifier:	Internal

»»»»»»»»»»»»»»»»»»»»»»»»»»»»»»»»»»» Tester Info «««««««««««««««««««««««««««««««««««
Tester Name:	PMF21124-494 (100V)
Tester Serial Number:	PMF21124-494
Return Signal Amp. Level:	1.9 [Index: 2]

»»»»»»»»»»»»»»»»»»»»»»»»»»»»»»»» Hysteresis Info ««««««««««««««««««««««««««««««««««
Task Name:	Hyst-170
Volts:	20.00
Field:	666.67 (kV/cm)
DCBias:	0.00
DCField:	0.00 (kV/cm)
Hysteresis Period (ms):	1.00e+02
Preset:	Enabled
Preset Delay (ms):	1.00e+03
Profile:	Standard Monopolar

»»»»»»»»»»»»»»»»»»»»»»»»»»»»»»»»»»»»»» Data «««««««««««««««««««««««««««««««««««««««
Points:	2001

Valid Data

Point	Time (ms)	Drive Voltage	Measured Polarization (uC/cm2)	Capacitance (uF)	Normalized Capacitance (uF/cm2)	Dielectric Constant	Instantaneous Current (mA)
   1	0.0000e+00	0.0385	-10.715146	-0.000007	-0.072908	-0.024702	0.000003
   2	5.0000e-02	0.0289	-10.713516	-0.000007	-0.072908	-0.024702	0.000003
   3	1.0000e-01	0.0481	-10.687447	0.000117	1.166535	0.395233	0.000052
   4	1.5000e-01	0.0882	-10.660155	0.000122	1.221216	0.413759	0.000055
   5	2.0000e-01	0.0818	-10.638565	-0.000097	-0.966037	-0.327302	0.000043
   6	2.5000e-01	0.1412	-10.611273	0.000122	1.221216	0.413759	0.000055
   7	3.0000e-01	0.1620	-10.585204	0.000117	1.166535	0.395233	0.000052
   8	3.5000e-01	0.1540	-10.559134	-0.000117	-1.166535	-0.395233	0.000052
   9	4.0000e-01	0.1925	-10.533064	0.000117	1.166535	0.395233	0.000052
  10	4.5000e-01	0.1797	-10.506586	-0.000118	-1.184762	-0.401408	0.000053
  11	5.0000e-01	0.2102	-10.483775	0.000102	1.020718	0.345829	0.000046
  12	5.5000e-01	0.2422	-10.455669	0.000126	1.257670	0.426110	0.000056
  13	6.0000e-01	0.2519	-10.429599	0.000117	1.166535	0.395233	0.000052
  14	6.5000e-01	0.2823	-10.403529	0.000117	1.166535	0.395233	0.000052
  15	7.0000e-01	0.2888	-10.379496	0.000108	1.075399	0.364355	0.000048
  16	7.5000e-01	0.3321	-10.355462	0.000108	1.075399	0.364355	0.000048
  17	8.0000e-01	0.3561	-10.330207	0.000113	1.130081	0.382882	0.000051
  18	8.5000e-01	0.3561	-10.299656	-0.000137	-1.367033	-0.463163	0.000061
  19	9.0000e-01	0.3738	-10.278067	0.000097	0.966037	0.327302	0.000043
  20	9.5000e-01	0.4043	-10.255663	0.000100	1.002491	0.339653	0.000045
  21	1.0000e+00	0.4123	-10.227557	0.000126	1.257670	0.426110	0.000056
  22	1.0500e+00	0.4412	-10.203931	0.000106	1.057172	0.358180	0.000047
  23	1.1000e+00	0.4540	-10.177454	0.000118	1.184762	0.401408	0.000053
  24	1.1500e+00	0.4877	-10.154235	0.000104	1.038945	0.352004	0.000046
  25	1.2000e+00	0.5134	-10.131017	0.000104	1.038945	0.352004	0.000046
  26	1.2500e+00	0.5278	-10.104539	0.000118	1.184762	0.401408	0.000053
  27	1.3000e+00	0.5326	-10.083358	0.000095	0.947810	0.321127	0.000042
  28	1.3500e+00	0.5743	-10.052807	0.000137	1.367033	0.463163	0.000061
  29	1.4000e+00	0.5599	-10.031218	-0.000097	-0.966037	-0.327302	0.000043
  30	1.4500e+00	0.5791	-10.007184	0.000108	1.075399	0.364355	0.000048
  31	1.5000e+00	0.6160	-9.983559	0.000106	1.057172	0.358180	0.000047
  32	1.5500e+00	0.6337	-9.958711	0.000111	1.111854	0.376706	0.000050
  33	1.6000e+00	0.6593	-9.934677	0.000108	1.075399	0.364355	0.000048
  34	1.6500e+00	0.6866	-9.904534	0.000135	1.348806	0.456988	0.000060
  35	1.7000e+00	0.6994	-9.881316	0.000104	1.038945	0.352004	0.000046
  36	1.7500e+00	0.7235	-9.850358	0.000139	1.385260	0.469339	0.000062
  37	1.8000e+00	0.7428	-9.828361	0.000098	0.984264	0.333478	0.000044
  38	1.8500e+00	0.7508	-9.805550	0.000102	1.020718	0.345829	0.000046
  39	1.9000e+00	0.7684	-9.776629	0.000129	1.294125	0.438461	0.000058
  40	1.9500e+00	0.8246	-9.754225	0.000100	1.002491	0.339653	0.000045
  41	2.0000e+00	0.8198	-9.728562	-0.000115	-1.148308	-0.389057	0.000051
  42	2.0500e+00	0.8535	-9.702085	0.000118	1.184762	0.401408	0.000053
  43	2.1000e+00	0.8599	-9.673571	0.000128	1.275898	0.432286	0.000057
  44	2.1500e+00	0.8807	-9.649945	0.000106	1.057172	0.358180	0.000047
  45	2.2000e+00	0.8871	-9.623468	0.000118	1.184762	0.401408	0.000053
  46	2.2500e+00	0.9112	-9.605952	0.000078	0.783766	0.265547	0.000035
  47	2.3000e+00	0.9417	-9.579882	0.000117	1.166535	0.395233	0.000052
  48	2.3500e+00	0.9561	-9.552998	0.000120	1.202989	0.407584	0.000054
  49	2.4000e+00	0.9930	-9.523669	0.000131	1.312352	0.444637	0.000059
  50	2.4500e+00	0.9978	-9.498414	0.000113	1.130081	0.382882	0.000051
  51	2.5000e+00	1.0075	-9.476417	0.000098	0.984264	0.333478	0.000044
  52	2.5500e+00	1.0572	-9.450755	0.000115	1.148308	0.389057	0.000051
  53	2.6000e+00	1.0668	-9.424277	0.000118	1.184762	0.401408	0.000053
  54	2.6500e+00	1.0877	-9.399429	0.000111	1.111854	0.376706	0.000050
  55	2.7000e+00	1.1101	-9.373767	0.000115	1.148308	0.389057	0.000051
  56	2.7500e+00	1.1133	-9.347290	0.000118	1.184762	0.401408	0.000053
  57	2.8000e+00	1.1278	-9.322442	0.000111	1.111854	0.376706	0.000050
  58	2.8500e+00	1.1342	-9.294335	0.000126	1.257670	0.426110	0.000056
  59	2.9000e+00	1.1807	-9.267858	0.000118	1.184762	0.401408	0.000053
  60	2.9500e+00	1.2080	-9.245047	0.000102	1.020718	0.345829	0.000046
  61	3.0000e+00	1.2369	-9.214089	0.000139	1.385260	0.469339	0.000062
  62	3.0500e+00	1.2385	-9.189241	0.000111	1.111854	0.376706	0.000050
  63	3.1000e+00	1.2561	-9.168059	0.000095	0.947810	0.321127	0.000042
  64	3.1500e+00	1.2738	-9.137101	0.000139	1.385260	0.469339	0.000062
  65	3.2000e+00	1.2930	-9.111438	0.000115	1.148308	0.389057	0.000051
  66	3.2500e+00	1.3299	-9.088627	0.000102	1.020718	0.345829	0.000046
  67	3.3000e+00	1.3331	-9.059706	0.000129	1.294125	0.438461	0.000058
  68	3.3500e+00	1.3732	-9.031192	0.000128	1.275898	0.432286	0.000057
  69	3.4000e+00	1.3845	-9.008381	0.000102	1.020718	0.345829	0.000046
  70	3.4500e+00	1.4197	-8.981903	0.000118	1.184762	0.401408	0.000053
  71	3.5000e+00	1.4149	-8.955833	-0.000117	-1.166535	-0.395233	0.000052
  72	3.5500e+00	1.4374	-8.934652	0.000095	0.947810	0.321127	0.000042
  73	3.6000e+00	1.4679	-8.902879	0.000142	1.421714	0.481690	0.000064
  74	3.6500e+00	1.4775	-8.875994	0.000120	1.202989	0.407584	0.000054
  75	3.7000e+00	1.5048	-8.849517	0.000118	1.184762	0.401408	0.000053
  76	3.7500e+00	1.5144	-8.821410	0.000126	1.257670	0.426110	0.000056
  77	3.8000e+00	1.5288	-8.796562	0.000111	1.111854	0.376706	0.000050
  78	3.8500e+00	1.5754	-8.772937	0.000106	1.057172	0.358180	0.000047
  79	3.9000e+00	1.5834	-8.744830	0.000126	1.257670	0.426110	0.000056
  80	3.9500e+00	1.5978	-8.720389	0.000109	1.093627	0.370531	0.000049
  81	4.0000e+00	1.6235	-8.693912	0.000118	1.184762	0.401408	0.000053
  82	4.0500e+00	1.6443	-8.666213	0.000124	1.239443	0.419935	0.000055
  83	4.1000e+00	1.6716	-8.640143	0.000117	1.166535	0.395233	0.000052
  84	4.1500e+00	1.6716	-8.613666	-0.000118	-1.184762	-0.401408	0.000053
  85	4.2000e+00	1.7037	-8.586781	0.000120	1.202989	0.407584	0.000054
  86	4.2500e+00	1.7085	-8.559896	0.000120	1.202989	0.407584	0.000054
  87	4.3000e+00	1.7454	-8.534234	0.000115	1.148308	0.389057	0.000051
  88	4.3500e+00	1.7647	-8.504905	0.000131	1.312352	0.444637	0.000059
  89	4.4000e+00	1.7759	-8.483723	0.000095	0.947810	0.321127	0.000042
  90	4.4500e+00	1.8016	-8.459690	0.000108	1.075399	0.364355	0.000048
  91	4.5000e+00	1.8032	-8.427917	0.000142	1.421714	0.481690	0.000064
  92	4.5500e+00	1.8352	-8.404292	0.000106	1.057172	0.358180	0.000047
  93	4.6000e+00	1.8401	-8.374148	0.000135	1.348806	0.456988	0.000060
  94	4.6500e+00	1.8657	-8.351337	0.000102	1.020718	0.345829	0.000046
  95	4.7000e+00	1.8930	-8.324045	0.000122	1.221216	0.413759	0.000055
  96	4.7500e+00	1.9283	-8.299604	0.000109	1.093627	0.370531	0.000049
  97	4.8000e+00	1.9347	-8.269868	0.000133	1.330579	0.450812	0.000059
  98	4.8500e+00	1.9828	-8.244613	0.000113	1.130081	0.382882	0.000051
  99	4.9000e+00	1.9844	-8.220987	0.000106	1.057172	0.358180	0.000047
 100	4.9500e+00	1.9957	-8.189622	0.000140	1.403487	0.475514	0.000063
 101	5.0000e+00	2.0261	-8.164774	0.000111	1.111854	0.376706	0.000050
 102	5.0500e+00	2.0294	-8.132187	0.000146	1.458169	0.494041	0.000065
 103	5.1000e+00	2.0951	-8.101636	0.000137	1.367033	0.463163	0.000061
 104	5.1500e+00	2.0582	-8.080862	-0.000093	-0.929583	-0.314951	0.000042
 105	5.2000e+00	2.1064	-8.051126	0.000133	1.330579	0.450812	0.000059
 106	5.2500e+00	2.1336	-8.021390	0.000133	1.330579	0.450812	0.000059
 107	5.3000e+00	2.1449	-7.997356	0.000108	1.075399	0.364355	0.000048
 108	5.3500e+00	2.1657	-7.969250	0.000126	1.257670	0.426110	0.000056
 109	5.4000e+00	2.1802	-7.939514	0.000133	1.330579	0.450812	0.000059
 110	5.4500e+00	2.2251	-7.912222	0.000122	1.221216	0.413759	0.000055
 111	5.5000e+00	2.2283	-7.884930	0.000122	1.221216	0.413759	0.000055
 112	5.5500e+00	2.2315	-7.862526	0.000100	1.002491	0.339653	0.000045
 113	5.6000e+00	2.2459	-7.826272	0.000162	1.622213	0.549621	0.000073
 114	5.6500e+00	2.2668	-7.796536	0.000133	1.330579	0.450812	0.000059
 115	5.7000e+00	2.3117	-7.776577	0.000089	0.893128	0.302600	0.000040
 116	5.7500e+00	2.3117	-7.748470	-0.000126	-1.257670	-0.426110	0.000056
 117	5.8000e+00	2.3470	-7.723622	0.000111	1.111854	0.376706	0.000050
 118	5.8500e+00	2.3566	-7.695108	0.000128	1.275898	0.432286	0.000057
 119	5.9000e+00	2.3823	-7.663335	0.000142	1.421714	0.481690	0.000064
 120	5.9500e+00	2.3791	-7.640117	-0.000104	-1.038945	-0.352004	0.000046
 121	6.0000e+00	2.4096	-7.613640	0.000118	1.184762	0.401408	0.000053
 122	6.0500e+00	2.4352	-7.585126	0.000128	1.275898	0.432286	0.000057
 123	6.1000e+00	2.4609	-7.557019	0.000126	1.257670	0.426110	0.000056
 124	6.1500e+00	2.4866	-7.530949	0.000117	1.166535	0.395233	0.000052
 125	6.2000e+00	2.5010	-7.508138	0.000102	1.020718	0.345829	0.000046
 126	6.2500e+00	2.5090	-7.475958	0.000144	1.439942	0.487865	0.000064
 127	6.3000e+00	2.5331	-7.444592	0.000140	1.403487	0.475514	0.000063
 128	6.3500e+00	2.5475	-7.418930	0.000115	1.148308	0.389057	0.000051
 129	6.4000e+00	2.5700	-7.387157	0.000142	1.421714	0.481690	0.000064
 130	6.4500e+00	2.5973	-7.363531	0.000106	1.057172	0.358180	0.000047
 131	6.5000e+00	2.6117	-7.337054	0.000118	1.184762	0.401408	0.000053
 132	6.5500e+00	2.6534	-7.306503	0.000137	1.367033	0.463163	0.000061
 133	6.6000e+00	2.6534	-7.278397	-0.000126	-1.257670	-0.426110	0.000056
 134	6.6500e+00	2.6855	-7.253549	0.000111	1.111854	0.376706	0.000050
 135	6.7000e+00	2.6743	-7.224627	-0.000129	-1.294125	-0.438461	0.000058
 136	6.7500e+00	2.7144	-7.200594	0.000108	1.075399	0.364355	0.000048
 137	6.8000e+00	2.7384	-7.173302	0.000122	1.221216	0.413759	0.000055
 138	6.8500e+00	2.7657	-7.144788	0.000128	1.275898	0.432286	0.000057
 139	6.9000e+00	2.7801	-7.115052	0.000133	1.330579	0.450812	0.000059
 140	6.9500e+00	2.7978	-7.088982	0.000117	1.166535	0.395233	0.000052
 141	7.0000e+00	2.8363	-7.065764	0.000104	1.038945	0.352004	0.000046
 142	7.0500e+00	2.8523	-7.038065	0.000124	1.239443	0.419935	0.000055
 143	7.1000e+00	2.8603	-7.017290	0.000093	0.929583	0.314951	0.000042
 144	7.1500e+00	2.9021	-6.985925	0.000140	1.403487	0.475514	0.000063
 145	7.2000e+00	2.8988	-6.959855	-0.000117	-1.166535	-0.395233	0.000052
 146	7.2500e+00	2.9165	-6.931341	0.000128	1.275898	0.432286	0.000057
 147	7.3000e+00	2.9390	-6.908530	0.000102	1.020718	0.345829	0.000046
 148	7.3500e+00	2.9470	-6.882052	0.000118	1.184762	0.401408	0.000053
 149	7.4000e+00	2.9775	-6.849465	0.000146	1.458169	0.494041	0.000065
 150	7.4500e+00	2.9999	-6.827469	0.000098	0.984264	0.333478	0.000044
 151	7.5000e+00	3.0352	-6.802213	0.000113	1.130081	0.382882	0.000051
 152	7.5500e+00	3.0416	-6.775736	0.000118	1.184762	0.401408	0.000053
 153	7.6000e+00	3.0496	-6.754147	0.000097	0.966037	0.327302	0.000043
 154	7.6500e+00	3.0898	-6.724411	0.000133	1.330579	0.450812	0.000059
 155	7.7000e+00	3.1026	-6.694267	0.000135	1.348806	0.456988	0.000060
 156	7.7500e+00	3.1186	-6.668605	0.000115	1.148308	0.389057	0.000051
 157	7.8000e+00	3.1347	-6.644979	0.000106	1.057172	0.358180	0.000047
 158	7.8500e+00	3.1844	-6.622168	0.000102	1.020718	0.345829	0.000046
 159	7.9000e+00	3.1892	-6.592432	0.000133	1.330579	0.450812	0.000059
 160	7.9500e+00	3.2149	-6.567177	0.000113	1.130081	0.382882	0.000051
 161	8.0000e+00	3.2309	-6.536626	0.000137	1.367033	0.463163	0.000061
 162	8.0500e+00	3.2502	-6.513815	0.000102	1.020718	0.345829	0.000046
 163	8.1000e+00	3.2598	-6.489374	0.000109	1.093627	0.370531	0.000049
 164	8.1500e+00	3.2967	-6.464526	0.000111	1.111854	0.376706	0.000050
 165	8.2000e+00	3.2919	-6.436827	-0.000124	-1.239443	-0.419935	0.000055
 166	8.2500e+00	3.3159	-6.411164	0.000115	1.148308	0.389057	0.000051
 167	8.3000e+00	3.3192	-6.378984	0.000144	1.439942	0.487865	0.000064
 168	8.3500e+00	3.3785	-6.354544	0.000109	1.093627	0.370531	0.000049
 169	8.4000e+00	3.3801	-6.334584	0.000089	0.893128	0.302600	0.000040
 170	8.4500e+00	3.3737	-6.308921	-0.000115	-1.148308	-0.389057	0.000051
 171	8.5000e+00	3.4266	-6.277556	0.000140	1.403487	0.475514	0.000063
 172	8.5500e+00	3.4347	-6.254745	0.000102	1.020718	0.345829	0.000046
 173	8.6000e+00	3.4603	-6.228268	0.000118	1.184762	0.401408	0.000053
 174	8.6500e+00	3.4876	-6.198532	0.000133	1.330579	0.450812	0.000059
 175	8.7000e+00	3.4892	-6.173276	0.000113	1.130081	0.382882	0.000051
 176	8.7500e+00	3.5165	-6.151280	0.000098	0.984264	0.333478	0.000044
 177	8.8000e+00	3.5213	-6.126839	0.000109	1.093627	0.370531	0.000049
 178	8.8500e+00	3.5662	-6.100769	0.000117	1.166535	0.395233	0.000052
 179	8.9000e+00	3.5598	-6.075921	-0.000111	-1.111854	-0.376706	0.000050
 180	8.9500e+00	3.5903	-6.048222	0.000124	1.239443	0.419935	0.000055
 181	9.0000e+00	3.6175	-6.022560	0.000115	1.148308	0.389057	0.000051
 182	9.0500e+00	3.6288	-5.996082	0.000118	1.184762	0.401408	0.000053
 183	9.1000e+00	3.6577	-5.970012	0.000117	1.166535	0.395233	0.000052
 184	9.1500e+00	3.6833	-5.944757	0.000113	1.130081	0.382882	0.000051
 185	9.2000e+00	3.7170	-5.915429	0.000131	1.312352	0.444637	0.000059
 186	9.2500e+00	3.6962	-5.889766	-0.000115	-1.148308	-0.389057	0.000051
 187	9.3000e+00	3.7298	-5.865733	0.000108	1.075399	0.364355	0.000048
 188	9.3500e+00	3.7635	-5.837626	0.000126	1.257670	0.426110	0.000056
 189	9.4000e+00	3.7619	-5.813593	-0.000108	-1.075399	-0.364355	0.000048
 190	9.4500e+00	3.8052	-5.785894	0.000124	1.239443	0.419935	0.000055
 191	9.5000e+00	3.8277	-5.756972	0.000129	1.294125	0.438461	0.000058
 192	9.5500e+00	3.8293	-5.730088	0.000120	1.202989	0.407584	0.000054
 193	9.6000e+00	3.8694	-5.705647	0.000109	1.093627	0.370531	0.000049
 194	9.6500e+00	3.8887	-5.677133	0.000128	1.275898	0.432286	0.000057
 195	9.7000e+00	3.9079	-5.652693	0.000109	1.093627	0.370531	0.000049
 196	9.7500e+00	3.9159	-5.621327	0.000140	1.403487	0.475514	0.000063
 197	9.8000e+00	3.9496	-5.597294	0.000108	1.075399	0.364355	0.000048
 198	9.8500e+00	3.9544	-5.572039	0.000113	1.130081	0.382882	0.000051
 199	9.9000e+00	4.0010	-5.542303	0.000133	1.330579	0.450812	0.000059
 200	9.9500e+00	3.9929	-5.515825	-0.000118	-1.184762	-0.401408	0.000053
 201	1.0000e+01	4.0234	-5.494236	0.000097	0.966037	0.327302	0.000043
 202	1.0050e+01	4.0491	-5.464908	0.000131	1.312352	0.444637	0.000059
 203	1.0100e+01	4.0587	-5.439245	0.000115	1.148308	0.389057	0.000051
 204	1.0150e+01	4.0892	-5.413583	0.000115	1.148308	0.389057	0.000051
 205	1.0200e+01	4.0924	-5.386291	0.000122	1.221216	0.413759	0.000055
 206	1.0250e+01	4.1068	-5.359406	0.000120	1.202989	0.407584	0.000054
 207	1.0300e+01	4.1373	-5.335373	0.000108	1.075399	0.364355	0.000048
 208	1.0350e+01	4.1806	-5.306451	0.000129	1.294125	0.438461	0.000058
 209	1.0400e+01	4.1710	-5.281604	-0.000111	-1.111854	-0.376706	0.000050
 210	1.0450e+01	4.1983	-5.257163	0.000109	1.093627	0.370531	0.000049
 211	1.0500e+01	4.2336	-5.229464	0.000124	1.239443	0.419935	0.000055
 212	1.0550e+01	4.2352	-5.203801	0.000115	1.148308	0.389057	0.000051
 213	1.0600e+01	4.2608	-5.177324	0.000118	1.184762	0.401408	0.000053
 214	1.0650e+01	4.2769	-5.152476	0.000111	1.111854	0.376706	0.000050
 215	1.0700e+01	4.3122	-5.125184	0.000122	1.221216	0.413759	0.000055
 216	1.0750e+01	4.3298	-5.099521	0.000115	1.148308	0.389057	0.000051
 217	1.0800e+01	4.3282	-5.071822	-0.000124	-1.239443	-0.419935	0.000055
 218	1.0850e+01	4.3763	-5.042493	0.000131	1.312352	0.444637	0.000059
 219	1.0900e+01	4.3828	-5.020497	0.000098	0.984264	0.333478	0.000044
 220	1.0950e+01	4.3876	-4.994427	0.000117	1.166535	0.395233	0.000052
 221	1.1000e+01	4.4148	-4.974875	0.000087	0.874901	0.296425	0.000039
 222	1.1050e+01	4.4373	-4.946361	0.000128	1.275898	0.432286	0.000057
 223	1.1100e+01	4.4517	-4.923142	0.000104	1.038945	0.352004	0.000046
 224	1.1150e+01	4.4774	-4.899924	0.000104	1.038945	0.352004	0.000046
 225	1.1200e+01	4.4822	-4.872224	0.000124	1.239443	0.419935	0.000055
 226	1.1250e+01	4.5095	-4.848191	0.000108	1.075399	0.364355	0.000048
 227	1.1300e+01	4.5560	-4.824973	0.000104	1.038945	0.352004	0.000046
 228	1.1350e+01	4.5624	-4.796459	0.000128	1.275898	0.432286	0.000057
 229	1.1400e+01	4.5961	-4.772018	0.000109	1.093627	0.370531	0.000049
 230	1.1450e+01	4.5977	-4.746355	0.000115	1.148308	0.389057	0.000051
 231	1.1500e+01	4.6090	-4.723952	0.000100	1.002491	0.339653	0.000045
 232	1.1550e+01	4.6459	-4.699918	0.000108	1.075399	0.364355	0.000048
 233	1.1600e+01	4.6683	-4.672219	0.000124	1.239443	0.419935	0.000055
 234	1.1650e+01	4.6763	-4.647779	0.000109	1.093627	0.370531	0.000049
 235	1.1700e+01	4.7148	-4.624560	0.000104	1.038945	0.352004	0.000046
 236	1.1750e+01	4.7180	-4.603786	0.000093	0.929583	0.314951	0.000042
 237	1.1800e+01	4.7485	-4.576086	0.000124	1.239443	0.419935	0.000055
 238	1.1850e+01	4.7806	-4.553275	0.000102	1.020718	0.345829	0.000046
 239	1.1900e+01	4.7710	-4.530871	-0.000100	-1.002491	-0.339653	0.000045
 240	1.1950e+01	4.7934	-4.503579	0.000122	1.221216	0.413759	0.000055
 241	1.2000e+01	4.8400	-4.480361	0.000104	1.038945	0.352004	0.000046
 242	1.2050e+01	4.8448	-4.452661	0.000124	1.239443	0.419935	0.000055
 243	1.2100e+01	4.8592	-4.428628	0.000108	1.075399	0.364355	0.000048
 244	1.2150e+01	4.8672	-4.406632	0.000098	0.984264	0.333478	0.000044
 245	1.2200e+01	4.8913	-4.382191	0.000109	1.093627	0.370531	0.000049
 246	1.2250e+01	4.9330	-4.354899	0.000122	1.221216	0.413759	0.000055
 247	1.2300e+01	4.9442	-4.334939	0.000089	0.893128	0.302600	0.000040
 248	1.2350e+01	4.9651	-4.311314	0.000106	1.057172	0.358180	0.000047
 249	1.2400e+01	4.9603	-4.283207	-0.000126	-1.257670	-0.426110	0.000056
 250	1.2450e+01	5.0004	-4.259174	0.000108	1.075399	0.364355	0.000048
 251	1.2500e+01	5.0341	-4.231474	0.000124	1.239443	0.419935	0.000055
 252	1.2550e+01	5.0726	-4.211515	0.000089	0.893128	0.302600	0.000040
 253	1.2600e+01	5.0469	-4.183815	-0.000124	-1.239443	-0.419935	0.000055
 254	1.2650e+01	5.0726	-4.160189	0.000106	1.057172	0.358180	0.000047
 255	1.2700e+01	5.0934	-4.135749	0.000109	1.093627	0.370531	0.000049
 256	1.2750e+01	5.1143	-4.111308	0.000109	1.093627	0.370531	0.000049
 257	1.2800e+01	5.1560	-4.084831	0.000118	1.184762	0.401408	0.000053
 258	1.2850e+01	5.1672	-4.064057	0.000093	0.929583	0.314951	0.000042
 259	1.2900e+01	5.1801	-4.042060	0.000098	0.984264	0.333478	0.000044
 260	1.2950e+01	5.2234	-4.013954	0.000126	1.257670	0.426110	0.000056
 261	1.3000e+01	5.2122	-3.991957	-0.000098	-0.984264	-0.333478	0.000044
 262	1.3050e+01	5.2587	-3.966294	0.000115	1.148308	0.389057	0.000051
 263	1.3100e+01	5.2539	-3.943891	-0.000100	-1.002491	-0.339653	0.000045
