»»»»»»»»»»»»»»»»»»»»»»»»»»»»»»»»»»»» Hysteresis ««««««««««««««««««««««««««««««««««««
»»»  Executed Version:	5.48.1
»»»  Vision Version:	5.48.4 (R)
»»»  Vision Compiled:	9/18/24
»»»  Driver Version:	5.47.0
»»»  Windows Version:	Windows 8 or 8.1
»»»  Processor Information:	x86 (AMD or Intel) - 32 Processors
»»»  Tester Name:	PMF21124-494 (100V)
»»»  Tester S/N:	PMF21124-494
»»»  Internal Amp Type:	100V RevK 270k
»»»  Internal Amp S/N:	iAB2-596/K     
»»»  Execution Count:	1
»»»»»»»»»»»»»»»»»»»»»»»»»»»»»»»»»»»»»»»»»»««««««««««««««««««««««««««««««««««««««««««

Stored:	10/10/2025 - 18:24:13
Configured:	10/10/25 10:37:25 AM
Executed:	10/10/25 06:22:38 PM

»»»»»»»»»»»»»»»»»»»»»»»»»»»»»»»»»»» Sample Info ««««««««««««««««««««««««««««««««««««
Sample Name:	Int. Ref. Ferroelectric
Lot Name:	N/A
Wafer Name:	N/A
Die Row/Column:	0/0
Capacitor Number:	0
Sample Area (cm2):	1.00e-04
Sample Thickness (microns):	3.00e-01

Amplifier:	Internal

»»»»»»»»»»»»»»»»»»»»»»»»»»»»»»»»»»» Tester Info «««««««««««««««««««««««««««««««««««
Tester Name:	PMF21124-494 (100V)
Tester Serial Number:	PMF21124-494
Return Signal Amp. Level:	0.2 [Index: 1]

»»»»»»»»»»»»»»»»»»»»»»»»»»»»»»»» Hysteresis Info ««««««««««««««««««««««««««««««««««
Task Name:	'
Volts:	20.00
Field:	666.67 (kV/cm)
DCBias:	0.00
DCField:	0.00 (kV/cm)
Hysteresis Period (ms):	5.00e-03
Preset:	DisabledProfile:	Standard Monopolar

»»»»»»»»»»»»»»»»»»»»»»»»»»»»»»»»»»»»»» Data «««««««««««««««««««««««««««««««««««««««
Points:	51

Valid Data

Point	Time (ms)	Drive Voltage	Measured Polarization (uC/cm2)	Capacitance (uF)	Normalized Capacitance (uF/cm2)	Dielectric Constant	Instantaneous Current (mA)
   1	0.0000e+00	0.0770	-9.018405	0.000032	0.321932	0.109074	0.254860
   2	1.0000e-04	0.6481	-8.763544	0.000032	0.321932	0.109074	0.254860
   3	2.0000e-04	1.6636	-7.565702	0.000151	1.513083	0.512646	1.197842
   4	3.0000e-04	2.2812	-6.753791	0.000103	1.025585	0.347478	0.811911
   5	4.0000e-04	3.0817	-5.930957	0.000104	1.039382	0.352152	0.822834
   6	5.0000e-04	3.9336	-4.955207	0.000123	1.232542	0.417596	0.975750
   7	6.0000e-04	4.7341	-4.030429	0.000117	1.168155	0.395782	0.924778
   8	7.0000e-04	5.4961	-3.280413	0.000095	0.947401	0.320988	0.750017
   9	8.0000e-04	6.3062	-2.497628	0.000099	0.988793	0.335012	0.782784
  10	9.0000e-04	7.1549	-1.580132	0.000116	1.158957	0.392665	0.917496
  11	1.0000e-03	7.9073	-0.746376	0.000105	1.053179	0.356827	0.833756
  12	1.1000e-03	8.6982	-0.014563	0.000092	0.924406	0.313197	0.731812
  13	1.2000e-03	9.5275	0.768221	0.000099	0.988793	0.335012	0.782784
  14	1.3000e-03	10.3104	1.507315	0.000093	0.933604	0.316314	0.739094
  15	1.4000e-03	11.1141	2.206360	0.000088	0.883015	0.299174	0.699045
  16	1.5000e-03	11.9034	3.018271	0.000103	1.025585	0.347478	0.811911
  17	1.6000e-03	12.7376	3.619013	0.000076	0.758841	0.257102	0.600742
  18	1.7000e-03	13.5830	4.339902	0.000091	0.910609	0.308523	0.720890
  19	1.8000e-03	14.3065	4.871468	0.000067	0.671459	0.227497	0.531565
  20	1.9000e-03	15.0734	5.421237	0.000069	0.694454	0.235288	0.549770
  21	2.0000e-03	15.9284	6.225867	0.000102	1.016387	0.344361	0.804630
  22	2.1000e-03	16.7145	6.782918	0.000070	0.703652	0.238404	0.557051
  23	2.2000e-03	17.5262	7.303561	0.000066	0.657662	0.222822	0.520643
  24	2.3000e-03	18.2770	7.802358	0.000063	0.630068	0.213473	0.498798
  25	2.4000e-03	19.1353	8.381254	0.000073	0.731247	0.247753	0.578896
  26	2.5000e-03	19.8989	8.992919	0.000077	0.772638	0.261777	0.611664
  27	2.6000e-03	19.6117	9.018405	-0.000003	-0.032193	-0.010907	0.025486
  28	2.7000e-03	18.2032	8.006246	0.000128	1.278532	0.433178	-1.012158
  29	2.8000e-03	17.6450	7.711337	0.000037	0.372522	0.126214	-0.294909
  30	2.9000e-03	17.0402	7.405505	0.000039	0.386319	0.130888	-0.305832
  31	3.0000e-03	16.0503	6.757432	0.000082	0.818628	0.277359	-0.648073
  32	3.1000e-03	15.3381	6.378783	0.000048	0.478300	0.162052	-0.378649
  33	3.2000e-03	14.5424	5.818091	0.000071	0.708251	0.239962	-0.560692
  34	3.3000e-03	13.7419	5.217349	0.000076	0.758841	0.257102	-0.600742
  35	3.4000e-03	12.8884	4.587481	0.000080	0.795633	0.269568	-0.629868
  36	3.5000e-03	12.1328	4.136014	0.000057	0.570280	0.193216	-0.451466
  37	3.6000e-03	11.3211	3.469737	0.000084	0.841623	0.285150	-0.666277
  38	3.7000e-03	10.5045	2.868996	0.000076	0.758841	0.257102	-0.600742
  39	3.8000e-03	9.7393	2.220923	0.000082	0.818628	0.277359	-0.648073
  40	3.9000e-03	8.9661	1.598337	0.000079	0.786435	0.266451	-0.622587
  41	4.0000e-03	8.1591	0.953905	0.000081	0.814029	0.275801	-0.644432
  42	4.1000e-03	7.3137	0.156557	0.000101	1.007189	0.341245	-0.797348
  43	4.2000e-03	6.4859	-0.597101	0.000095	0.952000	0.322546	-0.753658
  44	4.3000e-03	5.7656	-1.354399	0.000096	0.956599	0.324105	-0.757298
  45	4.4000e-03	4.9795	-2.046162	0.000087	0.873817	0.296057	-0.691763
  46	4.5000e-03	4.1261	-2.861714	0.000103	1.030184	0.349036	-0.815552
  47	4.6000e-03	3.3352	-3.771929	0.000115	1.149759	0.389549	-0.910214
  48	4.7000e-03	2.5764	-4.565636	0.000100	1.002590	0.339687	-0.793707
  49	4.8000e-03	1.7983	-5.439441	0.000110	1.103769	0.373967	-0.873806
  50	4.9000e-03	0.9545	-6.371501	0.000118	1.177353	0.398898	-0.932060
  51	5.0000e-03	0.1380	-7.278075	0.000118	1.177353	0.398898	-0.906574

PMax (uC/cm2):	1.80e+01
Pr (uC/cm2):	1.74e+00
-Pr (uC/cm2):	0.00e+00
PLoss (uC/cm2):	0.00e+00
C (Max-Eff) (nF):	9.05e-02
K (Eff):	3.07e+02
Vert. (+/-Pr) Shift (uC/cm2):	8.68e-01
Offset (uC/cm2):	9.01e+00

A (Loop Area - uC/cm2·Volts):	-8.78e-01



Hysteresis Version: 5.48.1 - Radiant Technologies, Inc., 1999 - 9/12/24

