»»»»»»»»»»»»»»»»»»»»»»»»»»»»»»»»»»»» Hysteresis ««««««««««««««««««««««««««««««««««««
»»»  Executed Version:	5.48.1
»»»  Vision Version:	5.48.4 (R)
»»»  Vision Compiled:	9/18/24
»»»  Driver Version:	5.47.0
»»»  Windows Version:	Windows 8 or 8.1
»»»  Processor Information:	x86 (AMD or Intel) - 32 Processors
»»»  Tester Name:	PMF21124-494 (100V)
»»»  Tester S/N:	PMF21124-494
»»»  Internal Amp Type:	100V RevK 270k
»»»  Internal Amp S/N:	iAB2-596/K     
»»»  Execution Count:	1
»»»»»»»»»»»»»»»»»»»»»»»»»»»»»»»»»»»»»»»»»»««««««««««««««««««««««««««««««««««««««««««

Stored:	10/10/2025 - 18:22:19
Configured:	10/10/25 10:37:25 AM
Executed:	10/10/25 06:21:29 PM

»»»»»»»»»»»»»»»»»»»»»»»»»»»»»»»»»»» Sample Info ««««««««««««««««««««««««««««««««««««
Sample Name:	Int. Ref. Ferroelectric
Lot Name:	N/A
Wafer Name:	N/A
Die Row/Column:	0/0
Capacitor Number:	0
Sample Area (cm2):	1.00e-04
Sample Thickness (microns):	3.00e-01

Amplifier:	Internal

»»»»»»»»»»»»»»»»»»»»»»»»»»»»»»»»»»» Tester Info «««««««««««««««««««««««««««««««««««
Tester Name:	PMF21124-494 (100V)
Tester Serial Number:	PMF21124-494
Return Signal Amp. Level:	19.0 [Index: 1]

»»»»»»»»»»»»»»»»»»»»»»»»»»»»»»»» Hysteresis Info ««««««««««««««««««««««««««««««««««
Task Name:	'
Volts:	20.00
Field:	666.67 (kV/cm)
DCBias:	0.00
DCField:	0.00 (kV/cm)
Hysteresis Period (ms):	1.00e+02
Preset:	DisabledProfile:	Standard Monopolar

»»»»»»»»»»»»»»»»»»»»»»»»»»»»»»»»»»»»»» Data «««««««««««««««««««««««««««««««««««««««
Points:	2001

Valid Data

Point	Time (ms)	Drive Voltage	Measured Polarization (uC/cm2)	Capacitance (uF)	Normalized Capacitance (uF/cm2)	Dielectric Constant	Instantaneous Current (mA)
   1	0.0000e+00	0.0497	-1.724459	-0.000003	-0.029929	-0.010140	0.000001
   2	5.0000e-02	0.0241	-1.723749	-0.000003	-0.029929	-0.010140	0.000001
   3	1.0000e-01	0.0578	-1.721975	0.000007	0.074822	0.025350	0.000004
   4	1.5000e-01	0.0706	-1.719712	0.000010	0.095398	0.032322	0.000005
   5	2.0000e-01	0.0722	-1.717716	0.000008	0.084175	0.028519	0.000004
   6	2.5000e-01	0.1283	-1.714743	0.000013	0.125327	0.042462	0.000006
   7	3.0000e-01	0.1700	-1.711860	0.000012	0.121586	0.041194	0.000006
   8	3.5000e-01	0.1636	-1.708000	-0.000016	-0.162738	-0.055137	0.000008
   9	4.0000e-01	0.1957	-1.704629	0.000014	0.142162	0.048166	0.000007
  10	4.5000e-01	0.1845	-1.700591	-0.000017	-0.170220	-0.057672	0.000008
  11	5.0000e-01	0.2342	-1.696066	0.000019	0.190796	0.064643	0.000009
  12	5.5000e-01	0.2310	-1.691896	-0.000018	-0.175832	-0.059573	0.000008
  13	6.0000e-01	0.2567	-1.687460	0.000019	0.187055	0.063376	0.000009
  14	6.5000e-01	0.2872	-1.683157	0.000018	0.181443	0.061475	0.000009
  15	7.0000e-01	0.2679	-1.679741	-0.000014	-0.144032	-0.048799	0.000007
  16	7.5000e-01	0.3241	-1.675437	0.000018	0.181443	0.061475	0.000009
  17	8.0000e-01	0.3305	-1.671090	0.000018	0.183314	0.062108	0.000009
  18	8.5000e-01	0.3738	-1.667186	0.000016	0.164608	0.055771	0.000008
  19	9.0000e-01	0.3529	-1.662661	-0.000019	-0.190796	-0.064643	0.000009
  20	9.5000e-01	0.4043	-1.658313	0.000018	0.183314	0.062108	0.000009
  21	1.0000e+00	0.4299	-1.654365	0.000017	0.166479	0.056405	0.000008
  22	1.0500e+00	0.4476	-1.650594	0.000016	0.158997	0.053870	0.000008
  23	1.1000e+00	0.4460	-1.647000	-0.000015	-0.151514	-0.051334	0.000007
  24	1.1500e+00	0.4989	-1.642830	0.000018	0.175832	0.059573	0.000008
  25	1.2000e+00	0.4925	-1.639237	-0.000015	-0.151514	-0.051334	0.000007
  26	1.2500e+00	0.4957	-1.635599	0.000015	0.153385	0.051968	0.000007
  27	1.3000e+00	0.5374	-1.631295	0.000018	0.181443	0.061475	0.000009
  28	1.3500e+00	0.5679	-1.627125	0.000018	0.175832	0.059573	0.000008
  29	1.4000e+00	0.5567	-1.622733	-0.000019	-0.185184	-0.062742	0.000009
  30	1.4500e+00	0.6000	-1.618519	0.000018	0.177702	0.060207	0.000008
  31	1.5000e+00	0.5936	-1.614526	-0.000017	-0.168349	-0.057038	0.000008
  32	1.5500e+00	0.6529	-1.610045	0.000019	0.188925	0.064010	0.000009
  33	1.6000e+00	0.6738	-1.605831	0.000018	0.177702	0.060207	0.000008
  34	1.6500e+00	0.6818	-1.601261	0.000019	0.192666	0.065277	0.000009
  35	1.7000e+00	0.6962	-1.596426	0.000020	0.203890	0.069080	0.000010
  36	1.7500e+00	0.7251	-1.591191	0.000022	0.220725	0.074784	0.000010
  37	1.8000e+00	0.7556	-1.586266	0.000021	0.207631	0.070347	0.000010
  38	1.8500e+00	0.7363	-1.580543	-0.000024	-0.241301	-0.081755	0.000011
  39	1.9000e+00	0.8117	-1.575575	0.000021	0.209501	0.070981	0.000010
  40	1.9500e+00	0.7813	-1.570695	-0.000021	-0.205760	-0.069713	0.000010
  41	2.0000e+00	0.8198	-1.565327	0.000023	0.226336	0.076685	0.000011
  42	2.0500e+00	0.8470	-1.559604	0.000024	0.241301	0.081755	0.000011
  43	2.1000e+00	0.8326	-1.553482	-0.000026	-0.258136	-0.087459	0.000012
  44	2.1500e+00	0.8807	-1.548025	0.000023	0.230077	0.077952	0.000011
  45	2.2000e+00	0.8807	-1.543101	-0.000021	-0.207631	-0.070347	0.000010
  46	2.2500e+00	0.9353	-1.537777	0.000022	0.224466	0.076051	0.000011
  47	2.3000e+00	0.9433	-1.532986	0.000020	0.202019	0.068446	0.000010
  48	2.3500e+00	0.9754	-1.527973	0.000021	0.211372	0.071615	0.000010
  49	2.4000e+00	0.9866	-1.522649	0.000022	0.224466	0.076051	0.000011
  50	2.4500e+00	0.9898	-1.517370	0.000022	0.222595	0.075417	0.000011
  51	2.5000e+00	1.0492	-1.511869	0.000023	0.231948	0.078586	0.000011
  52	2.5500e+00	1.0460	-1.507122	-0.000020	-0.200149	-0.067812	0.000009
  53	2.6000e+00	1.0620	-1.502375	0.000020	0.200149	0.067812	0.000009
  54	2.6500e+00	1.0813	-1.497850	0.000019	0.190796	0.064643	0.000009
  55	2.7000e+00	1.1085	-1.492837	0.000021	0.211372	0.071615	0.000010
  56	2.7500e+00	1.1326	-1.487912	0.000021	0.207631	0.070347	0.000010
  57	2.8000e+00	1.1567	-1.482766	0.000022	0.216984	0.073516	0.000010
  58	2.8500e+00	1.1631	-1.477176	0.000024	0.235689	0.079854	0.000011
  59	2.9000e+00	1.1871	-1.472207	0.000021	0.209501	0.070981	0.000010
  60	2.9500e+00	1.2208	-1.467106	0.000022	0.215113	0.072882	0.000010
  61	3.0000e+00	1.2048	-1.462226	-0.000021	-0.205760	-0.069713	0.000010
  62	3.0500e+00	1.2593	-1.456769	0.000023	0.230077	0.077952	0.000011
  63	3.1000e+00	1.2850	-1.451357	0.000023	0.228207	0.077319	0.000011
  64	3.1500e+00	1.2625	-1.445412	-0.000025	-0.250653	-0.084924	0.000012
  65	3.2000e+00	1.3026	-1.439866	0.000023	0.233819	0.079220	0.000011
  66	3.2500e+00	1.3331	-1.434143	0.000024	0.241301	0.081755	0.000011
  67	3.3000e+00	1.3604	-1.428775	0.000023	0.226336	0.076685	0.000011
  68	3.3500e+00	1.3684	-1.423851	0.000021	0.207631	0.070347	0.000010
  69	3.4000e+00	1.3716	-1.419282	0.000019	0.192666	0.065277	0.000009
  70	3.4500e+00	1.3941	-1.414091	0.000022	0.218854	0.074150	0.000010
  71	3.5000e+00	1.4149	-1.409477	0.000019	0.194537	0.065911	0.000009
  72	3.5500e+00	1.4406	-1.404642	0.000020	0.203890	0.069080	0.000010
  73	3.6000e+00	1.4695	-1.400205	0.000019	0.187055	0.063376	0.000009
  74	3.6500e+00	1.4775	-1.396257	0.000017	0.166479	0.056405	0.000008
  75	3.7000e+00	1.4967	-1.392397	0.000016	0.162738	0.055137	0.000008
  76	3.7500e+00	1.5369	-1.388981	0.000014	0.144032	0.048799	0.000007
  77	3.8000e+00	1.5336	-1.384944	-0.000017	-0.170220	-0.057672	0.000008
  78	3.8500e+00	1.5721	-1.381173	0.000016	0.158997	0.053870	0.000008
  79	3.9000e+00	1.5689	-1.377802	-0.000014	-0.142162	-0.048166	0.000007
  80	3.9500e+00	1.6010	-1.374962	0.000012	0.119715	0.040561	0.000006
  81	4.0000e+00	1.6251	-1.372345	0.000011	0.110362	0.037392	0.000005
  82	4.0500e+00	1.6459	-1.369018	0.000014	0.140291	0.047532	0.000007
  83	4.1000e+00	1.6556	-1.366090	0.000012	0.123456	0.041828	0.000006
  84	4.1500e+00	1.6957	-1.363073	0.000013	0.127197	0.043096	0.000006
  85	4.2000e+00	1.6877	-1.360322	-0.000012	-0.115974	-0.039293	0.000006
  86	4.2500e+00	1.7326	-1.357217	0.000013	0.130938	0.044363	0.000006
  87	4.3000e+00	1.7566	-1.354422	0.000012	0.117845	0.039927	0.000006
  88	4.3500e+00	1.7663	-1.351716	0.000011	0.114103	0.038659	0.000005
  89	4.4000e+00	1.7663	-1.349010	-0.000011	-0.114103	-0.038659	0.000005
  90	4.4500e+00	1.8128	-1.345638	0.000014	0.142162	0.048166	0.000007
  91	4.5000e+00	1.8336	-1.341645	0.000017	0.168349	0.057038	0.000008
  92	4.5500e+00	1.8513	-1.338540	0.000013	0.130938	0.044363	0.000006
  93	4.6000e+00	1.8721	-1.335035	0.000015	0.147773	0.050067	0.000007
  94	4.6500e+00	1.8930	-1.332151	0.000012	0.121586	0.041194	0.000006
  95	4.7000e+00	1.8818	-1.329090	-0.000013	-0.129068	-0.043729	0.000006
  96	4.7500e+00	1.9203	-1.325674	0.000014	0.144032	0.048799	0.000007
  97	4.8000e+00	1.9620	-1.322258	0.000014	0.144032	0.048799	0.000007
  98	4.8500e+00	1.9732	-1.318931	0.000014	0.140291	0.047532	0.000007
  99	4.9000e+00	1.9636	-1.316047	-0.000012	-0.121586	-0.041194	0.000006
 100	4.9500e+00	2.0053	-1.312809	0.000014	0.136550	0.046264	0.000006
 101	5.0000e+00	2.0342	-1.309970	0.000012	0.119715	0.040561	0.000006
 102	5.0500e+00	2.0470	-1.306775	0.000013	0.134679	0.045631	0.000006
 103	5.1000e+00	2.0614	-1.303847	0.000012	0.123456	0.041828	0.000006
 104	5.1500e+00	2.0919	-1.301629	0.000009	0.093527	0.031688	0.000004
 105	5.2000e+00	2.1031	-1.298657	0.000013	0.125327	0.042462	0.000006
 106	5.2500e+00	2.1288	-1.295596	0.000013	0.129068	0.043729	0.000006
 107	5.3000e+00	2.1497	-1.292490	0.000013	0.130938	0.044363	0.000006
 108	5.3500e+00	2.1769	-1.289828	0.000011	0.112233	0.038026	0.000005
 109	5.4000e+00	2.1625	-1.286812	-0.000013	-0.127197	-0.043096	0.000006
 110	5.4500e+00	2.2074	-1.283928	0.000012	0.121586	0.041194	0.000006
 111	5.5000e+00	2.2187	-1.280468	0.000015	0.145903	0.049433	0.000007
 112	5.5500e+00	2.2459	-1.277229	0.000014	0.136550	0.046264	0.000006
 113	5.6000e+00	2.2331	-1.273680	-0.000015	-0.149644	-0.050701	0.000007
 114	5.6500e+00	2.3069	-1.269732	0.000017	0.166479	0.056405	0.000008
 115	5.7000e+00	2.2892	-1.265562	-0.000018	-0.175832	-0.059573	0.000008
 116	5.7500e+00	2.3326	-1.261613	0.000017	0.166479	0.056405	0.000008
 117	5.8000e+00	2.3454	-1.257487	0.000017	0.173961	0.058940	0.000008
 118	5.8500e+00	2.3550	-1.253894	0.000015	0.151514	0.051334	0.000007
 119	5.9000e+00	2.4031	-1.250345	0.000015	0.149644	0.050701	0.000007
 120	5.9500e+00	2.3903	-1.246263	-0.000017	-0.172090	-0.058306	0.000008
 121	6.0000e+00	2.4465	-1.242271	0.000017	0.168349	0.057038	0.000008
 122	6.0500e+00	2.4384	-1.237790	-0.000019	-0.188925	-0.064010	0.000009
 123	6.1000e+00	2.4497	-1.233176	0.000019	0.194537	0.065911	0.000009
 124	6.1500e+00	2.4930	-1.229405	0.000016	0.158997	0.053870	0.000008
 125	6.2000e+00	2.4930	-1.225812	-0.000015	-0.151514	-0.051334	0.000007
 126	6.2500e+00	2.5427	-1.222218	0.000015	0.151514	0.051334	0.000007
 127	6.3000e+00	2.5636	-1.217915	0.000018	0.181443	0.061475	0.000009
 128	6.3500e+00	2.5459	-1.213346	-0.000019	-0.192666	-0.065277	0.000009
 129	6.4000e+00	2.5892	-1.209220	0.000017	0.173961	0.058940	0.000008
 130	6.4500e+00	2.6149	-1.204916	0.000018	0.181443	0.061475	0.000009
 131	6.5000e+00	2.6261	-1.200658	0.000018	0.179573	0.060841	0.000009
 132	6.5500e+00	2.6261	-1.196931	-0.000016	-0.157126	-0.053236	0.000007
 133	6.6000e+00	2.6614	-1.193116	0.000016	0.160867	0.054503	0.000008
 134	6.6500e+00	2.6983	-1.189345	0.000016	0.158997	0.053870	0.000008
 135	6.7000e+00	2.7128	-1.184731	0.000019	0.194537	0.065911	0.000009
 136	6.7500e+00	2.7384	-1.180605	0.000017	0.173961	0.058940	0.000008
 137	6.8000e+00	2.7529	-1.176701	0.000016	0.164608	0.055771	0.000008
 138	6.8500e+00	2.7898	-1.172797	0.000016	0.164608	0.055771	0.000008
 139	6.9000e+00	2.7705	-1.168760	-0.000017	-0.170220	-0.057672	0.000008
 140	6.9500e+00	2.8138	-1.163836	0.000021	0.207631	0.070347	0.000010
 141	7.0000e+00	2.8427	-1.160109	0.000016	0.157126	0.053236	0.000007
 142	7.0500e+00	2.8507	-1.156250	0.000016	0.162738	0.055137	0.000008
 143	7.1000e+00	2.8668	-1.152390	0.000016	0.162738	0.055137	0.000008
 144	7.1500e+00	2.8812	-1.148752	0.000015	0.153385	0.051968	0.000007
 145	7.2000e+00	2.9133	-1.145735	0.000013	0.127197	0.043096	0.000006
 146	7.2500e+00	2.9357	-1.142630	0.000013	0.130938	0.044363	0.000006
 147	7.3000e+00	2.9390	-1.138149	0.000019	0.188925	0.064010	0.000009
 148	7.3500e+00	2.9791	-1.133846	0.000018	0.181443	0.061475	0.000009
 149	7.4000e+00	3.0063	-1.129454	0.000019	0.185184	0.062742	0.000009
 150	7.4500e+00	3.0272	-1.125772	0.000016	0.155256	0.052602	0.000007
 151	7.5000e+00	3.0224	-1.121690	-0.000017	-0.172090	-0.058306	0.000008
 152	7.5500e+00	3.0881	-1.118851	0.000012	0.119715	0.040561	0.000006
 153	7.6000e+00	3.0673	-1.115258	-0.000015	-0.151514	-0.051334	0.000007
 154	7.6500e+00	3.0978	-1.111442	0.000016	0.160867	0.054503	0.000008
 155	7.7000e+00	3.1122	-1.107050	0.000019	0.185184	0.062742	0.000009
 156	7.7500e+00	3.1186	-1.103235	0.000016	0.160867	0.054503	0.000008
 157	7.8000e+00	3.1331	-1.098754	0.000019	0.188925	0.064010	0.000009
 158	7.8500e+00	3.1603	-1.094762	0.000017	0.168349	0.057038	0.000008
 159	7.9000e+00	3.1684	-1.090680	0.000017	0.172090	0.058306	0.000008
 160	7.9500e+00	3.1892	-1.086377	0.000018	0.181443	0.061475	0.000009
 161	8.0000e+00	3.2550	-1.082029	0.000018	0.183314	0.062108	0.000009
 162	8.0500e+00	3.2406	-1.078524	-0.000015	-0.147773	-0.050067	0.000007
 163	8.1000e+00	3.2614	-1.074931	0.000015	0.151514	0.051334	0.000007
 164	8.1500e+00	3.2758	-1.071071	0.000016	0.162738	0.055137	0.000008
 165	8.2000e+00	3.2999	-1.066857	0.000018	0.177702	0.060207	0.000008
 166	8.2500e+00	3.3496	-1.062953	0.000016	0.164608	0.055771	0.000008
 167	8.3000e+00	3.3496	-1.058162	-0.000020	-0.202019	-0.068446	0.000010
 168	8.3500e+00	3.3689	-1.054124	0.000017	0.170220	0.057672	0.000008
 169	8.4000e+00	3.3881	-1.049866	0.000018	0.179573	0.060841	0.000009
 170	8.4500e+00	3.3833	-1.045962	-0.000016	-0.164608	-0.055771	0.000008
 171	8.5000e+00	3.4122	-1.041658	0.000018	0.181443	0.061475	0.000009
 172	8.5500e+00	3.4234	-1.038464	0.000013	0.134679	0.045631	0.000006
 173	8.6000e+00	3.4908	-1.035004	0.000015	0.145903	0.049433	0.000007
 174	8.6500e+00	3.4844	-1.031011	-0.000017	-0.168349	-0.057038	0.000008
 175	8.7000e+00	3.5036	-1.026619	0.000019	0.185184	0.062742	0.000009
 176	8.7500e+00	3.5052	-1.021961	0.000020	0.196408	0.066545	0.000009
 177	8.8000e+00	3.5502	-1.018234	0.000016	0.157126	0.053236	0.000007
 178	8.8500e+00	3.5790	-1.013975	0.000018	0.179573	0.060841	0.000009
 179	8.9000e+00	3.5887	-1.011047	0.000012	0.123456	0.041828	0.000006
 180	8.9500e+00	3.6336	-1.007143	0.000016	0.164608	0.055771	0.000008
 181	9.0000e+00	3.5935	-1.002929	-0.000018	-0.177702	-0.060207	0.000008
 182	9.0500e+00	3.5935	-0.998759	-0.000018	-0.175832	-0.059573	0.000008
 183	9.1000e+00	3.6689	-0.994855	0.000016	0.164608	0.055771	0.000008
 184	9.1500e+00	3.6705	-0.989930	0.000021	0.207631	0.070347	0.000010
 185	9.2000e+00	3.6994	-0.985716	0.000018	0.177702	0.060207	0.000008
 186	9.2500e+00	3.7507	-0.981279	0.000019	0.187055	0.063376	0.000009
 187	9.3000e+00	3.7347	-0.977508	-0.000016	-0.158997	-0.053870	0.000008
 188	9.3500e+00	3.7683	-0.972983	0.000019	0.190796	0.064643	0.000009
 189	9.4000e+00	3.7876	-0.968325	0.000020	0.196408	0.066545	0.000009
 190	9.4500e+00	3.8101	-0.963667	0.000020	0.196408	0.066545	0.000009
 191	9.5000e+00	3.8133	-0.958964	0.000020	0.198278	0.067178	0.000009
 192	9.5500e+00	3.8389	-0.954706	0.000018	0.179573	0.060841	0.000009
 193	9.6000e+00	3.8887	-0.950180	0.000019	0.190796	0.064643	0.000009
 194	9.6500e+00	3.8726	-0.946188	-0.000017	-0.168349	-0.057038	0.000008
 195	9.7000e+00	3.9320	-0.942461	0.000016	0.157126	0.053236	0.000007
 196	9.7500e+00	3.9079	-0.938158	-0.000018	-0.181443	-0.061475	0.000009
 197	9.8000e+00	3.9240	-0.933677	0.000019	0.188925	0.064010	0.000009
 198	9.8500e+00	3.9352	-0.929285	0.000019	0.185184	0.062742	0.000009
 199	9.9000e+00	3.9560	-0.925780	0.000015	0.147773	0.050067	0.000007
 200	9.9500e+00	3.9929	-0.922054	0.000016	0.157126	0.053236	0.000007
 201	1.0000e+01	4.0154	-0.918460	0.000015	0.151514	0.051334	0.000007
 202	1.0050e+01	4.0346	-0.914645	0.000016	0.160867	0.054503	0.000008
 203	1.0100e+01	4.0491	-0.911007	0.000015	0.153385	0.051968	0.000007
 204	1.0150e+01	4.1020	-0.907236	0.000016	0.158997	0.053870	0.000008
 205	1.0200e+01	4.0940	-0.903687	-0.000015	-0.149644	-0.050701	0.000007
 206	1.0250e+01	4.1213	-0.900582	0.000013	0.130938	0.044363	0.000006
 207	1.0300e+01	4.1181	-0.897476	-0.000013	-0.130938	-0.044363	0.000006
 208	1.0350e+01	4.1518	-0.894548	0.000012	0.123456	0.041828	0.000006
 209	1.0400e+01	4.1790	-0.891221	0.000014	0.140291	0.047532	0.000007
 210	1.0450e+01	4.2095	-0.888249	0.000013	0.125327	0.042462	0.000006
 211	1.0500e+01	4.2191	-0.884700	0.000015	0.149644	0.050701	0.000007
 212	1.0550e+01	4.2384	-0.881639	0.000013	0.129068	0.043729	0.000006
 213	1.0600e+01	4.2480	-0.878400	0.000014	0.136550	0.046264	0.000006
 214	1.0650e+01	4.3202	-0.875472	0.000012	0.123456	0.041828	0.000006
 215	1.0700e+01	4.2897	-0.872455	-0.000013	-0.127197	-0.043096	0.000006
 216	1.0750e+01	4.3106	-0.869217	0.000014	0.136550	0.046264	0.000006
 217	1.0800e+01	4.3475	-0.866023	0.000013	0.134679	0.045631	0.000006
 218	1.0850e+01	4.3956	-0.862074	0.000017	0.166479	0.056405	0.000008
 219	1.0900e+01	4.4052	-0.857948	0.000017	0.173961	0.058940	0.000008
 220	1.0950e+01	4.4036	-0.854000	-0.000017	-0.166479	-0.056405	0.000008
 221	1.1000e+01	4.4277	-0.850540	0.000015	0.145903	0.049433	0.000007
 222	1.1050e+01	4.4662	-0.847079	0.000015	0.145903	0.049433	0.000007
 223	1.1100e+01	4.4742	-0.844107	0.000013	0.125327	0.042462	0.000006
 224	1.1150e+01	4.4758	-0.840159	0.000017	0.166479	0.056405	0.000008
 225	1.1200e+01	4.4854	-0.837186	0.000013	0.125327	0.042462	0.000006
 226	1.1250e+01	4.5287	-0.834036	0.000013	0.132809	0.044997	0.000006
 227	1.1300e+01	4.5480	-0.830709	0.000014	0.140291	0.047532	0.000007
 228	1.1350e+01	4.5416	-0.827781	-0.000012	-0.123456	-0.041828	0.000006
 229	1.1400e+01	4.5817	-0.824454	0.000014	0.140291	0.047532	0.000007
 230	1.1450e+01	4.6138	-0.821437	0.000013	0.127197	0.043096	0.000006
 231	1.1500e+01	4.6041	-0.818154	-0.000014	-0.138421	-0.046898	0.000007
 232	1.1550e+01	4.6266	-0.815049	0.000013	0.130938	0.044363	0.000006
 233	1.1600e+01	4.6587	-0.812210	0.000012	0.119715	0.040561	0.000006
 234	1.1650e+01	4.6667	-0.808572	0.000015	0.153385	0.051968	0.000007
 235	1.1700e+01	4.6876	-0.805067	0.000015	0.147773	0.050067	0.000007
 236	1.1750e+01	4.7309	-0.801207	0.000016	0.162738	0.055137	0.000008
 237	1.1800e+01	4.7277	-0.797747	-0.000015	-0.145903	-0.049433	0.000007
 238	1.1850e+01	4.7694	-0.794242	0.000015	0.147773	0.050067	0.000007
 239	1.1900e+01	4.7983	-0.790294	0.000017	0.166479	0.056405	0.000008
 240	1.1950e+01	4.8319	-0.785724	0.000019	0.192666	0.065277	0.000009
 241	1.2000e+01	4.8319	-0.781421	-0.000018	-0.181443	-0.061475	0.000009
 242	1.2050e+01	4.8368	-0.777562	0.000016	0.162738	0.055137	0.000008
 243	1.2100e+01	4.8817	-0.773303	0.000018	0.179573	0.060841	0.000009
 244	1.2150e+01	4.8512	-0.769532	-0.000016	-0.158997	-0.053870	0.000008
 245	1.2200e+01	4.8865	-0.765007	0.000019	0.190796	0.064643	0.000009
 246	1.2250e+01	4.9298	-0.760260	0.000020	0.200149	0.067812	0.000009
 247	1.2300e+01	4.9394	-0.754803	0.000023	0.230077	0.077952	0.000011
 248	1.2350e+01	4.9555	-0.749124	0.000024	0.239430	0.081121	0.000011
 249	1.2400e+01	5.0341	-0.744333	0.000020	0.202019	0.068446	0.000010
 250	1.2450e+01	4.9844	-0.739187	-0.000022	-0.216984	-0.073516	0.000010
 251	1.2500e+01	4.9779	-0.733908	-0.000022	-0.222595	-0.075417	0.000011
 252	1.2550e+01	5.0325	-0.729116	0.000020	0.202019	0.068446	0.000010
 253	1.2600e+01	5.0630	-0.724281	0.000020	0.203890	0.069080	0.000010
 254	1.2650e+01	5.0983	-0.719090	0.000022	0.218854	0.074150	0.000010
 255	1.2700e+01	5.0934	-0.714077	-0.000021	-0.211372	-0.071615	0.000010
 256	1.2750e+01	5.1239	-0.708576	0.000023	0.231948	0.078586	0.000011
 257	1.2800e+01	5.1223	-0.703075	-0.000023	-0.231948	-0.078586	0.000011
 258	1.2850e+01	5.1704	-0.697263	0.000025	0.245042	0.083022	0.000012
 259	1.2900e+01	5.1801	-0.692650	0.000019	0.194537	0.065911	0.000009
 260	1.2950e+01	5.2154	-0.687237	0.000023	0.228207	0.077319	0.000011
 261	1.3000e+01	5.2362	-0.682756	0.000019	0.188925	0.064010	0.000009
 262	1.3050e+01	5.2346	-0.678320	-0.000019	-0.187055	-0.063376	0.000009
 263	1.3100e+01	5.2827	-0.672996	0.000022	0.224466	0.076051	0.000011
