»»»»»»»»»»»»»»»»»»»»»»»»»»»»»»»»»»»» Hysteresis ««««««««««««««««««««««««««««««««««««
»»»  Executed Version:	5.48.1
»»»  Vision Version:	5.48.4 (R)
»»»  Vision Compiled:	9/18/24
»»»  Driver Version:	5.47.0
»»»  Windows Version:	Windows 8 or 8.1
»»»  Processor Information:	x86 (AMD or Intel) - 32 Processors
»»»  Tester Name:	PMF21124-494 (100V)
»»»  Tester S/N:	PMF21124-494
»»»  Internal Amp Type:	100V RevK 270k
»»»  Internal Amp S/N:	iAB2-596/K     
»»»  Execution Count:	1
»»»»»»»»»»»»»»»»»»»»»»»»»»»»»»»»»»»»»»»»»»««««««««««««««««««««««««««««««««««««««««««

Stored:	10/10/2025 - 17:54:8
Configured:	10/10/25 10:37:25 AM
Executed:	10/10/25 05:52:33 PM

»»»»»»»»»»»»»»»»»»»»»»»»»»»»»»»»»»» Sample Info ««««««««««««««««««««««««««««««««««««
Sample Name:	Int. Ref. Ferroelectric
Lot Name:	N/A
Wafer Name:	N/A
Die Row/Column:	0/0
Capacitor Number:	0
Sample Area (cm2):	1.00e-04
Sample Thickness (microns):	3.00e-01

Amplifier:	Internal

»»»»»»»»»»»»»»»»»»»»»»»»»»»»»»»»»»» Tester Info «««««««««««««««««««««««««««««««««««
Tester Name:	PMF21124-494 (100V)
Tester Serial Number:	PMF21124-494
Return Signal Amp. Level:	0.2 [Index: 1]

»»»»»»»»»»»»»»»»»»»»»»»»»»»»»»»» Hysteresis Info ««««««««««««««««««««««««««««««««««
Task Name:	Hyst-170
Volts:	20.00
Field:	666.67 (kV/cm)
DCBias:	0.00
DCField:	0.00 (kV/cm)
Hysteresis Period (ms):	5.00e-03
Preset:	Enabled
Preset Delay (ms):	1.00e+03
Profile:	Standard Monopolar

»»»»»»»»»»»»»»»»»»»»»»»»»»»»»»»»»»»»»» Data «««««««««««««««««««««««««««««««««««««««
Points:	51

Valid Data

Point	Time (ms)	Drive Voltage	Measured Polarization (uC/cm2)	Capacitance (uF)	Normalized Capacitance (uF/cm2)	Dielectric Constant	Instantaneous Current (mA)
   1	0.0000e+00	0.0626	-13.143496	0.000080	0.795988	0.269688	0.629868
   2	1.0000e-04	0.6401	-12.513628	0.000080	0.795988	0.269688	0.629868
   3	2.0000e-04	1.5754	-10.063331	0.000310	3.096531	1.049133	2.450297
   4	3.0000e-04	2.3374	-9.211370	0.000108	1.076654	0.364780	0.851961
   5	4.0000e-04	3.0978	-8.588783	0.000079	0.786786	0.266570	0.622587
   6	5.0000e-04	3.9079	-6.553544	0.000257	2.572007	0.871420	2.035239
   7	6.0000e-04	4.7405	-5.705224	0.000107	1.072053	0.363221	0.848320
   8	7.0000e-04	5.4560	-4.583840	0.000142	1.417135	0.480138	1.121384
   9	8.0000e-04	6.3159	-3.069243	0.000191	1.914052	0.648498	1.514597
  10	9.0000e-04	7.1404	-1.973345	0.000138	1.384927	0.469226	1.095898
  11	1.0000e-03	7.8848	-0.819193	0.000146	1.458544	0.494168	1.154152
  12	1.1000e-03	8.6725	0.007282	0.000104	1.044447	0.353868	0.826475
  13	1.2000e-03	9.4938	1.358040	0.000171	1.707003	0.578348	1.350758
  14	1.3000e-03	10.3152	2.435734	0.000136	1.361922	0.461432	1.077694
  15	1.4000e-03	11.0852	3.426047	0.000125	1.251496	0.424018	0.990313
  16	1.5000e-03	11.8986	4.354466	0.000117	1.173277	0.397517	0.928419
  17	1.6000e-03	12.7168	5.541385	0.000150	1.499954	0.508198	1.186920
  18	1.7000e-03	13.5477	6.444318	0.000114	1.141070	0.386605	0.902933
  19	1.8000e-03	14.3001	7.248948	0.000102	1.016840	0.344515	0.804630
  20	1.9000e-03	15.0862	7.915225	0.000084	0.841999	0.285277	0.666277
  21	2.0000e-03	15.9172	9.287828	0.000173	1.734610	0.587702	1.372603
  22	2.1000e-03	16.7049	9.888570	0.000076	0.759179	0.257217	0.600742
  23	2.2000e-03	17.4797	10.649509	0.000096	0.961627	0.325808	0.760939
  24	2.3000e-03	18.3171	11.617977	0.000122	1.223889	0.414665	0.968468
  25	2.4000e-03	19.1080	12.371634	0.000095	0.952425	0.322690	0.753658
  26	2.5000e-03	19.8941	13.143496	0.000098	0.975430	0.330485	0.771862
  27	2.6000e-03	19.6502	13.001503	0.000018	0.179442	0.060797	-0.141993
  28	2.7000e-03	18.2850	10.882524	0.000268	2.677832	0.907274	-2.118979
  29	2.8000e-03	17.6273	11.326708	-0.000056	-0.561333	-0.190185	0.444185
  30	2.9000e-03	17.0803	10.350958	0.000123	1.233091	0.417783	-0.975750
  31	3.0000e-03	16.0311	9.327877	0.000129	1.292905	0.438048	-1.023081
  32	3.1000e-03	15.3381	8.698009	0.000080	0.795988	0.269688	-0.629868
  33	3.2000e-03	14.6017	8.071782	0.000079	0.791387	0.268129	-0.626228
  34	3.3000e-03	13.7114	6.790200	0.000162	1.619583	0.548729	-1.281582
  35	3.4000e-03	12.9012	6.196740	0.000075	0.749977	0.254099	-0.593460
  36	3.5000e-03	12.1809	5.326575	0.000110	1.099660	0.372575	-0.870165
  37	3.6000e-03	11.3740	4.587481	0.000093	0.934021	0.316455	-0.739094
  38	3.7000e-03	10.5446	3.458815	0.000143	1.426337	0.483256	-1.128666
  39	3.8000e-03	9.7473	2.639622	0.000104	1.035245	0.350750	-0.819193
  40	3.9000e-03	8.9757	1.507315	0.000143	1.430938	0.484815	-1.132307
  41	4.0000e-03	8.1479	0.393213	0.000141	1.407933	0.477020	-1.114102
  42	4.1000e-03	7.3458	-0.582537	0.000123	1.233091	0.417783	-0.975750
  43	4.2000e-03	6.5324	-1.692999	0.000140	1.403331	0.475462	-1.110462
  44	4.3000e-03	5.7672	-3.156624	0.000185	1.849637	0.626674	-1.463625
  45	4.4000e-03	5.0036	-3.902999	0.000094	0.943223	0.319573	-0.746376
  46	4.5000e-03	4.1437	-5.515899	0.000204	2.038281	0.690588	-1.612900
  47	4.6000e-03	3.3512	-6.477086	0.000121	1.214687	0.411547	-0.961186
  48	4.7000e-03	2.5844	-7.886098	0.000178	1.780621	0.603291	-1.409012
  49	4.8000e-03	1.7679	-9.265983	0.000174	1.743812	0.590819	-1.379885
  50	4.9000e-03	0.9289	-10.638586	0.000173	1.734610	0.587702	-1.372603
  51	5.0000e-03	0.1604	-11.854633	0.000173	1.734610	0.587702	-1.216046

PMax (uC/cm2):	2.63e+01
Pr (uC/cm2):	1.31e+00
-Pr (uC/cm2):	0.00e+00
PLoss (uC/cm2):	0.00e+00
C (Max-Eff) (nF):	1.32e-01
K (Eff):	4.48e+02
Vert. (+/-Pr) Shift (uC/cm2):	6.54e-01
Offset (uC/cm2):	1.32e+01

A (Loop Area - uC/cm2·Volts):	5.41e-01



Hysteresis Version: 5.48.1 - Radiant Technologies, Inc., 1999 - 9/12/24

