»»»»»»»»»»»»»»»»»»»»»»»»»»»»»»»»»»»» Hysteresis ««««««««««««««««««««««««««««««««««««
»»»  Executed Version:	5.48.1
»»»  Vision Version:	5.48.4 (R)
»»»  Vision Compiled:	9/18/24
»»»  Driver Version:	5.47.0
»»»  Windows Version:	Windows 8 or 8.1
»»»  Processor Information:	x86 (AMD or Intel) - 32 Processors
»»»  Tester Name:	PMF21124-494 (100V)
»»»  Tester S/N:	PMF21124-494
»»»  Internal Amp Type:	100V RevK 270k
»»»  Internal Amp S/N:	iAB2-596/K     
»»»  Execution Count:	1
»»»»»»»»»»»»»»»»»»»»»»»»»»»»»»»»»»»»»»»»»»««««««««««««««««««««««««««««««««««««««««««

Stored:	10/10/2025 - 17:44:6
Configured:	10/10/25 10:37:25 AM
Executed:	10/10/25 05:42:39 PM

»»»»»»»»»»»»»»»»»»»»»»»»»»»»»»»»»»» Sample Info ««««««««««««««««««««««««««««««««««««
Sample Name:	Int. Ref. Ferroelectric
Lot Name:	N/A
Wafer Name:	N/A
Die Row/Column:	0/0
Capacitor Number:	0
Sample Area (cm2):	1.00e-04
Sample Thickness (microns):	3.00e-01

Amplifier:	Internal

»»»»»»»»»»»»»»»»»»»»»»»»»»»»»»»»»»» Tester Info «««««««««««««««««««««««««««««««««««
Tester Name:	PMF21124-494 (100V)
Tester Serial Number:	PMF21124-494
Return Signal Amp. Level:	0.2 [Index: 1]

»»»»»»»»»»»»»»»»»»»»»»»»»»»»»»»» Hysteresis Info ««««««««««««««««««««««««««««««««««
Task Name:	Hyst-170
Volts:	20.00
Field:	666.67 (kV/cm)
DCBias:	0.00
DCField:	0.00 (kV/cm)
Hysteresis Period (ms):	5.00e-03
Preset:	Enabled
Preset Delay (ms):	1.00e+03
Profile:	Standard Monopolar

»»»»»»»»»»»»»»»»»»»»»»»»»»»»»»»»»»»»»» Data «««««««««««««««««««««««««««««««««««««««
Points:	51

Valid Data

Point	Time (ms)	Drive Voltage	Measured Polarization (uC/cm2)	Capacitance (uF)	Normalized Capacitance (uF/cm2)	Dielectric Constant	Instantaneous Current (mA)
   1	0.0000e+00	0.0674	-33.282901	0.000009	0.092299	0.031272	0.072817
   2	1.0000e-04	0.4941	-33.210083	0.000009	0.092299	0.031272	0.072817
   3	2.0000e-04	1.6187	-30.137200	0.000390	3.895004	1.319663	3.072884
   4	3.0000e-04	2.1400	-26.940527	0.000405	4.051912	1.372825	3.196673
   5	4.0000e-04	2.9550	-23.397972	0.000449	4.490330	1.521365	3.542555
   6	5.0000e-04	3.8309	-19.662452	0.000473	4.734922	1.604235	3.735520
   7	6.0000e-04	4.5127	-17.150260	0.000318	3.184304	1.078871	2.512192
   8	7.0000e-04	5.4400	-13.593142	0.000451	4.508790	1.527619	3.557118
   9	8.0000e-04	6.1169	-11.059105	0.000321	3.211994	1.088253	2.534037
  10	9.0000e-04	7.0009	-7.804178	0.000413	4.125751	1.397842	3.254927
  11	1.0000e-03	7.7902	-4.392695	0.000432	4.324193	1.465076	3.411484
  12	1.1000e-03	8.5089	-2.098954	0.000291	2.907408	0.985057	2.293740
  13	1.2000e-03	9.4714	1.250635	0.000425	4.245739	1.438495	3.349589
  14	1.3000e-03	10.1388	3.416945	0.000275	2.745885	0.930331	2.166310
  15	1.4000e-03	10.9730	6.500751	0.000391	3.908849	1.324354	3.083806
  16	1.5000e-03	11.8344	9.431642	0.000372	3.715022	1.258683	2.930890
  17	1.6000e-03	12.5403	11.597952	0.000275	2.745885	0.930331	2.166310
  18	1.7000e-03	13.5044	14.612582	0.000382	3.821165	1.294646	3.014630
  19	1.8000e-03	14.1349	16.549519	0.000246	2.455145	0.831826	1.936936
  20	1.9000e-03	14.9755	18.886949	0.000296	2.962787	1.003820	2.337431
  21	2.0000e-03	15.8530	21.686769	0.000355	3.548884	1.202394	2.799820
  22	2.1000e-03	16.5589	23.496275	0.000229	2.293622	0.777100	1.809506
  23	2.2000e-03	17.4877	25.979340	0.000315	3.147385	1.066363	2.483065
  24	2.3000e-03	18.1326	27.537627	0.000198	1.975192	0.669213	1.558287
  25	2.4000e-03	19.0230	29.933312	0.000304	3.036626	1.028837	2.395684
  26	2.5000e-03	19.8588	32.405454	0.000313	3.133540	1.061672	2.472142
  27	2.6000e-03	19.7273	33.282901	-0.000111	-1.112199	-0.376823	0.877447
  28	2.7000e-03	18.2321	30.068023	0.000407	4.074986	1.380643	-3.214877
  29	2.8000e-03	17.7669	28.200263	0.000237	2.367461	0.802117	-1.867760
  30	2.9000e-03	17.0257	26.962372	0.000157	1.569077	0.531618	-1.237892
  31	3.0000e-03	16.1225	24.821547	0.000271	2.713581	0.919386	-2.140824
  32	3.1000e-03	15.5643	23.296028	0.000193	1.933657	0.655141	-1.525519
  33	3.2000e-03	14.5135	21.013210	0.000289	2.893563	0.980366	-2.282818
  34	3.3000e-03	13.8975	19.251035	0.000223	2.233628	0.756774	-1.762175
  35	3.4000e-03	13.0087	16.979140	0.000288	2.879719	0.975675	-2.271895
  36	3.5000e-03	12.1922	14.594378	0.000302	3.022781	1.024146	-2.384762
  37	3.6000e-03	11.5360	12.755745	0.000233	2.330541	0.789609	-1.838633
  38	3.7000e-03	10.5382	9.948644	0.000356	3.558114	1.205522	-2.807101
  39	3.8000e-03	9.9462	7.968017	0.000251	2.510524	0.850589	-1.980627
  40	3.9000e-03	9.0751	5.412135	0.000324	3.239683	1.097634	-2.555882
  41	4.0000e-03	8.2169	2.575907	0.000360	3.595033	1.218030	-2.836228
  42	4.1000e-03	7.5319	0.373188	0.000279	2.792035	0.945967	-2.202719
  43	4.2000e-03	6.5389	-2.823485	0.000405	4.051912	1.372825	-3.196673
  44	4.3000e-03	5.9517	-5.146352	0.000294	2.944328	0.997565	-2.322867
  45	4.4000e-03	5.0999	-8.106370	0.000375	3.751941	1.271192	-2.960017
  46	4.5000e-03	4.2047	-11.474163	0.000427	4.268814	1.446313	-3.367793
  47	4.6000e-03	3.5518	-13.884411	0.000306	3.055086	1.035091	-2.410248
  48	4.7000e-03	2.6021	-17.492501	0.000457	4.573399	1.549510	-3.608090
  49	4.8000e-03	1.9957	-20.095714	0.000330	3.299678	1.117961	-2.603213
  50	4.9000e-03	1.0989	-23.547247	0.000437	4.374957	1.482276	-3.451533
  51	5.0000e-03	0.2037	-27.362866	0.000437	4.374957	1.482276	-3.815619

PMax (uC/cm2):	6.57e+01
Pr (uC/cm2):	5.94e+00
-Pr (uC/cm2):	0.00e+00
PLoss (uC/cm2):	0.00e+00
C (Max-Eff) (nF):	3.31e-01
K (Eff):	1.12e+03
Vert. (+/-Pr) Shift (uC/cm2):	2.97e+00
Offset (uC/cm2):	3.33e+01

A (Loop Area - uC/cm2·Volts):	-2.43e+00



Hysteresis Version: 5.48.1 - Radiant Technologies, Inc., 1999 - 9/12/24

