»»»»»»»»»»»»»»»»»»»»»»»»»»»»»»»»»»»» Hysteresis ««««««««««««««««««««««««««««««««««««
»»»  Executed Version:	5.48.1
»»»  Vision Version:	5.48.4 (R)
»»»  Vision Compiled:	9/18/24
»»»  Driver Version:	5.47.0
»»»  Windows Version:	Windows 8 or 8.1
»»»  Processor Information:	x86 (AMD or Intel) - 32 Processors
»»»  Tester Name:	PMF21124-494 (100V)
»»»  Tester S/N:	PMF21124-494
»»»  Internal Amp Type:	100V RevK 270k
»»»  Internal Amp S/N:	iAB2-596/K     
»»»  Execution Count:	1
»»»»»»»»»»»»»»»»»»»»»»»»»»»»»»»»»»»»»»»»»»««««««««««««««««««««««««««««««««««««««««««

Stored:	10/10/2025 - 18:18:26
Configured:	10/10/25 10:37:25 AM
Executed:	10/10/25 06:15:54 PM

»»»»»»»»»»»»»»»»»»»»»»»»»»»»»»»»»»» Sample Info ««««««««««««««««««««««««««««««««««««
Sample Name:	Int. Ref. Ferroelectric
Lot Name:	N/A
Wafer Name:	N/A
Die Row/Column:	0/0
Capacitor Number:	0
Sample Area (cm2):	1.00e-04
Sample Thickness (microns):	3.00e-01

Amplifier:	Internal

»»»»»»»»»»»»»»»»»»»»»»»»»»»»»»»»»»» Tester Info «««««««««««««««««««««««««««««««««««
Tester Name:	PMF21124-494 (100V)
Tester Serial Number:	PMF21124-494
Return Signal Amp. Level:	0.2 [Index: 1]

»»»»»»»»»»»»»»»»»»»»»»»»»»»»»»»» Hysteresis Info ««««««««««««««««««««««««««««««««««
Task Name:	'
Volts:	20.00
Field:	666.67 (kV/cm)
DCBias:	0.00
DCField:	0.00 (kV/cm)
Hysteresis Period (ms):	5.00e-03
Preset:	DisabledProfile:	Standard Monopolar

»»»»»»»»»»»»»»»»»»»»»»»»»»»»»»»»»»»»»» Data «««««««««««««««««««««««««««««««««««««««
Points:	51

Valid Data

Point	Time (ms)	Drive Voltage	Measured Polarization (uC/cm2)	Capacitance (uF)	Normalized Capacitance (uF/cm2)	Dielectric Constant	Instantaneous Current (mA)
   1	0.0000e+00	0.0754	-29.549201	0.000055	0.550072	0.186369	0.433262
   2	1.0000e-04	0.6337	-29.115939	0.000055	0.550072	0.186369	0.433262
   3	2.0000e-04	1.5144	-25.456877	0.000465	4.645565	1.573960	3.659062
   4	3.0000e-04	2.1689	-21.542955	0.000497	4.969137	1.683589	3.913922
   5	4.0000e-04	3.0400	-19.114503	0.000308	3.083176	1.044608	2.428452
   6	5.0000e-04	3.8165	-16.325606	0.000354	3.540799	1.199655	2.788897
   7	6.0000e-04	4.5945	-13.522145	0.000356	3.559289	1.205920	2.803460
   8	7.0000e-04	5.3854	-10.773298	0.000349	3.489952	1.182428	2.748848
   9	8.0000e-04	6.1843	-8.071782	0.000343	3.429860	1.162068	2.701516
  10	9.0000e-04	7.0314	-5.261039	0.000357	3.568534	1.209052	2.810742
  11	1.0000e-03	7.7934	-2.603213	0.000337	3.374391	1.143275	2.657826
  12	1.1000e-03	8.6211	-0.411417	0.000278	2.782717	0.942810	2.191796
  13	1.2000e-03	9.4249	2.344712	0.000350	3.499197	1.185560	2.756129
  14	1.3000e-03	10.2382	4.725833	0.000302	3.023084	1.024249	2.381121
  15	1.4000e-03	11.0275	7.165208	0.000310	3.097044	1.049307	2.439375
  16	1.5000e-03	11.8216	9.659195	0.000317	3.166380	1.072799	2.493988
  17	1.6000e-03	12.6349	11.592491	0.000245	2.454523	0.831615	1.933295
  18	1.7000e-03	13.4723	13.711470	0.000269	2.690268	0.911487	2.118979
  19	1.8000e-03	14.2151	15.743069	0.000258	2.579329	0.873900	2.031599
  20	1.9000e-03	15.0445	17.625392	0.000239	2.389808	0.809689	1.882323
  21	2.0000e-03	15.8482	20.024717	0.000305	3.046197	1.032079	2.399325
  22	2.1000e-03	16.6535	21.655822	0.000207	2.070859	0.701626	1.631104
  23	2.2000e-03	17.4557	23.647371	0.000253	2.528482	0.856673	1.991549
  24	2.3000e-03	18.2369	25.245707	0.000203	2.029257	0.687531	1.598337
  25	2.4000e-03	19.0503	26.989678	0.000221	2.214155	0.750176	1.743971
  26	2.5000e-03	19.8524	29.268855	0.000289	2.893656	0.980397	2.279177
  27	2.6000e-03	19.5909	29.549201	-0.000036	-0.355929	-0.120592	0.280346
  28	2.7000e-03	18.3989	26.170485	0.000429	4.289636	1.453368	-3.378716
  29	2.8000e-03	17.7300	23.884026	0.000290	2.902901	0.983529	-2.286459
  30	2.9000e-03	16.9840	24.171654	-0.000037	-0.365174	-0.123724	0.287628
  31	3.0000e-03	16.1995	21.870632	0.000292	2.921390	0.989794	-2.301022
  32	3.1000e-03	15.3926	19.868160	0.000254	2.542349	0.861371	-2.002472
  33	3.2000e-03	14.6017	18.273465	0.000202	2.024634	0.685965	-1.594696
  34	3.3000e-03	13.7964	16.656924	0.000205	2.052369	0.695362	-1.616541
  35	3.4000e-03	12.9558	14.457846	0.000279	2.791962	0.945942	-2.199078
  36	3.5000e-03	12.2371	12.753925	0.000216	2.163308	0.732949	-1.703921
  37	3.6000e-03	11.4253	10.816988	0.000246	2.459145	0.833181	-1.936936
  38	3.7000e-03	10.6104	8.657960	0.000274	2.741115	0.928715	-2.159029
  39	3.8000e-03	9.8083	6.517135	0.000272	2.718002	0.920884	-2.140824
  40	3.9000e-03	9.0110	4.387234	0.000270	2.704135	0.916186	-2.129902
  41	4.0000e-03	8.1944	2.268254	0.000269	2.690268	0.911487	-2.118979
  42	4.1000e-03	7.4196	-0.225733	0.000317	3.166380	1.072799	-2.493988
  43	4.2000e-03	6.5854	-2.708798	0.000315	3.152513	1.068100	-2.483065
  44	4.3000e-03	5.8571	-5.322934	0.000332	3.318921	1.124481	-2.614136
  45	4.4000e-03	5.0517	-7.598470	0.000289	2.889033	0.978831	-2.275536
  46	4.5000e-03	4.2207	-10.249014	0.000337	3.365146	1.140142	-2.650544
  47	4.6000e-03	3.4491	-13.092524	0.000361	3.610136	1.223147	-2.843510
  48	4.7000e-03	2.6550	-15.804963	0.000344	3.443728	1.166766	-2.712439
  49	4.8000e-03	1.8641	-18.604783	0.000355	3.554666	1.204354	-2.799820
  50	4.9000e-03	1.0331	-21.721357	0.000396	3.956820	1.340607	-3.116574
  51	5.0000e-03	0.2471	-24.867058	0.000396	3.956820	1.340607	-3.145701

PMax (uC/cm2):	5.88e+01
Pr (uC/cm2):	4.66e+00
-Pr (uC/cm2):	0.00e+00
PLoss (uC/cm2):	0.00e+00
C (Max-Eff) (nF):	2.96e-01
K (Eff):	1.00e+03
Vert. (+/-Pr) Shift (uC/cm2):	2.33e+00
Offset (uC/cm2):	2.95e+01

A (Loop Area - uC/cm2·Volts):	-1.90e+00



Hysteresis Version: 5.48.1 - Radiant Technologies, Inc., 1999 - 9/12/24

