»»»»»»»»»»»»»»»»»»»»»»»»»»»»»»»»»»»» Hysteresis ««««««««««««««««««««««««««««««««««««
»»»  Executed Version:	5.48.1
»»»  Vision Version:	5.48.4 (R)
»»»  Vision Compiled:	9/18/24
»»»  Driver Version:	5.47.0
»»»  Windows Version:	Windows 8 or 8.1
»»»  Processor Information:	x86 (AMD or Intel) - 32 Processors
»»»  Tester Name:	PMF21124-494 (100V)
»»»  Tester S/N:	PMF21124-494
»»»  Internal Amp Type:	100V RevK 270k
»»»  Internal Amp S/N:	iAB2-596/K     
»»»  Execution Count:	1
»»»»»»»»»»»»»»»»»»»»»»»»»»»»»»»»»»»»»»»»»»««««««««««««««««««««««««««««««««««««««««««

Stored:	10/10/2025 - 18:12:4
Configured:	10/10/25 10:37:25 AM
Executed:	10/10/25 06:10:40 PM

»»»»»»»»»»»»»»»»»»»»»»»»»»»»»»»»»»» Sample Info ««««««««««««««««««««««««««««««««««««
Sample Name:	Int. Ref. Ferroelectric
Lot Name:	N/A
Wafer Name:	N/A
Die Row/Column:	0/0
Capacitor Number:	0
Sample Area (cm2):	1.00e-04
Sample Thickness (microns):	3.00e-01

Amplifier:	Internal

»»»»»»»»»»»»»»»»»»»»»»»»»»»»»»»»»»» Tester Info «««««««««««««««««««««««««««««««««««
Tester Name:	PMF21124-494 (100V)
Tester Serial Number:	PMF21124-494
Return Signal Amp. Level:	0.2 [Index: 1]

»»»»»»»»»»»»»»»»»»»»»»»»»»»»»»»» Hysteresis Info ««««««««««««««««««««««««««««««««««
Task Name:	'
Volts:	20.00
Field:	666.67 (kV/cm)
DCBias:	0.00
DCField:	0.00 (kV/cm)
Hysteresis Period (ms):	5.00e-03
Preset:	DisabledProfile:	Standard Monopolar

»»»»»»»»»»»»»»»»»»»»»»»»»»»»»»»»»»»»»» Data «««««««««««««««««««««««««««««««««««««««
Points:	51

Valid Data

Point	Time (ms)	Drive Voltage	Measured Polarization (uC/cm2)	Capacitance (uF)	Normalized Capacitance (uF/cm2)	Dielectric Constant	Instantaneous Current (mA)
   1	0.0000e+00	0.0866	-27.499398	0.000040	0.397742	0.134758	0.313114
   2	1.0000e-04	0.6321	-27.186284	0.000040	0.397742	0.134758	0.313114
   3	2.0000e-04	1.6171	-25.522412	0.000211	2.113580	0.716100	1.663872
   4	3.0000e-04	2.2395	-22.959249	0.000326	3.255931	1.103139	2.563164
   5	4.0000e-04	3.0240	-18.706727	0.000540	5.401886	1.830208	4.252522
   6	5.0000e-04	3.8149	-17.727336	0.000124	1.244099	0.421512	0.979391
   7	6.0000e-04	4.6362	-15.018538	0.000344	3.440927	1.165818	2.708798
   8	7.0000e-04	5.3950	-12.735720	0.000290	2.899814	0.982483	2.282818
   9	8.0000e-04	6.2228	-9.884929	0.000362	3.621298	1.226929	2.850792
  10	9.0000e-04	7.0650	-5.508618	0.000556	5.559132	1.883485	4.376311
  11	1.0000e-03	7.8030	-4.489178	0.000129	1.294973	0.438749	1.019440
  12	1.1000e-03	8.6340	-2.122620	0.000301	3.006186	1.018524	2.366558
  13	1.2000e-03	9.4441	0.040049	0.000275	2.747192	0.930774	2.162669
  14	1.3000e-03	10.2430	2.657826	0.000333	3.325305	1.126644	2.617777
  15	1.4000e-03	11.0580	6.211303	0.000451	4.513905	1.529352	3.553477
  16	1.5000e-03	11.8200	7.434631	0.000155	1.553967	0.526498	1.223328
  17	1.6000e-03	12.6349	9.469871	0.000259	2.585320	0.875930	2.035239
  18	1.7000e-03	13.4772	11.479624	0.000255	2.552946	0.864962	2.009753
  19	1.8000e-03	14.2231	13.605885	0.000270	2.700943	0.915104	2.126261
  20	1.9000e-03	15.0525	16.449395	0.000361	3.612049	1.223795	2.843510
  21	2.0000e-03	15.8466	17.734618	0.000163	1.632590	0.553137	1.285223
  22	2.1000e-03	16.6600	19.500434	0.000224	2.243078	0.759975	1.765816
  23	2.2000e-03	17.4396	21.106052	0.000204	2.039582	0.691029	1.605618
  24	2.3000e-03	18.2273	22.900995	0.000228	2.280077	0.772511	1.794943
  25	2.4000e-03	19.0807	25.340370	0.000310	3.098685	1.049863	2.439375
  26	2.5000e-03	19.8412	26.665642	0.000168	1.683464	0.570373	1.325272
  27	2.6000e-03	19.5428	27.499398	-0.000106	-1.059103	-0.358834	0.833756
  28	2.7000e-03	18.2979	25.970238	0.000194	1.942459	0.658123	-1.529160
  29	2.8000e-03	17.7460	24.124323	0.000234	2.344825	0.794448	-1.845915
  30	2.9000e-03	17.0097	22.777206	0.000171	1.711214	0.579775	-1.347117
  31	3.0000e-03	16.1225	21.768688	0.000128	1.281098	0.434048	-1.008518
  32	3.1000e-03	15.3942	19.999231	0.000225	2.247702	0.761542	-1.769457
  33	3.2000e-03	14.6130	18.557452	0.000183	1.831461	0.620516	-1.441780
  34	3.3000e-03	13.7932	16.817122	0.000221	2.210703	0.749007	-1.740330
  35	3.4000e-03	12.9606	14.177500	0.000335	3.353054	1.136045	-2.639622
  36	3.5000e-03	12.2194	13.518505	0.000084	0.837107	0.283620	-0.658995
  37	3.6000e-03	11.4061	11.632540	0.000240	2.395699	0.811685	-1.885964
  38	3.7000e-03	10.5735	9.866724	0.000224	2.243078	0.759975	-1.765816
  39	3.8000e-03	9.8067	7.791435	0.000264	2.636194	0.893167	-2.075289
  40	3.9000e-03	9.0094	4.831418	0.000376	3.760046	1.273938	-2.960017
  41	4.0000e-03	8.2121	3.961253	0.000111	1.105352	0.374503	-0.870165
  42	4.1000e-03	7.3859	1.769457	0.000278	2.784191	0.943309	-2.191796
  43	4.2000e-03	6.5774	-0.316755	0.000265	2.650069	0.897868	-2.086211
  44	4.3000e-03	5.8410	-2.668749	0.000299	2.987687	1.012256	-2.351994
  45	4.4000e-03	5.0196	-6.302325	0.000462	4.615652	1.563825	-3.633576
  46	4.5000e-03	4.2175	-7.136081	0.000106	1.059103	0.358834	-0.833756
  47	4.6000e-03	3.4170	-9.761139	0.000333	3.334555	1.129778	-2.625058
  48	4.7000e-03	2.6518	-12.036676	0.000289	2.890564	0.979350	-2.275536
  49	4.8000e-03	1.8368	-14.778241	0.000348	3.482551	1.179920	-2.741566
  50	4.9000e-03	1.0251	-19.267419	0.000570	5.702504	1.932061	-4.489178
  51	5.0000e-03	0.2342	-20.053844	0.000570	5.702504	1.932061	-0.786425

PMax (uC/cm2):	5.41e+01
Pr (uC/cm2):	7.42e+00
-Pr (uC/cm2):	0.00e+00
PLoss (uC/cm2):	0.00e+00
C (Max-Eff) (nF):	2.73e-01
K (Eff):	9.24e+02
Vert. (+/-Pr) Shift (uC/cm2):	3.71e+00
Offset (uC/cm2):	2.75e+01

A (Loop Area - uC/cm2·Volts):	-4.96e+00



Hysteresis Version: 5.48.1 - Radiant Technologies, Inc., 1999 - 9/12/24

