»»»»»»»»»»»»»»»»»»»»»»»»»»»»»»»»»»»» Hysteresis ««««««««««««««««««««««««««««««««««««
»»»  Executed Version:	5.48.1
»»»  Vision Version:	5.48.4 (R)
»»»  Vision Compiled:	9/18/24
»»»  Driver Version:	5.47.0
»»»  Windows Version:	Windows 8 or 8.1
»»»  Processor Information:	x86 (AMD or Intel) - 32 Processors
»»»  Tester Name:	PMF21124-494 (100V)
»»»  Tester S/N:	PMF21124-494
»»»  Internal Amp Type:	100V RevK 270k
»»»  Internal Amp S/N:	iAB2-596/K     
»»»  Execution Count:	1
»»»»»»»»»»»»»»»»»»»»»»»»»»»»»»»»»»»»»»»»»»««««««««««««««««««««««««««««««««««««««««««

Stored:	10/10/2025 - 18:7:25
Configured:	10/10/25 10:37:25 AM
Executed:	10/10/25 06:05:59 PM

»»»»»»»»»»»»»»»»»»»»»»»»»»»»»»»»»»» Sample Info ««««««««««««««««««««««««««««««««««««
Sample Name:	Int. Ref. Ferroelectric
Lot Name:	N/A
Wafer Name:	N/A
Die Row/Column:	0/0
Capacitor Number:	0
Sample Area (cm2):	1.00e-04
Sample Thickness (microns):	3.00e-01

Amplifier:	Internal

»»»»»»»»»»»»»»»»»»»»»»»»»»»»»»»»»»» Tester Info «««««««««««««««««««««««««««««««««««
Tester Name:	PMF21124-494 (100V)
Tester Serial Number:	PMF21124-494
Return Signal Amp. Level:	0.2 [Index: 1]

»»»»»»»»»»»»»»»»»»»»»»»»»»»»»»»» Hysteresis Info ««««««««««««««««««««««««««««««««««
Task Name:	'
Volts:	20.00
Field:	666.67 (kV/cm)
DCBias:	0.00
DCField:	0.00 (kV/cm)
Hysteresis Period (ms):	5.00e-03
Preset:	DisabledProfile:	Standard Monopolar

»»»»»»»»»»»»»»»»»»»»»»»»»»»»»»»»»»»»»» Data «««««««««««««««««««««««««««««««««««««««
Points:	51

Valid Data

Point	Time (ms)	Drive Voltage	Measured Polarization (uC/cm2)	Capacitance (uF)	Normalized Capacitance (uF/cm2)	Dielectric Constant	Instantaneous Current (mA)
   1	0.0000e+00	0.0674	-36.505060	0.000051	0.505247	0.171182	0.396853
   2	1.0000e-04	0.6497	-36.108206	0.000051	0.505247	0.171182	0.396853
   3	2.0000e-04	1.5385	-32.867843	0.000413	4.125411	1.397727	3.240363
   4	3.0000e-04	2.0919	-28.964843	0.000497	4.969034	1.683554	3.902999
   5	4.0000e-04	2.9341	-25.112816	0.000490	4.904140	1.661568	3.852027
   6	5.0000e-04	3.7844	-21.380937	0.000475	4.751175	1.609742	3.731879
   7	6.0000e-04	4.5817	-17.754643	0.000462	4.616752	1.564198	3.626294
   8	7.0000e-04	5.3646	-14.576174	0.000405	4.046611	1.371029	3.178469
   9	8.0000e-04	6.1972	-11.364937	0.000409	4.088328	1.385163	3.211236
  10	9.0000e-04	7.0137	-8.110011	0.000414	4.143952	1.404009	3.254927
  11	1.0000e-03	7.7677	-4.592942	0.000448	4.477693	1.517083	3.517069
  12	1.1000e-03	8.5859	-1.607439	0.000380	3.800940	1.287793	2.985503
  13	1.2000e-03	9.4409	1.520058	0.000398	3.981716	1.349042	3.127497
  14	1.3000e-03	10.2029	4.571097	0.000388	3.884375	1.316062	3.051039
  15	1.4000e-03	10.9633	7.458297	0.000368	3.675787	1.245390	2.887200
  16	1.5000e-03	11.8072	10.614921	0.000402	4.018799	1.361606	3.156624
  17	1.6000e-03	12.6285	13.265465	0.000337	3.374493	1.143309	2.650544
  18	1.7000e-03	13.4579	16.047080	0.000354	3.541364	1.199846	2.781615
  19	1.8000e-03	14.2135	18.511941	0.000314	3.138093	1.063215	2.464861
  20	1.9000e-03	15.0044	20.812963	0.000293	2.929505	0.992543	2.301022
  21	2.0000e-03	15.8402	23.798466	0.000380	3.800940	1.287793	2.985503
  22	2.1000e-03	16.6359	26.124974	0.000296	2.961952	1.003537	2.326508
  23	2.2000e-03	17.4204	28.371384	0.000286	2.859976	0.968986	2.246409
  24	2.3000e-03	18.2177	30.526771	0.000274	2.744093	0.929724	2.155388
  25	2.4000e-03	19.0406	32.671237	0.000273	2.730187	0.925013	2.144465
  26	2.5000e-03	19.8171	35.376394	0.000344	3.444023	1.166866	2.705157
  27	2.6000e-03	19.5765	36.505060	-0.000144	-1.436941	-0.486849	1.128666
  28	2.7000e-03	18.3235	33.097217	0.000434	4.338634	1.469969	-3.407843
  29	2.8000e-03	17.7974	30.002488	0.000394	3.939999	1.334908	-3.094729
  30	2.9000e-03	17.0097	29.318007	0.000087	0.871435	0.295250	-0.684481
  31	3.0000e-03	16.1642	27.512141	0.000230	2.299105	0.778958	-1.805865
  32	3.1000e-03	15.3974	24.854315	0.000338	3.383764	1.146450	-2.657826
  33	3.2000e-03	14.6001	22.899174	0.000249	2.489152	0.843348	-1.955141
  34	3.3000e-03	13.8429	20.670970	0.000284	2.836799	0.961134	-2.228205
  35	3.4000e-03	12.9943	18.286208	0.000304	3.036117	1.028664	-2.384762
  36	3.5000e-03	12.2403	16.141743	0.000273	2.730187	0.925013	-2.144465
  37	3.6000e-03	11.4253	13.611346	0.000322	3.221528	1.091483	-2.530396
  38	3.7000e-03	10.6296	10.953520	0.000338	3.383764	1.146450	-2.657826
  39	3.8000e-03	9.8436	8.306617	0.000337	3.369858	1.141739	-2.646904
  40	3.9000e-03	9.0382	5.707044	0.000331	3.309599	1.121323	-2.599572
  41	4.0000e-03	8.2281	3.285874	0.000308	3.082470	1.044369	-2.421170
  42	4.1000e-03	7.4164	0.136532	0.000401	4.009528	1.358465	-3.149342
  43	4.2000e-03	6.6191	-2.932711	0.000391	3.907552	1.323914	-3.069243
  44	4.3000e-03	5.8843	-5.929137	0.000381	3.814846	1.292505	-2.996426
  45	4.4000e-03	5.0726	-8.674343	0.000350	3.495011	1.184142	-2.745207
  46	4.5000e-03	4.2592	-11.758150	0.000393	3.926093	1.330196	-3.083806
  47	4.6000e-03	3.4587	-15.522797	0.000479	4.792893	1.623876	-3.764647
  48	4.7000e-03	2.6839	-18.868745	0.000426	4.259834	1.443271	-3.345948
  49	4.8000e-03	1.8721	-22.363968	0.000445	4.449881	1.507661	-3.495223
  50	4.9000e-03	1.0941	-25.731762	0.000429	4.287646	1.452694	-3.367793
  51	5.0000e-03	0.2936	-29.165091	0.000429	4.287646	1.452694	-3.433329

PMax (uC/cm2):	7.19e+01
Pr (uC/cm2):	7.35e+00
-Pr (uC/cm2):	0.00e+00
PLoss (uC/cm2):	0.00e+00
C (Max-Eff) (nF):	3.63e-01
K (Eff):	1.23e+03
Vert. (+/-Pr) Shift (uC/cm2):	3.68e+00
Offset (uC/cm2):	3.65e+01

A (Loop Area - uC/cm2·Volts):	-3.98e+00



Hysteresis Version: 5.48.1 - Radiant Technologies, Inc., 1999 - 9/12/24

