»»»»»»»»»»»»»»»»»»»»»»»»»»»»»»»»»»»» Hysteresis ««««««««««««««««««««««««««««««««««««
»»»  Executed Version:	5.48.1
»»»  Vision Version:	5.48.4 (R)
»»»  Vision Compiled:	9/18/24
»»»  Driver Version:	5.47.0
»»»  Windows Version:	Windows 8 or 8.1
»»»  Processor Information:	x86 (AMD or Intel) - 32 Processors
»»»  Tester Name:	PMF21124-494 (100V)
»»»  Tester S/N:	PMF21124-494
»»»  Internal Amp Type:	100V RevK 270k
»»»  Internal Amp S/N:	iAB2-596/K     
»»»  Execution Count:	1
»»»»»»»»»»»»»»»»»»»»»»»»»»»»»»»»»»»»»»»»»»««««««««««««««««««««««««««««««««««««««««««

Stored:	10/10/2025 - 18:54:42
Configured:	10/10/25 10:37:25 AM
Executed:	10/10/25 06:53:52 PM

»»»»»»»»»»»»»»»»»»»»»»»»»»»»»»»»»»» Sample Info ««««««««««««««««««««««««««««««««««««
Sample Name:	Int. Ref. Ferroelectric
Lot Name:	N/A
Wafer Name:	N/A
Die Row/Column:	0/0
Capacitor Number:	0
Sample Area (cm2):	1.00e-04
Sample Thickness (microns):	3.00e-01

Amplifier:	Internal

»»»»»»»»»»»»»»»»»»»»»»»»»»»»»»»»»»» Tester Info «««««««««««««««««««««««««««««««««««
Tester Name:	PMF21124-494 (100V)
Tester Serial Number:	PMF21124-494
Return Signal Amp. Level:	1.9 [Index: 2]

»»»»»»»»»»»»»»»»»»»»»»»»»»»»»»»» Hysteresis Info ««««««««««««««««««««««««««««««««««
Task Name:	'
Volts:	20.00
Field:	666.67 (kV/cm)
DCBias:	0.00
DCField:	0.00 (kV/cm)
Hysteresis Period (ms):	1.00e+02
Preset:	DisabledProfile:	Standard Monopolar

»»»»»»»»»»»»»»»»»»»»»»»»»»»»»»»»»»»»»» Data «««««««««««««««««««««««««««««««««««««««
Points:	2001

Valid Data

Point	Time (ms)	Drive Voltage	Measured Polarization (uC/cm2)	Capacitance (uF)	Normalized Capacitance (uF/cm2)	Dielectric Constant	Instantaneous Current (mA)
   1	0.0000e+00	0.0321	-21.055536	-0.000061	-0.606430	-0.205464	0.000026
   2	5.0000e-02	0.0321	-21.042502	-0.000061	-0.606430	-0.205464	0.000026
   3	1.0000e-01	0.0578	-20.993620	0.000227	2.274111	0.770490	0.000098
   4	1.5000e-01	0.0818	-20.951664	0.000195	1.951945	0.661337	0.000084
   5	2.0000e-01	0.0898	-20.903190	0.000226	2.255160	0.764069	0.000097
   6	2.5000e-01	0.1139	-20.855939	0.000220	2.198307	0.744807	0.000095
   7	3.0000e-01	0.1380	-20.806243	0.000231	2.312013	0.783331	0.000099
   8	3.5000e-01	0.1460	-20.760620	0.000212	2.122503	0.719124	0.000091
   9	4.0000e-01	0.1733	-20.714591	0.000214	2.141454	0.725544	0.000092
  10	4.5000e-01	0.1781	-20.664080	0.000235	2.349915	0.796173	0.000101
  11	5.0000e-01	0.2198	-20.619680	0.000207	2.065651	0.699861	0.000089
  12	5.5000e-01	0.2422	-20.574058	0.000212	2.122503	0.719124	0.000091
  13	6.0000e-01	0.2775	-20.529657	0.000207	2.065651	0.699861	0.000089
  14	6.5000e-01	0.2856	-20.478739	0.000237	2.368866	0.802593	0.000102
  15	7.0000e-01	0.3096	-20.428636	0.000233	2.330964	0.789752	0.000100
  16	7.5000e-01	0.3369	-20.372423	0.000262	2.615228	0.886063	0.000112
  17	8.0000e-01	0.3529	-20.326801	0.000212	2.122503	0.719124	0.000091
  18	8.5000e-01	0.3770	-20.286474	0.000188	1.876141	0.635654	0.000081
  19	9.0000e-01	0.3978	-20.248184	0.000178	1.781387	0.603550	0.000077
  20	9.5000e-01	0.4075	-20.205005	0.000201	2.008798	0.680599	0.000086
  21	1.0000e+00	0.4556	-20.162642	0.000197	1.970896	0.667758	0.000085
  22	1.0500e+00	0.4588	-20.112538	0.000233	2.330964	0.789752	0.000100
  23	1.1000e+00	0.4556	-20.068138	-0.000207	-2.065651	-0.699861	0.000089
  24	1.1500e+00	0.4813	-20.016813	0.000239	2.387816	0.809014	0.000103
  25	1.2000e+00	0.5150	-19.977708	0.000182	1.819289	0.616392	0.000078
  26	1.2500e+00	0.5182	-19.926383	0.000239	2.387816	0.809014	0.000103
  27	1.3000e+00	0.5470	-19.879946	0.000216	2.160405	0.731965	0.000093
  28	1.3500e+00	0.5663	-19.836360	0.000203	2.027749	0.687020	0.000087
  29	1.4000e+00	0.5823	-19.788294	0.000224	2.236209	0.757648	0.000096
  30	1.4500e+00	0.6000	-19.747967	0.000188	1.876141	0.635654	0.000081
  31	1.5000e+00	0.6289	-19.699493	0.000226	2.255160	0.764069	0.000097
  32	1.5500e+00	0.6385	-19.652241	0.000220	2.198307	0.744807	0.000095
  33	1.6000e+00	0.6882	-19.607434	0.000208	2.084602	0.706282	0.000090
  34	1.6500e+00	0.6978	-19.557738	0.000231	2.312013	0.783331	0.000099
  35	1.7000e+00	0.7075	-19.512523	0.000210	2.103553	0.712703	0.000090
  36	1.7500e+00	0.7107	-19.468123	0.000207	2.065651	0.699861	0.000089
  37	1.8000e+00	0.7379	-19.420871	0.000220	2.198307	0.744807	0.000095
  38	1.8500e+00	0.7524	-19.374026	0.000218	2.179356	0.738386	0.000094
  39	1.9000e+00	0.7700	-19.322294	0.000241	2.406767	0.815435	0.000103
  40	1.9500e+00	0.8101	-19.277079	0.000210	2.103553	0.712703	0.000090
  41	2.0000e+00	0.8358	-19.234308	0.000199	1.989847	0.674178	0.000086
  42	2.0500e+00	0.8294	-19.184205	-0.000233	-2.330964	-0.789752	0.000100
  43	2.1000e+00	0.8663	-19.141026	0.000201	2.008798	0.680599	0.000086
  44	2.1500e+00	0.8920	-19.092145	0.000227	2.274111	0.770490	0.000098
  45	2.2000e+00	0.9016	-19.042450	0.000231	2.312013	0.783331	0.000099
  46	2.2500e+00	0.9112	-19.000086	0.000197	1.970896	0.667758	0.000085
  47	2.3000e+00	0.9337	-18.951205	0.000227	2.274111	0.770490	0.000098
  48	2.3500e+00	0.9449	-18.904360	0.000218	2.179356	0.738386	0.000094
  49	2.4000e+00	0.9609	-18.857923	0.000216	2.160405	0.731965	0.000093
  50	2.4500e+00	0.9898	-18.806598	0.000239	2.387816	0.809014	0.000103
  51	2.5000e+00	1.0155	-18.763827	0.000199	1.989847	0.674178	0.000086
  52	2.5500e+00	1.0652	-18.705577	0.000271	2.709982	0.918167	0.000116
  53	2.6000e+00	1.0652	-18.659548	-0.000214	-2.141454	-0.725544	0.000092
  54	2.6500e+00	1.0748	-18.621257	0.000178	1.781387	0.603550	0.000077
  55	2.7000e+00	1.1133	-18.580116	0.000191	1.914043	0.648495	0.000082
  56	2.7500e+00	1.1486	-18.532457	0.000222	2.217258	0.751227	0.000095
  57	2.8000e+00	1.1599	-18.490908	0.000193	1.932994	0.654916	0.000083
  58	2.8500e+00	1.1695	-18.444063	0.000218	2.179356	0.738386	0.000094
  59	2.9000e+00	1.1823	-18.390702	0.000248	2.482571	0.841118	0.000107
  60	2.9500e+00	1.2272	-18.343450	0.000220	2.198307	0.744807	0.000095
  61	3.0000e+00	1.2224	-18.296198	-0.000220	-2.198307	-0.744807	0.000095
  62	3.0500e+00	1.2641	-18.250168	0.000214	2.141454	0.725544	0.000092
  63	3.1000e+00	1.2657	-18.200473	0.000231	2.312013	0.783331	0.000099
  64	3.1500e+00	1.2802	-18.154035	0.000216	2.160405	0.731965	0.000093
  65	3.2000e+00	1.3058	-18.099044	0.000256	2.558375	0.866801	0.000110
  66	3.2500e+00	1.3315	-18.047312	0.000241	2.406767	0.815435	0.000103
  67	3.3000e+00	1.3379	-18.001689	0.000212	2.122503	0.719124	0.000091
  68	3.3500e+00	1.3668	-17.949957	0.000241	2.406767	0.815435	0.000103
  69	3.4000e+00	1.4005	-17.897817	0.000243	2.425718	0.821856	0.000104
  70	3.4500e+00	1.4133	-17.849343	0.000226	2.255160	0.764069	0.000097
  71	3.5000e+00	1.4230	-17.800870	0.000226	2.255160	0.764069	0.000097
  72	3.5500e+00	1.4390	-17.753210	0.000222	2.217258	0.751227	0.000095
  73	3.6000e+00	1.4550	-17.702293	0.000237	2.368866	0.802593	0.000102
  74	3.6500e+00	1.4727	-17.653411	0.000227	2.274111	0.770490	0.000098
  75	3.7000e+00	1.4967	-17.603716	0.000231	2.312013	0.783331	0.000099
  76	3.7500e+00	1.5032	-17.556464	0.000220	2.198307	0.744807	0.000095
  77	3.8000e+00	1.5272	-17.502287	0.000252	2.520473	0.853959	0.000108
  78	3.8500e+00	1.5561	-17.453406	0.000227	2.274111	0.770490	0.000098
  79	3.9000e+00	1.5625	-17.405340	0.000224	2.236209	0.757648	0.000096
  80	3.9500e+00	1.5994	-17.354829	0.000235	2.349915	0.796173	0.000101
  81	4.0000e+00	1.5962	-17.305541	-0.000229	-2.293062	-0.776910	0.000099
  82	4.0500e+00	1.6267	-17.253401	0.000243	2.425718	0.821856	0.000104
  83	4.1000e+00	1.6732	-17.205742	0.000222	2.217258	0.751227	0.000095
  84	4.1500e+00	1.6684	-17.155232	-0.000235	-2.349915	-0.796173	0.000101
  85	4.2000e+00	1.7021	-17.105943	0.000229	2.293062	0.776910	0.000099
  86	4.2500e+00	1.7149	-17.053396	0.000244	2.444669	0.828276	0.000105
  87	4.3000e+00	1.7566	-16.999219	0.000252	2.520473	0.853959	0.000108
  88	4.3500e+00	1.7647	-16.954819	0.000207	2.065651	0.699861	0.000089
  89	4.4000e+00	1.7871	-16.901864	0.000246	2.463620	0.834697	0.000106
  90	4.4500e+00	1.8096	-16.852983	0.000227	2.274111	0.770490	0.000098
  91	4.5000e+00	1.8385	-16.804917	0.000224	2.236209	0.757648	0.000096
  92	4.5500e+00	1.8609	-16.756443	0.000226	2.255160	0.764069	0.000097
  93	4.6000e+00	1.8737	-16.704303	0.000243	2.425718	0.821856	0.000104
  94	4.6500e+00	1.8914	-16.655422	0.000227	2.274111	0.770490	0.000098
  95	4.7000e+00	1.9187	-16.608171	0.000220	2.198307	0.744807	0.000095
  96	4.7500e+00	1.9491	-16.558067	0.000233	2.330964	0.789752	0.000100
  97	4.8000e+00	1.9363	-16.503076	-0.000256	-2.558375	-0.866801	0.000110
  98	4.8500e+00	1.9556	-16.455417	0.000222	2.217258	0.751227	0.000095
  99	4.9000e+00	1.9796	-16.411017	0.000207	2.065651	0.699861	0.000089
 100	4.9500e+00	2.0021	-16.356433	0.000254	2.539424	0.860380	0.000109
 101	5.0000e+00	2.0342	-16.307959	0.000226	2.255160	0.764069	0.000097
 102	5.0500e+00	2.0502	-16.253375	0.000254	2.539424	0.860380	0.000109
 103	5.1000e+00	2.0582	-16.201643	0.000241	2.406767	0.815435	0.000103
 104	5.1500e+00	2.0839	-16.151132	0.000235	2.349915	0.796173	0.000101
 105	5.2000e+00	2.0951	-16.103066	0.000224	2.236209	0.757648	0.000096
 106	5.2500e+00	2.1304	-16.053777	0.000229	2.293062	0.776910	0.000099
 107	5.3000e+00	2.1433	-16.002452	0.000239	2.387816	0.809014	0.000103
 108	5.3500e+00	2.1689	-15.948683	0.000250	2.501522	0.847539	0.000108
 109	5.4000e+00	2.1818	-15.897358	0.000239	2.387816	0.809014	0.000103
 110	5.4500e+00	2.2026	-15.850921	0.000216	2.160405	0.731965	0.000093
 111	5.5000e+00	2.2026	-15.799188	-0.000241	-2.406767	-0.815435	0.000103
 112	5.5500e+00	2.2556	-15.746234	0.000246	2.463620	0.834697	0.000106
 113	5.6000e+00	2.2572	-15.696945	0.000229	2.293062	0.776910	0.000099
 114	5.6500e+00	2.2908	-15.640732	0.000262	2.615228	0.886063	0.000112
 115	5.7000e+00	2.3069	-15.596332	0.000207	2.065651	0.699861	0.000089
 116	5.7500e+00	2.3165	-15.544192	0.000243	2.425718	0.821856	0.000104
 117	5.8000e+00	2.3310	-15.493681	0.000235	2.349915	0.796173	0.000101
 118	5.8500e+00	2.3390	-15.441949	0.000241	2.406767	0.815435	0.000103
 119	5.9000e+00	2.3855	-15.392253	0.000231	2.312013	0.783331	0.000099
 120	5.9500e+00	2.3983	-15.342150	0.000233	2.330964	0.789752	0.000100
 121	6.0000e+00	2.4224	-15.290010	0.000243	2.425718	0.821856	0.000104
 122	6.0500e+00	2.4465	-15.240314	0.000231	2.312013	0.783331	0.000099
 123	6.1000e+00	2.4545	-15.184101	0.000262	2.615228	0.886063	0.000112
 124	6.1500e+00	2.4769	-15.131146	0.000246	2.463620	0.834697	0.000106
 125	6.2000e+00	2.5154	-15.085117	0.000214	2.141454	0.725544	0.000092
 126	6.2500e+00	2.5395	-15.035014	0.000233	2.330964	0.789752	0.000100
 127	6.3000e+00	2.5523	-14.986947	0.000224	2.236209	0.757648	0.000096
 128	6.3500e+00	2.5780	-14.935622	0.000239	2.387816	0.809014	0.000103
 129	6.4000e+00	2.5924	-14.884704	0.000237	2.368866	0.802593	0.000102
 130	6.4500e+00	2.6229	-14.831342	0.000248	2.482571	0.841118	0.000107
 131	6.5000e+00	2.6101	-14.780017	-0.000239	-2.387816	-0.809014	0.000103
 132	6.5500e+00	2.6342	-14.732765	0.000220	2.198307	0.744807	0.000095
 133	6.6000e+00	2.6710	-14.680626	0.000243	2.425718	0.821856	0.000104
 134	6.6500e+00	2.6775	-14.626042	0.000254	2.539424	0.860380	0.000109
 135	6.7000e+00	2.7015	-14.574716	0.000239	2.387816	0.809014	0.000103
 136	6.7500e+00	2.7015	-14.524613	-0.000233	-2.330964	-0.789752	0.000100
 137	6.8000e+00	2.7384	-14.470844	0.000250	2.501522	0.847539	0.000108
 138	6.8500e+00	2.7609	-14.417075	0.000250	2.501522	0.847539	0.000108
 139	6.9000e+00	2.7753	-14.371860	0.000210	2.103553	0.712703	0.000090
 140	6.9500e+00	2.7930	-14.314425	0.000267	2.672080	0.905325	0.000115
 141	7.0000e+00	2.8026	-14.262285	0.000243	2.425718	0.821856	0.000104
 142	7.0500e+00	2.8523	-14.217884	0.000207	2.065651	0.699861	0.000089
 143	7.1000e+00	2.8620	-14.160449	0.000267	2.672080	0.905325	0.000115
 144	7.1500e+00	2.8796	-14.111161	0.000229	2.293062	0.776910	0.000099
 145	7.2000e+00	2.9037	-14.058206	0.000246	2.463620	0.834697	0.000106
 146	7.2500e+00	2.9181	-14.006066	0.000243	2.425718	0.821856	0.000104
 147	7.3000e+00	2.9309	-13.956370	0.000231	2.312013	0.783331	0.000099
 148	7.3500e+00	2.9630	-13.904638	0.000241	2.406767	0.815435	0.000103
 149	7.4000e+00	2.9807	-13.852091	0.000244	2.444669	0.828276	0.000105
 150	7.4500e+00	2.9903	-13.797914	0.000252	2.520473	0.853959	0.000108
 151	7.5000e+00	2.9983	-13.749848	0.000224	2.236209	0.757648	0.000096
 152	7.5500e+00	3.0111	-13.702189	0.000222	2.217258	0.751227	0.000095
 153	7.6000e+00	3.0577	-13.647198	0.000256	2.558375	0.866801	0.000110
 154	7.6500e+00	3.0817	-13.596280	0.000237	2.368866	0.802593	0.000102
 155	7.7000e+00	3.0881	-13.541696	0.000254	2.539424	0.860380	0.000109
 156	7.7500e+00	3.1026	-13.491593	0.000233	2.330964	0.789752	0.000100
 157	7.8000e+00	3.1299	-13.442712	0.000227	2.274111	0.770490	0.000098
 158	7.8500e+00	3.1619	-13.390164	0.000244	2.444669	0.828276	0.000105
 159	7.9000e+00	3.1844	-13.349023	0.000191	1.914043	0.648495	0.000082
 160	7.9500e+00	3.2053	-13.290773	0.000271	2.709982	0.918167	0.000116
 161	8.0000e+00	3.2165	-13.239448	0.000239	2.387816	0.809014	0.000103
 162	8.0500e+00	3.2486	-13.184864	0.000254	2.539424	0.860380	0.000109
 163	8.1000e+00	3.2646	-13.133946	0.000237	2.368866	0.802593	0.000102
 164	8.1500e+00	3.3031	-13.076918	0.000265	2.653129	0.898905	0.000114
 165	8.2000e+00	3.2967	-13.023963	-0.000246	-2.463620	-0.834697	0.000106
 166	8.2500e+00	3.3272	-12.974675	0.000229	2.293062	0.776910	0.000099
 167	8.3000e+00	3.3496	-12.922535	0.000243	2.425718	0.821856	0.000104
 168	8.3500e+00	3.3769	-12.878135	0.000207	2.065651	0.699861	0.000089
 169	8.4000e+00	3.3913	-12.823551	0.000254	2.539424	0.860380	0.000109
 170	8.4500e+00	3.4074	-12.771004	0.000244	2.444669	0.828276	0.000105
 171	8.5000e+00	3.4250	-12.717234	0.000250	2.501522	0.847539	0.000108
 172	8.5500e+00	3.4587	-12.668761	0.000226	2.255160	0.764069	0.000097
 173	8.6000e+00	3.4732	-12.620694	0.000224	2.236209	0.757648	0.000096
 174	8.6500e+00	3.5020	-12.568554	0.000243	2.425718	0.821856	0.000104
 175	8.7000e+00	3.5085	-12.515193	0.000248	2.482571	0.841118	0.000107
 176	8.7500e+00	3.5213	-12.463460	0.000241	2.406767	0.815435	0.000103
 177	8.8000e+00	3.5293	-12.418652	0.000208	2.084602	0.706282	0.000090
 178	8.8500e+00	3.5662	-12.366920	0.000241	2.406767	0.815435	0.000103
 179	8.9000e+00	3.5903	-12.313558	0.000248	2.482571	0.841118	0.000107
 180	8.9500e+00	3.6031	-12.264270	0.000229	2.293062	0.776910	0.000099
 181	9.0000e+00	3.6304	-12.206834	0.000267	2.672080	0.905325	0.000115
 182	9.0500e+00	3.6609	-12.157953	0.000227	2.274111	0.770490	0.000098
 183	9.1000e+00	3.6593	-12.104591	-0.000248	-2.482571	-0.841118	0.000107
 184	9.1500e+00	3.6737	-12.054488	0.000233	2.330964	0.789752	0.000100
 185	9.2000e+00	3.6994	-11.999904	0.000254	2.539424	0.860380	0.000109
 186	9.2500e+00	3.7106	-11.955911	0.000205	2.046700	0.693441	0.000088
 187	9.3000e+00	3.7427	-11.899698	0.000262	2.615228	0.886063	0.000112
 188	9.3500e+00	3.7796	-11.845521	0.000252	2.520473	0.853959	0.000108
 189	9.4000e+00	3.7844	-11.797048	0.000226	2.255160	0.764069	0.000097
 190	9.4500e+00	3.7940	-11.742056	0.000256	2.558375	0.866801	0.000110
 191	9.5000e+00	3.8277	-11.688287	0.000250	2.501522	0.847539	0.000108
 192	9.5500e+00	3.8213	-11.639813	-0.000226	-2.255160	-0.764069	0.000097
 193	9.6000e+00	3.8550	-11.586452	0.000248	2.482571	0.841118	0.000107
 194	9.6500e+00	3.8710	-11.541644	0.000208	2.084602	0.706282	0.000090
 195	9.7000e+00	3.8951	-11.490726	0.000237	2.368866	0.802593	0.000102
 196	9.7500e+00	3.9207	-11.432476	0.000271	2.709982	0.918167	0.000116
 197	9.8000e+00	3.9544	-11.371782	0.000282	2.823688	0.956691	0.000121
 198	9.8500e+00	3.9689	-11.312717	0.000275	2.747884	0.931008	0.000118
 199	9.9000e+00	3.9833	-11.256504	0.000262	2.615228	0.886063	0.000112
 200	9.9500e+00	3.9945	-11.205179	0.000239	2.387816	0.809014	0.000103
 201	1.0000e+01	4.0298	-11.149373	0.000260	2.596277	0.879642	0.000112
 202	1.0050e+01	4.0587	-11.093567	0.000260	2.596277	0.879642	0.000112
 203	1.0100e+01	4.0731	-11.047945	0.000212	2.122503	0.719124	0.000091
 204	1.0150e+01	4.0683	-10.990102	-0.000269	-2.691031	-0.911746	0.000116
 205	1.0200e+01	4.1068	-10.945702	0.000207	2.065651	0.699861	0.000089
 206	1.0250e+01	4.1261	-10.889081	0.000263	2.634178	0.892484	0.000113
 207	1.0300e+01	4.1518	-10.835312	0.000250	2.501522	0.847539	0.000108
 208	1.0350e+01	4.1678	-10.783579	0.000241	2.406767	0.815435	0.000103
 209	1.0400e+01	4.1758	-10.727773	0.000260	2.596277	0.879642	0.000112
 210	1.0450e+01	4.1870	-10.679300	0.000226	2.255160	0.764069	0.000097
 211	1.0500e+01	4.2175	-10.625938	0.000248	2.482571	0.841118	0.000107
 212	1.0550e+01	4.2400	-10.574205	0.000241	2.406767	0.815435	0.000103
 213	1.0600e+01	4.2576	-10.525324	0.000227	2.274111	0.770490	0.000098
 214	1.0650e+01	4.2897	-10.467889	0.000267	2.672080	0.905325	0.000115
 215	1.0700e+01	4.3009	-10.420230	0.000222	2.217258	0.751227	0.000095
 216	1.0750e+01	4.2977	-10.366461	-0.000250	-2.501522	-0.847539	0.000108
 217	1.0800e+01	4.3443	-10.312691	0.000250	2.501522	0.847539	0.000108
 218	1.0850e+01	4.3362	-10.260552	-0.000243	-2.425718	-0.821856	0.000104
 219	1.0900e+01	4.3812	-10.206782	0.000250	2.501522	0.847539	0.000108
 220	1.0950e+01	4.4213	-10.152198	0.000254	2.539424	0.860380	0.000109
 221	1.1000e+01	4.4020	-10.101688	-0.000235	-2.349915	-0.796173	0.000101
 222	1.1050e+01	4.4325	-10.050363	0.000239	2.387816	0.809014	0.000103
 223	1.1100e+01	4.4453	-10.005962	0.000207	2.065651	0.699861	0.000089
 224	1.1150e+01	4.4678	-9.946083	0.000279	2.785786	0.943850	0.000120
 225	1.1200e+01	4.4838	-9.895980	0.000233	2.330964	0.789752	0.000100
 226	1.1250e+01	4.5352	-9.848321	0.000222	2.217258	0.751227	0.000095
 227	1.1300e+01	4.4999	-9.799032	-0.000229	-2.293062	-0.776910	0.000099
 228	1.1350e+01	4.5496	-9.753817	0.000210	2.103553	0.712703	0.000090
 229	1.1400e+01	4.5737	-9.701270	0.000244	2.444669	0.828276	0.000105
 230	1.1450e+01	4.6009	-9.658092	0.000201	2.008798	0.680599	0.000086
 231	1.1500e+01	4.6202	-9.606359	0.000241	2.406767	0.815435	0.000103
 232	1.1550e+01	4.6555	-9.549739	0.000263	2.634178	0.892484	0.000113
 233	1.1600e+01	4.6651	-9.490674	0.000275	2.747884	0.931008	0.000118
 234	1.1650e+01	4.6972	-9.438127	0.000244	2.444669	0.828276	0.000105
 235	1.1700e+01	4.6972	-9.381914	-0.000262	-2.615228	-0.886063	0.000112
 236	1.1750e+01	4.7517	-9.333847	0.000224	2.236209	0.757648	0.000096
 237	1.1800e+01	4.7485	-9.282115	-0.000241	-2.406767	-0.815435	0.000103
 238	1.1850e+01	4.7774	-9.233234	0.000227	2.274111	0.770490	0.000098
 239	1.1900e+01	4.7854	-9.185575	0.000222	2.217258	0.751227	0.000095
 240	1.1950e+01	4.8271	-9.132213	0.000248	2.482571	0.841118	0.000107
 241	1.2000e+01	4.8319	-9.080888	0.000239	2.387816	0.809014	0.000103
 242	1.2050e+01	4.8448	-9.029970	0.000237	2.368866	0.802593	0.000102
 243	1.2100e+01	4.8688	-8.982718	0.000220	2.198307	0.744807	0.000095
 244	1.2150e+01	4.8865	-8.935466	0.000220	2.198307	0.744807	0.000095
 245	1.2200e+01	4.8945	-8.882512	0.000246	2.463620	0.834697	0.000106
 246	1.2250e+01	4.9266	-8.832409	0.000233	2.330964	0.789752	0.000100
 247	1.2300e+01	4.9346	-8.788416	0.000205	2.046700	0.693441	0.000088
 248	1.2350e+01	4.9779	-8.739942	0.000226	2.255160	0.764069	0.000097
 249	1.2400e+01	4.9956	-8.689839	0.000233	2.330964	0.789752	0.000100
 250	1.2450e+01	5.0084	-8.634847	0.000256	2.558375	0.866801	0.000110
 251	1.2500e+01	5.0341	-8.585559	0.000229	2.293062	0.776910	0.000099
 252	1.2550e+01	5.0501	-8.544417	0.000191	1.914043	0.648495	0.000082
 253	1.2600e+01	5.0533	-8.492278	0.000243	2.425718	0.821856	0.000104
 254	1.2650e+01	5.0950	-8.438508	0.000250	2.501522	0.847539	0.000108
 255	1.2700e+01	5.0806	-8.390442	-0.000224	-2.236209	-0.757648	0.000096
 256	1.2750e+01	5.1303	-8.343597	0.000218	2.179356	0.738386	0.000094
 257	1.2800e+01	5.1319	-8.289828	0.000250	2.501522	0.847539	0.000108
 258	1.2850e+01	5.1785	-8.249501	0.000188	1.876141	0.635654	0.000081
 259	1.2900e+01	5.1785	-8.201028	-0.000226	-2.255160	-0.764069	0.000097
 260	1.2950e+01	5.2105	-8.146036	0.000256	2.558375	0.866801	0.000110
 261	1.3000e+01	5.2218	-8.095119	0.000237	2.368866	0.802593	0.000102
