»»»»»»»»»»»»»»»»»»»»»»»»»»»»»»»»»»»» Hysteresis ««««««««««««««««««««««««««««««««««««
»»»  Executed Version:	5.48.1
»»»  Vision Version:	5.48.4 (R)
»»»  Vision Compiled:	9/18/24
»»»  Driver Version:	5.47.0
»»»  Windows Version:	Windows 8 or 8.1
»»»  Processor Information:	x86 (AMD or Intel) - 32 Processors
»»»  Tester Name:	PMF21124-494 (100V)
»»»  Tester S/N:	PMF21124-494
»»»  Internal Amp Type:	100V RevK 270k
»»»  Internal Amp S/N:	iAB2-596/K     
»»»  Execution Count:	1
»»»»»»»»»»»»»»»»»»»»»»»»»»»»»»»»»»»»»»»»»»««««««««««««««««««««««««««««««««««««««««««

Stored:	10/10/2025 - 18:56:18
Configured:	10/10/25 10:37:25 AM
Executed:	10/10/25 06:54:53 PM

»»»»»»»»»»»»»»»»»»»»»»»»»»»»»»»»»»» Sample Info ««««««««««««««««««««««««««««««««««««
Sample Name:	Int. Ref. Ferroelectric
Lot Name:	N/A
Wafer Name:	N/A
Die Row/Column:	0/0
Capacitor Number:	0
Sample Area (cm2):	1.00e-04
Sample Thickness (microns):	3.00e-01

Amplifier:	Internal

»»»»»»»»»»»»»»»»»»»»»»»»»»»»»»»»»»» Tester Info «««««««««««««««««««««««««««««««««««
Tester Name:	PMF21124-494 (100V)
Tester Serial Number:	PMF21124-494
Return Signal Amp. Level:	0.2 [Index: 1]

»»»»»»»»»»»»»»»»»»»»»»»»»»»»»»»» Hysteresis Info ««««««««««««««««««««««««««««««««««
Task Name:	'
Volts:	20.00
Field:	666.67 (kV/cm)
DCBias:	0.00
DCField:	0.00 (kV/cm)
Hysteresis Period (ms):	5.00e-03
Preset:	DisabledProfile:	Standard Monopolar

»»»»»»»»»»»»»»»»»»»»»»»»»»»»»»»»»»»»»» Data «««««««««««««««««««««««««««««««««««««««
Points:	51

Valid Data

Point	Time (ms)	Drive Voltage	Measured Polarization (uC/cm2)	Capacitance (uF)	Normalized Capacitance (uF/cm2)	Dielectric Constant	Instantaneous Current (mA)
   1	0.0000e+00	0.0658	-20.110277	0.000058	0.583368	0.197651	0.462389
   2	1.0000e-04	0.6642	-19.647889	0.000058	0.583368	0.197651	0.462389
   3	2.0000e-04	1.5353	-16.323785	0.000419	4.193820	1.420905	3.324103
   4	3.0000e-04	2.2716	-14.150193	0.000274	2.742290	0.929113	2.173592
   5	4.0000e-04	3.2004	-13.261824	0.000112	1.120802	0.379738	0.888369
   6	5.0000e-04	3.8598	-10.334575	0.000369	3.693134	1.251268	2.927250
   7	6.0000e-04	4.6844	-9.038429	0.000164	1.635268	0.554044	1.296145
   8	7.0000e-04	5.4512	-7.494706	0.000195	1.947623	0.659873	1.543724
   9	8.0000e-04	6.3062	-5.426698	0.000261	2.609080	0.883980	2.068007
  10	9.0000e-04	7.1693	-3.551657	0.000237	2.365627	0.801496	1.875042
  11	1.0000e-03	7.8656	-1.698460	0.000234	2.338066	0.792158	1.853197
  12	1.1000e-03	8.7062	-0.413237	0.000162	1.621488	0.549375	1.285223
  13	1.2000e-03	9.4682	1.596516	0.000254	2.535585	0.859079	2.009753
  14	1.3000e-03	10.3329	3.223979	0.000205	2.053272	0.695668	1.627463
  15	1.4000e-03	11.0836	4.800471	0.000199	1.988964	0.673879	1.576491
  16	1.5000e-03	11.9211	6.529878	0.000218	2.181889	0.739244	1.729407
  17	1.6000e-03	12.7103	7.884277	0.000171	1.708764	0.578945	1.354399
  18	1.7000e-03	13.4836	9.118528	0.000156	1.557180	0.527587	1.234251
  19	1.8000e-03	14.2937	10.782400	0.000210	2.099207	0.711231	1.663872
  20	1.9000e-03	15.1375	12.067623	0.000162	1.621488	0.549375	1.285223
  21	2.0000e-03	15.9268	13.826157	0.000222	2.218637	0.751694	1.758534
  22	2.1000e-03	16.7273	14.962105	0.000143	1.433157	0.485567	1.135948
  23	2.2000e-03	17.4573	15.781298	0.000103	1.033526	0.350168	0.819193
  24	2.3000e-03	18.3332	17.372352	0.000201	2.007338	0.680104	1.591055
  25	2.4000e-03	19.1513	18.686702	0.000166	1.658236	0.561825	1.314350
  26	2.5000e-03	19.9230	20.110277	0.000180	1.796039	0.608515	1.423575
  27	2.6000e-03	19.5700	19.968284	0.000018	0.179145	0.060696	-0.141993
  28	2.7000e-03	18.3797	16.826224	0.000396	3.964148	1.343090	-3.142060
  29	2.8000e-03	17.6706	17.033753	-0.000026	-0.261827	-0.088709	0.207529
  30	2.9000e-03	16.9311	15.952418	0.000136	1.364255	0.462222	-1.081335
  31	3.0000e-03	16.0600	13.789749	0.000273	2.728510	0.924444	-2.162669
  32	3.1000e-03	15.2899	13.374691	0.000052	0.523653	0.177419	-0.415058
  33	3.2000e-03	14.6146	12.366173	0.000127	1.272386	0.431096	-1.008518
  34	3.3000e-03	13.6905	10.549385	0.000229	2.292132	0.776595	-1.816788
  35	3.4000e-03	12.8724	9.398874	0.000145	1.451530	0.491792	-1.150511
  36	3.5000e-03	12.1328	8.222877	0.000148	1.483685	0.502686	-1.175997
  37	3.6000e-03	11.3339	7.014112	0.000153	1.525026	0.516693	-1.208765
  38	3.7000e-03	10.5863	5.408494	0.000203	2.025712	0.686330	-1.605618
  39	3.8000e-03	9.7297	3.912102	0.000189	1.887908	0.639641	-1.496393
  40	3.9000e-03	8.9340	2.259152	0.000209	2.085427	0.706562	-1.652949
  41	4.0000e-03	8.1254	1.101359	0.000146	1.460717	0.494904	-1.157793
  42	4.1000e-03	7.3362	-0.580717	0.000212	2.122174	0.719012	-1.682076
  43	4.2000e-03	6.5774	-2.164490	0.000200	1.998151	0.676992	-1.583773
  44	4.3000e-03	5.7464	-4.046813	0.000237	2.374814	0.804609	-1.882323
  45	4.4000e-03	4.9282	-5.503156	0.000184	1.837380	0.622521	-1.456343
  46	4.5000e-03	4.1421	-7.658544	0.000272	2.719323	0.921331	-2.155388
  47	4.6000e-03	3.3689	-9.326057	0.000210	2.103800	0.712787	-1.667513
  48	4.7000e-03	2.6261	-11.284838	0.000247	2.471276	0.837291	-1.958781
  49	4.8000e-03	1.7598	-13.265465	0.000250	2.498837	0.846629	-1.980627
  50	4.9000e-03	0.9160	-15.329831	0.000260	2.604486	0.882424	-2.064366
  51	5.0000e-03	0.1492	-17.339585	0.000260	2.604486	0.882424	-2.009753

PMax (uC/cm2):	4.03e+01
Pr (uC/cm2):	2.83e+00
-Pr (uC/cm2):	0.00e+00
PLoss (uC/cm2):	0.00e+00
C (Max-Eff) (nF):	2.02e-01
K (Eff):	6.85e+02
Vert. (+/-Pr) Shift (uC/cm2):	1.41e+00
Offset (uC/cm2):	2.02e+01

A (Loop Area - uC/cm2·Volts):	-4.93e-01



Hysteresis Version: 5.48.1 - Radiant Technologies, Inc., 1999 - 9/12/24

