»»»»»»»»»»»»»»»»»»»»»»»»»»»»»»»»»»»» Hysteresis ««««««««««««««««««««««««««««««««««««
»»»  Executed Version:	5.48.1
»»»  Vision Version:	5.48.4 (R)
»»»  Vision Compiled:	9/18/24
»»»  Driver Version:	5.47.0
»»»  Windows Version:	Windows 8 or 8.1
»»»  Processor Information:	x86 (AMD or Intel) - 32 Processors
»»»  Tester Name:	PMF21124-494 (100V)
»»»  Tester S/N:	PMF21124-494
»»»  Internal Amp Type:	100V RevK 270k
»»»  Internal Amp S/N:	iAB2-596/K     
»»»  Execution Count:	1
»»»»»»»»»»»»»»»»»»»»»»»»»»»»»»»»»»»»»»»»»»««««««««««««««««««««««««««««««««««««««««««

Stored:	10/10/2025 - 18:30:46
Configured:	10/10/25 10:37:25 AM
Executed:	10/10/25 06:29:27 PM

»»»»»»»»»»»»»»»»»»»»»»»»»»»»»»»»»»» Sample Info ««««««««««««««««««««««««««««««««««««
Sample Name:	Int. Ref. Ferroelectric
Lot Name:	N/A
Wafer Name:	N/A
Die Row/Column:	0/0
Capacitor Number:	0
Sample Area (cm2):	1.00e-04
Sample Thickness (microns):	3.00e-01

Amplifier:	Internal

»»»»»»»»»»»»»»»»»»»»»»»»»»»»»»»»»»» Tester Info «««««««««««««««««««««««««««««««««««
Tester Name:	PMF21124-494 (100V)
Tester Serial Number:	PMF21124-494
Return Signal Amp. Level:	0.2 [Index: 1]

»»»»»»»»»»»»»»»»»»»»»»»»»»»»»»»» Hysteresis Info ««««««««««««««««««««««««««««««««««
Task Name:	'
Volts:	20.00
Field:	666.67 (kV/cm)
DCBias:	0.00
DCField:	0.00 (kV/cm)
Hysteresis Period (ms):	5.00e-03
Preset:	DisabledProfile:	Standard Monopolar

»»»»»»»»»»»»»»»»»»»»»»»»»»»»»»»»»»»»»» Data «««««««««««««««««««««««««««««««««««««««
Points:	51

Valid Data

Point	Time (ms)	Drive Voltage	Measured Polarization (uC/cm2)	Capacitance (uF)	Normalized Capacitance (uF/cm2)	Dielectric Constant	Instantaneous Current (mA)
   1	0.0000e+00	0.0866	-29.700297	0.000038	0.381418	0.129228	0.298550
   2	1.0000e-04	0.5278	-29.401746	0.000038	0.381418	0.129228	0.298550
   3	2.0000e-04	1.4984	-25.611613	0.000484	4.842152	1.640566	3.790133
   4	3.0000e-04	2.1433	-22.043573	0.000456	4.558414	1.544432	3.568041
   5	4.0000e-04	3.1283	-19.134528	0.000372	3.716503	1.259185	2.909045
   6	5.0000e-04	3.7635	-16.509469	0.000335	3.353690	1.136261	2.625058
   7	6.0000e-04	4.5656	-13.706009	0.000358	3.581611	1.213483	2.803460
   8	7.0000e-04	5.3710	-10.494772	0.000410	4.102573	1.389989	3.211236
   9	8.0000e-04	6.1554	-8.029912	0.000315	3.149027	1.066919	2.464861
  10	9.0000e-04	7.0875	-4.967950	0.000391	3.911863	1.325375	3.061961
  11	1.0000e-03	7.7436	-2.433913	0.000324	3.237404	1.096862	2.534037
  12	1.1000e-03	8.5554	-0.260321	0.000278	2.776911	0.940843	2.173592
  13	1.2000e-03	9.4345	2.495808	0.000352	3.521142	1.192995	2.756129
  14	1.3000e-03	10.1821	4.716731	0.000284	2.837380	0.961330	2.220923
  15	1.4000e-03	11.0772	7.436452	0.000347	3.474628	1.177236	2.719721
  16	1.5000e-03	11.7638	9.533586	0.000268	2.679231	0.907748	2.097134
  17	1.6000e-03	12.5868	11.641642	0.000269	2.693185	0.912476	2.108057
  18	1.7000e-03	13.4579	14.070095	0.000310	3.102512	1.051160	2.428452
  19	1.8000e-03	14.1798	15.875960	0.000231	2.307116	0.781672	1.805865
  20	1.9000e-03	15.0862	18.031348	0.000275	2.753654	0.932963	2.155388
  21	2.0000e-03	15.7728	19.895467	0.000238	2.381539	0.806887	1.864119
  22	2.1000e-03	16.5926	21.810558	0.000245	2.446659	0.828951	1.915091
  23	2.2000e-03	17.4380	23.754776	0.000248	2.483871	0.841558	1.944218
  24	2.3000e-03	18.1615	25.141943	0.000177	1.772200	0.600438	1.387167
  25	2.4000e-03	19.1080	27.322817	0.000279	2.786214	0.943995	2.180874
  26	2.5000e-03	19.7882	28.950280	0.000208	2.079195	0.704450	1.627463
  27	2.6000e-03	19.7032	29.700297	-0.000096	-0.958197	-0.324646	0.750017
  28	2.7000e-03	18.4246	26.307017	0.000434	4.335145	1.468787	-3.393279
  29	2.8000e-03	17.7492	24.082453	0.000284	2.842032	0.962906	-2.224564
  30	2.9000e-03	16.8974	24.508434	-0.000054	-0.544219	-0.184386	0.425980
  31	3.0000e-03	16.2926	22.454990	0.000262	2.623414	0.888837	-2.053444
  32	3.1000e-03	15.4648	20.241348	0.000283	2.828077	0.958179	-2.213641
  33	3.2000e-03	14.5825	18.493737	0.000223	2.232693	0.756457	-1.747612
  34	3.3000e-03	13.8718	16.990062	0.000192	1.921046	0.650868	-1.503674
  35	3.4000e-03	12.9028	14.783703	0.000282	2.818774	0.955027	-2.206360
  36	3.5000e-03	12.3029	13.454790	0.000170	1.697777	0.575222	-1.328913
  37	3.6000e-03	11.4911	11.412268	0.000261	2.609459	0.884109	-2.042521
  38	3.7000e-03	10.6104	9.107606	0.000294	2.944363	0.997577	-2.304663
  39	3.8000e-03	9.9013	7.163388	0.000248	2.483871	0.841558	-1.944218
  40	3.9000e-03	8.9677	4.829598	0.000298	2.981575	1.010185	-2.333790
  41	4.0000e-03	8.3228	3.264029	0.000200	2.000120	0.677659	-1.565569
  42	4.1000e-03	7.4757	0.529745	0.000349	3.493234	1.183540	-2.734284
  43	4.2000e-03	6.5998	-2.073468	0.000333	3.325782	1.126805	-2.603213
  44	4.3000e-03	5.9164	-4.308955	0.000286	2.855986	0.967634	-2.235487
  45	4.4000e-03	4.9795	-7.003190	0.000344	3.442068	1.166204	-2.694235
  46	4.5000e-03	4.3250	-9.300571	0.000294	2.935060	0.994425	-2.297381
  47	4.6000e-03	3.5020	-12.300638	0.000383	3.832789	1.298584	-3.000067
  48	4.7000e-03	2.6743	-15.155070	0.000365	3.646731	1.235546	-2.854432
  49	4.8000e-03	1.9459	-17.801974	0.000338	3.381599	1.145717	-2.646904
  50	4.9000e-03	1.0091	-21.242584	0.000440	4.395614	1.489274	-3.440611
  51	5.0000e-03	0.3529	-23.678318	0.000440	4.395614	1.489274	-2.435734

PMax (uC/cm2):	5.88e+01
Pr (uC/cm2):	6.13e+00
-Pr (uC/cm2):	0.00e+00
PLoss (uC/cm2):	0.00e+00
C (Max-Eff) (nF):	2.97e-01
K (Eff):	1.01e+03
Vert. (+/-Pr) Shift (uC/cm2):	3.07e+00
Offset (uC/cm2):	2.98e+01

A (Loop Area - uC/cm2·Volts):	-2.55e+00



Hysteresis Version: 5.48.1 - Radiant Technologies, Inc., 1999 - 9/12/24

