»»»»»»»»»»»»»»»»»»»»»»»»»»»»»»»»»»»» Hysteresis ««««««««««««««««««««««««««««««««««««
»»»  Executed Version:	5.48.1
»»»  Vision Version:	5.48.4 (R)
»»»  Vision Compiled:	9/18/24
»»»  Driver Version:	5.47.0
»»»  Windows Version:	Windows 8 or 8.1
»»»  Processor Information:	x86 (AMD or Intel) - 32 Processors
»»»  Tester Name:	PMF21124-494 (100V)
»»»  Tester S/N:	PMF21124-494
»»»  Internal Amp Type:	100V RevK 270k
»»»  Internal Amp S/N:	iAB2-596/K     
»»»  Execution Count:	1
»»»»»»»»»»»»»»»»»»»»»»»»»»»»»»»»»»»»»»»»»»««««««««««««««««««««««««««««««««««««««««««

Stored:	10/10/2025 - 18:34:53
Configured:	10/10/25 10:37:25 AM
Executed:	10/10/25 06:33:09 PM

»»»»»»»»»»»»»»»»»»»»»»»»»»»»»»»»»»» Sample Info ««««««««««««««««««««««««««««««««««««
Sample Name:	Int. Ref. Ferroelectric
Lot Name:	N/A
Wafer Name:	N/A
Die Row/Column:	0/0
Capacitor Number:	0
Sample Area (cm2):	1.00e-04
Sample Thickness (microns):	3.00e-01

Amplifier:	Internal

»»»»»»»»»»»»»»»»»»»»»»»»»»»»»»»»»»» Tester Info «««««««««««««««««««««««««««««««««««
Tester Name:	PMF21124-494 (100V)
Tester Serial Number:	PMF21124-494
Return Signal Amp. Level:	0.2 [Index: 1]

»»»»»»»»»»»»»»»»»»»»»»»»»»»»»»»» Hysteresis Info ««««««««««««««««««««««««««««««««««
Task Name:	'
Volts:	20.00
Field:	666.67 (kV/cm)
DCBias:	0.00
DCField:	0.00 (kV/cm)
Hysteresis Period (ms):	5.00e-03
Preset:	DisabledProfile:	Standard Monopolar

»»»»»»»»»»»»»»»»»»»»»»»»»»»»»»»»»»»»»» Data «««««««««««««««««««««««««««««««««««««««
Points:	51

Valid Data

Point	Time (ms)	Drive Voltage	Measured Polarization (uC/cm2)	Capacitance (uF)	Normalized Capacitance (uF/cm2)	Dielectric Constant	Instantaneous Current (mA)
   1	0.0000e+00	0.0786	-34.999565	0.000069	0.694289	0.235231	0.542488
   2	1.0000e-04	0.7251	-34.457077	0.000069	0.694289	0.235231	0.542488
   3	2.0000e-04	1.3909	-31.591722	0.000367	3.667149	1.242464	2.865355
   4	3.0000e-04	2.1336	-26.891375	0.000602	6.015616	2.038146	4.700347
   5	4.0000e-04	2.9470	-23.450764	0.000440	4.403375	1.491904	3.440611
   6	5.0000e-04	3.7154	-20.443416	0.000385	3.848876	1.304034	3.007348
   7	6.0000e-04	4.6266	-16.693333	0.000480	4.799446	1.626096	3.750083
   8	7.0000e-04	5.2940	-14.206627	0.000318	3.182545	1.078275	2.486706
   9	8.0000e-04	6.1234	-10.729608	0.000445	4.449971	1.507691	3.477019
  10	9.0000e-04	6.9511	-7.503808	0.000413	4.128455	1.398758	3.225800
  11	1.0000e-03	7.6987	-4.150578	0.000429	4.291543	1.454014	3.353230
  12	1.1000e-03	8.6420	-0.921137	0.000413	4.133115	1.400337	3.229441
  13	1.2000e-03	9.3206	1.551005	0.000316	3.163906	1.071961	2.472142
  14	1.3000e-03	10.1420	4.620248	0.000393	3.928090	1.330873	3.069243
  15	1.4000e-03	10.9328	7.485603	0.000367	3.667149	1.242464	2.865355
  16	1.5000e-03	11.7109	10.256296	0.000355	3.545998	1.201417	2.770693
  17	1.6000e-03	12.7039	13.300053	0.000390	3.895472	1.319822	3.043757
  18	1.7000e-03	13.3568	15.389905	0.000267	2.674643	0.906193	2.089852
  19	1.8000e-03	14.1493	17.872970	0.000318	3.177885	1.076697	2.483065
  20	1.9000e-03	14.9627	20.265014	0.000306	3.061394	1.037228	2.392044
  21	2.0000e-03	15.7391	22.689825	0.000310	3.103331	1.051437	2.424811
  22	2.1000e-03	16.6969	25.427750	0.000350	3.504061	1.187208	2.737925
  23	2.2000e-03	17.3177	27.117108	0.000216	2.162080	0.732533	1.689358
  24	2.3000e-03	18.1663	29.236087	0.000271	2.711920	0.918823	2.118979
  25	2.4000e-03	18.9845	31.376912	0.000274	2.739878	0.928296	2.140824
  26	2.5000e-03	19.7513	33.921871	0.000326	3.257100	1.103535	2.544960
  27	2.6000e-03	19.4401	34.999565	-0.000138	-1.379258	-0.467305	1.077694
  28	2.7000e-03	18.6380	32.399993	0.000333	3.326994	1.127216	-2.599572
  29	2.8000e-03	17.7637	28.679036	0.000476	4.762168	1.613466	-3.720957
  30	2.9000e-03	17.0113	28.081935	0.000076	0.764184	0.258912	-0.597101
  31	3.0000e-03	16.2669	26.796713	0.000164	1.644859	0.557293	-1.285223
  32	3.1000e-03	15.3782	24.076992	0.000348	3.480763	1.179314	-2.719721
  33	3.2000e-03	14.6803	22.511423	0.000200	2.003652	0.678856	-1.565569
  34	3.3000e-03	13.9007	20.130302	0.000305	3.047415	1.032492	-2.381121
  35	3.4000e-03	13.0825	18.171521	0.000251	2.506895	0.849359	-1.958781
  36	3.5000e-03	12.3301	16.380219	0.000229	2.292551	0.776737	-1.791302
  37	3.6000e-03	11.3516	13.678702	0.000346	3.457465	1.171421	-2.701516
  38	3.7000e-03	10.7291	11.465061	0.000283	2.833071	0.959870	-2.213641
  39	3.8000e-03	9.9061	8.843643	0.000335	3.354952	1.136689	-2.621418
  40	3.9000e-03	9.1169	6.473445	0.000303	3.033436	1.027756	-2.370198
  41	4.0000e-03	8.3404	4.328980	0.000274	2.744537	0.929874	-2.144465
  42	4.1000e-03	7.3827	0.913855	0.000437	4.370757	1.480853	-3.415125
  43	4.2000e-03	6.7265	-1.529160	0.000313	3.126629	1.059331	-2.443016
  44	4.3000e-03	5.9485	-4.449128	0.000374	3.737044	1.266145	-2.919968
  45	4.4000e-03	5.1303	-7.296279	0.000364	3.643851	1.234570	-2.847151
  46	4.5000e-03	4.3394	-9.793907	0.000320	3.196524	1.083012	-2.497628
  47	4.6000e-03	3.3994	-13.751520	0.000507	5.065046	1.716084	-3.957612
  48	4.7000e-03	2.7833	-16.514931	0.000354	3.536679	1.198259	-2.763411
  49	4.8000e-03	1.9572	-19.875442	0.000430	4.300862	1.457172	-3.360512
  50	4.9000e-03	1.1294	-23.097601	0.000412	4.123796	1.397180	-3.222159
  51	5.0000e-03	0.3561	-26.388937	0.000412	4.123796	1.397180	-3.291335

PMax (uC/cm2):	6.89e+01
Pr (uC/cm2):	8.58e+00
-Pr (uC/cm2):	0.00e+00
PLoss (uC/cm2):	0.00e+00
C (Max-Eff) (nF):	3.49e-01
K (Eff):	1.18e+03
Vert. (+/-Pr) Shift (uC/cm2):	4.29e+00
Offset (uC/cm2):	3.50e+01

A (Loop Area - uC/cm2·Volts):	-5.05e+00



Hysteresis Version: 5.48.1 - Radiant Technologies, Inc., 1999 - 9/12/24

