»»»»»»»»»»»»»»»»»»»»»»»»»»»»»»»»»»»» Hysteresis ««««««««««««««««««««««««««««««««««««
»»»  Executed Version:	5.48.1
»»»  Vision Version:	5.48.4 (R)
»»»  Vision Compiled:	9/18/24
»»»  Driver Version:	5.47.0
»»»  Windows Version:	Windows 8 or 8.1
»»»  Processor Information:	x86 (AMD or Intel) - 32 Processors
»»»  Tester Name:	PMF21124-494 (100V)
»»»  Tester S/N:	PMF21124-494
»»»  Internal Amp Type:	100V RevK 270k
»»»  Internal Amp S/N:	iAB2-596/K     
»»»  Execution Count:	1
»»»»»»»»»»»»»»»»»»»»»»»»»»»»»»»»»»»»»»»»»»««««««««««««««««««««««««««««««««««««««««««

Stored:	10/10/2025 - 18:39:41
Configured:	10/10/25 10:37:25 AM
Executed:	10/10/25 06:38:16 PM

»»»»»»»»»»»»»»»»»»»»»»»»»»»»»»»»»»» Sample Info ««««««««««««««««««««««««««««««««««««
Sample Name:	Int. Ref. Ferroelectric
Lot Name:	N/A
Wafer Name:	N/A
Die Row/Column:	0/0
Capacitor Number:	0
Sample Area (cm2):	1.00e-04
Sample Thickness (microns):	3.00e-01

Amplifier:	Internal

»»»»»»»»»»»»»»»»»»»»»»»»»»»»»»»»»»» Tester Info «««««««««««««««««««««««««««««««««««
Tester Name:	PMF21124-494 (100V)
Tester Serial Number:	PMF21124-494
Return Signal Amp. Level:	0.2 [Index: 1]

»»»»»»»»»»»»»»»»»»»»»»»»»»»»»»»» Hysteresis Info ««««««««««««««««««««««««««««««««««
Task Name:	'
Volts:	20.00
Field:	666.67 (kV/cm)
DCBias:	0.00
DCField:	0.00 (kV/cm)
Hysteresis Period (ms):	5.00e-03
Preset:	DisabledProfile:	Standard Monopolar

»»»»»»»»»»»»»»»»»»»»»»»»»»»»»»»»»»»»»» Data «««««««««««««««««««««««««««««««««««««««
Points:	51

Valid Data

Point	Time (ms)	Drive Voltage	Measured Polarization (uC/cm2)	Capacitance (uF)	Normalized Capacitance (uF/cm2)	Dielectric Constant	Instantaneous Current (mA)
   1	0.0000e+00	0.0626	-36.750818	0.000028	0.277167	0.093907	0.218451
   2	1.0000e-04	0.4957	-36.532366	0.000028	0.277167	0.093907	0.218451
   3	2.0000e-04	1.5417	-33.768955	0.000351	3.506157	1.187918	2.763411
   4	3.0000e-04	2.1481	-30.179069	0.000455	4.554770	1.543198	3.589886
   5	4.0000e-04	3.1106	-27.095263	0.000391	3.912668	1.325648	3.083806
   6	5.0000e-04	3.8117	-24.146168	0.000374	3.741748	1.267739	2.949095
   7	6.0000e-04	4.5031	-20.902164	0.000412	4.115923	1.394513	3.244004
   8	7.0000e-04	5.3565	-17.141158	0.000477	4.771884	1.616758	3.761006
   9	8.0000e-04	6.2164	-13.358307	0.000480	4.799601	1.626149	3.782851
  10	9.0000e-04	7.0795	-9.928619	0.000435	4.351515	1.474333	3.429688
  11	1.0000e-03	7.8014	-6.502572	0.000435	4.346895	1.472768	3.426047
  12	1.1000e-03	8.4992	-3.917563	0.000328	3.279804	1.111228	2.585009
  13	1.2000e-03	9.4104	-0.294909	0.000460	4.596345	1.557284	3.622653
  14	1.3000e-03	10.2206	3.294976	0.000455	4.554770	1.543198	3.589886
  15	1.4000e-03	11.0435	6.418832	0.000396	3.963482	1.342864	3.123856
  16	1.5000e-03	11.8408	9.524484	0.000394	3.940384	1.335038	3.105652
  17	1.6000e-03	12.5162	11.829147	0.000292	2.924107	0.990714	2.304663
  18	1.7000e-03	13.4130	15.047665	0.000408	4.083587	1.383557	3.218518
  19	1.8000e-03	14.2344	18.135112	0.000392	3.917287	1.327213	3.087447
  20	1.9000e-03	15.0702	20.716480	0.000328	3.275185	1.109663	2.581368
  21	2.0000e-03	15.8659	23.574554	0.000363	3.626262	1.228611	2.858073
  22	2.1000e-03	16.5236	25.336729	0.000224	2.235810	0.757513	1.762175
  23	2.2000e-03	17.4172	28.213006	0.000365	3.649359	1.236436	2.876278
  24	2.3000e-03	18.2674	30.816220	0.000330	3.302901	1.119053	2.603213
  25	2.4000e-03	19.0872	33.131805	0.000294	2.937965	0.995410	2.315585
  26	2.5000e-03	19.8540	35.684046	0.000324	3.238229	1.097142	2.552241
  27	2.6000e-03	19.7176	36.750818	-0.000135	-1.353497	-0.458577	1.066771
  28	2.7000e-03	18.3284	35.214376	0.000195	1.949405	0.660476	-1.536442
  29	2.8000e-03	17.8551	32.600240	0.000332	3.316760	1.123749	-2.614136
  30	2.9000e-03	16.8717	31.413320	0.000151	1.505938	0.510226	-1.186920
  31	3.0000e-03	16.0840	29.188756	0.000282	2.822479	0.956282	-2.224564
  32	3.1000e-03	15.5338	27.506680	0.000213	2.134182	0.723081	-1.682076
  33	3.2000e-03	14.6162	25.154686	0.000298	2.984160	1.011061	-2.351994
  34	3.3000e-03	13.7675	22.788128	0.000300	3.002638	1.017321	-2.366558
  35	3.4000e-03	12.9012	20.640022	0.000273	2.725471	0.923415	-2.148106
  36	3.5000e-03	12.1906	18.557452	0.000264	2.642321	0.895243	-2.082571
  37	3.6000e-03	11.5745	16.500367	0.000261	2.609985	0.884287	-2.057085
  38	3.7000e-03	10.6040	13.766083	0.000347	3.469201	1.175397	-2.734284
  39	3.8000e-03	9.7826	11.097334	0.000339	3.386051	1.147225	-2.668749
  40	3.9000e-03	8.9885	8.454072	0.000335	3.353715	1.136269	-2.643263
  41	4.0000e-03	8.1928	6.003774	0.000311	3.108885	1.053319	-2.450297
  42	4.1000e-03	7.5511	3.542555	0.000312	3.122743	1.058014	-2.461220
  43	4.2000e-03	6.6143	0.240297	0.000419	4.189834	1.419554	-3.302258
  44	4.3000e-03	5.8330	-2.938172	0.000403	4.032773	1.366341	-3.178469
  45	4.4000e-03	5.0245	-5.949161	0.000382	3.820279	1.294346	-3.010989
  46	4.5000e-03	4.1887	-8.898256	0.000374	3.741748	1.267739	-2.949095
  47	4.6000e-03	3.5598	-11.807302	0.000369	3.690934	1.250522	-2.909045
  48	4.7000e-03	2.7079	-15.393546	0.000455	4.550151	1.541633	-3.586245
  49	4.8000e-03	1.8224	-19.183679	0.000481	4.808839	1.629279	-3.790133
  50	4.9000e-03	1.0155	-22.737156	0.000451	4.508576	1.527547	-3.553477
  51	5.0000e-03	0.2374	-26.246943	0.000451	4.508576	1.527547	-3.509787

PMax (uC/cm2):	7.25e+01
Pr (uC/cm2):	1.05e+01
-Pr (uC/cm2):	0.00e+00
PLoss (uC/cm2):	0.00e+00
C (Max-Eff) (nF):	3.65e-01
K (Eff):	1.24e+03
Vert. (+/-Pr) Shift (uC/cm2):	5.26e+00
Offset (uC/cm2):	3.68e+01

A (Loop Area - uC/cm2·Volts):	-7.68e+00



Hysteresis Version: 5.48.1 - Radiant Technologies, Inc., 1999 - 9/12/24

