»»»»»»»»»»»»»»»»»»»»»»»»»»»»»»»»»»»» Hysteresis ««««««««««««««««««««««««««««««««««««
»»»  Executed Version:	5.48.1
»»»  Vision Version:	5.48.4 (R)
»»»  Vision Compiled:	9/18/24
»»»  Driver Version:	5.47.0
»»»  Windows Version:	Windows 8 or 8.1
»»»  Processor Information:	x86 (AMD or Intel) - 32 Processors
»»»  Tester Name:	PMF21124-494 (100V)
»»»  Tester S/N:	PMF21124-494
»»»  Internal Amp Type:	100V RevK 270k
»»»  Internal Amp S/N:	iAB2-596/K     
»»»  Execution Count:	1
»»»»»»»»»»»»»»»»»»»»»»»»»»»»»»»»»»»»»»»»»»««««««««««««««««««««««««««««««««««««««««««

Stored:	10/10/2025 - 18:41:23
Configured:	10/10/25 10:37:25 AM
Executed:	10/10/25 06:40:46 PM

»»»»»»»»»»»»»»»»»»»»»»»»»»»»»»»»»»» Sample Info ««««««««««««««««««««««««««««««««««««
Sample Name:	Int. Ref. Ferroelectric
Lot Name:	N/A
Wafer Name:	N/A
Die Row/Column:	0/0
Capacitor Number:	0
Sample Area (cm2):	1.00e-04
Sample Thickness (microns):	3.00e-01

Amplifier:	Internal

»»»»»»»»»»»»»»»»»»»»»»»»»»»»»»»»»»» Tester Info «««««««««««««««««««««««««««««««««««
Tester Name:	PMF21124-494 (100V)
Tester Serial Number:	PMF21124-494
Return Signal Amp. Level:	0.2 [Index: 1]

»»»»»»»»»»»»»»»»»»»»»»»»»»»»»»»» Hysteresis Info ««««««««««««««««««««««««««««««««««
Task Name:	'
Volts:	20.00
Field:	666.67 (kV/cm)
DCBias:	0.00
DCField:	0.00 (kV/cm)
Hysteresis Period (ms):	5.00e-01
Preset:	DisabledProfile:	Standard Monopolar

»»»»»»»»»»»»»»»»»»»»»»»»»»»»»»»»»»»»»» Data «««««««««««««««««««««««««««««««««««««««
Points:	1001

Valid Data

Point	Time (ms)	Drive Voltage	Measured Polarization (uC/cm2)	Capacitance (uF)	Normalized Capacitance (uF/cm2)	Dielectric Constant	Instantaneous Current (mA)
   1	0.0000e+00	0.0449	-11.215662	-0.000309	-3.085945	-1.045547	0.024758
   2	5.0000e-04	0.0353	-11.091873	-0.000309	-3.085945	-1.045547	0.024758
   3	1.0000e-03	0.1187	-10.928034	0.000408	4.084339	1.383812	0.032768
   4	1.5000e-03	0.1364	-10.975366	-0.000118	-1.179920	-0.399768	-0.009466
   5	2.0000e-03	0.1813	-10.858858	0.000290	2.904419	0.984044	0.023301
   6	2.5000e-03	0.2278	-10.749632	0.000272	2.722893	0.922541	0.021845
   7	3.0000e-03	0.2791	-10.786041	-0.000091	-0.907631	-0.307514	-0.007282
   8	3.5000e-03	0.3321	-10.669533	0.000290	2.904419	0.984044	0.023301
   9	4.0000e-03	0.3545	-10.764196	-0.000236	-2.359840	-0.799536	-0.018932
  10	4.5000e-03	0.4075	-10.523899	0.000599	5.990364	2.029590	0.048059
  11	5.0000e-03	0.4107	-10.611280	-0.000218	-2.178314	-0.738033	-0.017476
  12	5.5000e-03	0.4813	-10.567589	0.000109	1.089157	0.369016	0.008738
  13	6.0000e-03	0.5230	-10.418314	0.000372	3.721287	1.260806	0.029855
  14	6.5000e-03	0.5358	-10.294525	0.000309	3.085945	1.045547	0.024758
  15	7.0000e-03	0.5920	-10.443800	-0.000372	-3.721287	-1.260806	-0.029855
  16	7.5000e-03	0.6433	-10.338215	0.000263	2.632130	0.891790	0.021117
  17	8.0000e-03	0.6609	-10.167095	0.000427	4.265865	1.445314	0.034224
  18	8.5000e-03	0.7219	-10.192581	-0.000064	-0.635342	-0.215260	-0.005097
  19	9.0000e-03	0.7428	-10.214426	-0.000054	-0.544579	-0.184508	-0.004369
  20	9.5000e-03	0.7893	-10.032383	0.000454	4.538155	1.537568	0.036409
  21	1.0000e-02	0.8198	-10.057869	-0.000064	-0.635342	-0.215260	-0.005097
  22	1.0500e-02	0.8679	-9.985052	0.000182	1.815262	0.615027	0.014563
  23	1.1000e-02	0.9353	-9.901313	0.000209	2.087551	0.707281	0.016748
  24	1.1500e-02	0.9353	-9.926799	0.000064	0.635342	0.215260	-0.005097
  25	1.2000e-02	0.9930	-9.777523	0.000372	3.721287	1.260806	0.029855
  26	1.2500e-02	1.0203	-9.817573	-0.000100	-0.998394	-0.338265	-0.008010
  27	1.3000e-02	1.0877	-9.737474	0.000200	1.996788	0.676530	0.016020
  28	1.3500e-02	1.1037	-9.690143	0.000118	1.179920	0.399768	0.009466
  29	1.4000e-02	1.1583	-9.617326	0.000182	1.815262	0.615027	0.014563
  30	1.4500e-02	1.2048	-9.428001	0.000472	4.719681	1.599071	0.037865
  31	1.5000e-02	1.2192	-9.540868	-0.000281	-2.813656	-0.953292	-0.022573
  32	1.5500e-02	1.2706	-9.460769	0.000200	1.996788	0.676530	0.016020
  33	1.6000e-02	1.3091	-9.366106	0.000236	2.359840	0.799536	0.018932
  34	1.6500e-02	1.3588	-9.355184	0.000027	0.272289	0.092254	0.002185
  35	1.7000e-02	1.4021	-9.198627	0.000390	3.902813	1.322309	0.031311
  36	1.7500e-02	1.4438	-9.202268	-0.000009	-0.090763	-0.030751	-0.000728
  37	1.8000e-02	1.4534	-9.180423	0.000054	0.544579	0.184508	0.004369
  38	1.8500e-02	1.5272	-9.133092	0.000118	1.179920	0.399768	0.009466
  39	1.9000e-02	1.5433	-9.063915	0.000172	1.724499	0.584276	0.013835
  40	1.9500e-02	1.6010	-8.958330	0.000263	2.632130	0.891790	0.021117
  41	2.0000e-02	1.6684	-8.907358	0.000127	1.270683	0.430519	0.010194
  42	2.0500e-02	1.6636	-8.943767	0.000091	0.907631	0.307514	-0.007282
  43	2.1000e-02	1.7069	-8.863668	0.000200	1.996788	0.676530	0.016020
  44	2.1500e-02	1.7486	-8.812696	0.000127	1.270683	0.430519	0.010194
  45	2.2000e-02	1.7855	-8.801773	0.000027	0.272289	0.092254	0.002185
  46	2.2500e-02	1.8288	-8.743520	0.000145	1.452209	0.492022	0.011651
  47	2.3000e-02	1.8689	-8.736238	0.000018	0.181526	0.061503	0.001456
  48	2.3500e-02	1.9058	-8.645217	0.000227	2.269077	0.768784	0.018204
  49	2.4000e-02	1.9427	-8.579681	0.000163	1.633736	0.553525	0.013107
  50	2.4500e-02	1.9925	-8.481378	0.000245	2.450603	0.830287	0.019661
  51	2.5000e-02	2.0390	-8.426765	0.000136	1.361446	0.461271	0.010923
  52	2.5500e-02	2.0743	-8.408561	0.000045	0.453815	0.153757	0.003641
  53	2.6000e-02	2.1144	-8.470455	-0.000154	-1.542973	-0.522773	-0.012379
  54	2.6500e-02	2.1545	-8.215595	0.000635	6.353416	2.152596	0.050972
  55	2.7000e-02	2.1898	-8.139137	0.000191	1.906025	0.645779	0.015292
  56	2.7500e-02	2.2315	-8.168264	-0.000073	-0.726105	-0.246011	-0.005825
  57	2.8000e-02	2.2604	-8.084525	0.000209	2.087551	0.707281	0.016748
  58	2.8500e-02	2.3213	-8.139137	-0.000136	-1.361446	-0.461271	-0.010923
  59	2.9000e-02	2.3759	-7.873355	0.000663	6.625706	2.244850	0.053157
  60	2.9500e-02	2.3935	-8.000785	-0.000318	-3.176708	-1.076298	-0.025486
  61	3.0000e-02	2.4432	-7.858791	0.000354	3.539761	1.199303	0.028399
  62	3.0500e-02	2.4834	-7.764129	0.000236	2.359840	0.799536	0.018932
  63	3.1000e-02	2.5122	-7.756847	0.000018	0.181526	0.061503	0.001456
  64	3.1500e-02	2.5523	-7.705875	0.000127	1.270683	0.430519	0.010194
  65	3.2000e-02	2.6005	-7.778692	-0.000182	-1.815262	-0.615027	-0.014563
  66	3.2500e-02	2.6197	-7.633058	0.000363	3.630524	1.230055	0.029127
  67	3.3000e-02	2.6743	-7.651262	-0.000045	-0.453815	-0.153757	-0.003641
  68	3.3500e-02	2.7256	-7.567523	0.000209	2.087551	0.707281	0.016748
  69	3.4000e-02	2.7577	-7.436452	0.000327	3.267471	1.107049	0.026214
  70	3.4500e-02	2.7866	-7.414607	0.000054	0.544579	0.184508	0.004369
  71	3.5000e-02	2.8395	-7.363635	0.000127	1.270683	0.430519	0.010194
  72	3.5500e-02	2.8652	-7.359994	0.000009	0.090763	0.030751	0.000728
  73	3.6000e-02	2.9069	-7.272613	0.000218	2.178314	0.738033	0.017476
  74	3.6500e-02	2.9550	-7.130620	0.000354	3.539761	1.199303	0.028399
  75	3.7000e-02	2.9903	-7.119697	0.000027	0.272289	0.092254	0.002185
  76	3.7500e-02	3.0432	-6.923091	0.000490	4.901207	1.660574	0.039321
  77	3.8000e-02	3.0609	-7.108775	-0.000463	-4.628918	-1.568320	-0.037137
  78	3.8500e-02	3.1122	-6.992267	0.000290	2.904419	0.984044	0.023301
  79	3.9000e-02	3.1587	-6.901246	0.000227	2.269077	0.768784	0.018204
  80	3.9500e-02	3.2004	-6.883041	0.000045	0.453815	0.153757	0.003641
  81	4.0000e-02	3.2293	-6.806583	0.000191	1.906025	0.645779	0.015292
  82	4.0500e-02	3.2791	-6.784738	0.000054	0.544579	0.184508	0.004369
  83	4.1000e-02	3.3111	-6.839351	-0.000136	-1.361446	-0.461271	-0.010923
  84	4.1500e-02	3.3432	-6.741048	0.000245	2.450603	0.830287	0.019661
  85	4.2000e-02	3.3978	-6.682794	0.000145	1.452209	0.492022	0.011651
  86	4.2500e-02	3.4363	-6.555364	0.000318	3.176708	1.076298	0.025486
  87	4.3000e-02	3.4780	-6.493470	0.000154	1.542973	0.522773	0.012379
  88	4.3500e-02	3.4956	-6.478906	0.000036	0.363052	0.123005	0.002913
  89	4.4000e-02	3.5598	-6.427934	0.000127	1.270683	0.430519	0.010194
  90	4.4500e-02	3.5790	-6.315068	0.000281	2.813656	0.953292	0.022573
  91	4.5000e-02	3.6240	-6.329631	-0.000036	-0.363052	-0.123005	-0.002913
  92	4.5500e-02	3.6625	-6.296863	0.000082	0.816868	0.276762	0.006554
  93	4.6000e-02	3.7058	-6.191279	0.000263	2.632130	0.891790	0.021117
  94	4.6500e-02	3.7475	-6.271377	-0.000200	-1.996788	-0.676530	-0.016020
  95	4.7000e-02	3.7796	-6.082053	0.000472	4.719681	1.599071	0.037865
  96	4.7500e-02	3.8550	-5.998313	0.000209	2.087551	0.707281	0.016748
  97	4.8000e-02	3.8678	-6.052926	-0.000136	-1.361446	-0.461271	-0.010923
  98	4.8500e-02	3.9207	-6.005595	0.000118	1.179920	0.399768	0.009466
  99	4.9000e-02	3.9464	-5.925496	0.000200	1.996788	0.676530	0.016020
 100	4.9500e-02	3.9994	-5.881806	0.000109	1.089157	0.369016	0.008738
 101	5.0000e-02	4.0298	-5.794425	0.000218	2.178314	0.738033	0.017476
 102	5.0500e-02	4.0715	-5.656072	0.000345	3.448998	1.168552	0.027671
 103	5.1000e-02	4.1052	-5.787143	-0.000327	-3.267471	-1.107049	-0.026214
 104	5.1500e-02	4.1566	-5.572333	0.000536	5.355022	1.814331	0.042962
 105	5.2000e-02	4.1822	-5.616023	-0.000109	-1.089157	-0.369016	-0.008738
 106	5.2500e-02	4.2432	-5.557769	0.000145	1.452209	0.492022	0.011651
 107	5.3000e-02	4.2673	-5.455825	0.000254	2.541367	0.861038	0.020389
 108	5.3500e-02	4.3009	-5.383008	0.000182	1.815262	0.615027	0.014563
 109	5.4000e-02	4.3523	-5.328395	0.000136	1.361446	0.461271	0.010923
 110	5.4500e-02	4.3828	-5.353881	-0.000064	-0.635342	-0.215260	-0.005097
 111	5.5000e-02	4.4389	-5.248296	0.000263	2.632130	0.891790	0.021117
 112	5.5500e-02	4.4758	-5.222810	0.000064	0.635342	0.215260	0.005097
 113	5.6000e-02	4.5159	-5.124507	0.000245	2.450603	0.830287	0.019661
 114	5.6500e-02	4.5560	-5.004359	0.000300	2.995182	1.014795	0.024030
 115	5.7000e-02	4.6025	-4.938823	0.000163	1.633736	0.553525	0.013107
 116	5.7500e-02	4.6282	-5.018922	-0.000200	-1.996788	-0.676530	-0.016020
 117	5.8000e-02	4.6731	-4.938823	0.000200	1.996788	0.676530	0.016020
 118	5.8500e-02	4.7180	-4.920619	0.000045	0.453815	0.153757	0.003641
 119	5.9000e-02	4.7646	-4.760421	0.000399	3.993576	1.353060	0.032040
 120	5.9500e-02	4.8127	-4.658477	0.000254	2.541367	0.861038	0.020389
 121	6.0000e-02	4.8576	-4.658477	0.000000	0.000000	0.000000	0.000000
 122	6.0500e-02	4.8881	-4.578379	0.000200	1.996788	0.676530	0.016020
 123	6.1000e-02	4.9106	-4.716731	-0.000345	-3.448998	-1.168552	-0.027671
 124	6.1500e-02	4.9571	-4.483716	0.000581	5.808838	1.968088	0.046603
 125	6.2000e-02	5.0068	-4.483716	0.000000	0.000000	0.000000	0.000000
 126	6.2500e-02	5.0437	-4.425463	0.000145	1.452209	0.492022	0.011651
 127	6.3000e-02	5.0742	-4.458230	-0.000082	-0.816868	-0.276762	-0.006554
 128	6.3500e-02	5.1095	-4.374491	0.000209	2.087551	0.707281	0.016748
 129	6.4000e-02	5.1656	-4.265265	0.000272	2.722893	0.922541	0.021845
 130	6.4500e-02	5.1913	-4.243420	0.000054	0.544579	0.184508	0.004369
 131	6.5000e-02	5.2410	-4.079581	0.000408	4.084339	1.383812	0.032768
 132	6.5500e-02	5.2667	-4.137835	-0.000145	-1.452209	-0.492022	-0.011651
 133	6.6000e-02	5.3068	-4.079581	0.000145	1.452209	0.492022	0.011651
 134	6.6500e-02	5.3565	-4.014046	0.000163	1.633736	0.553525	0.013107
 135	6.7000e-02	5.3950	-3.970355	0.000109	1.089157	0.369016	0.008738
 136	6.7500e-02	5.4335	-3.868411	0.000254	2.541367	0.861038	0.020389
 137	6.8000e-02	5.4833	-3.766467	0.000254	2.541367	0.861038	0.020389
 138	6.8500e-02	5.5121	-3.806517	-0.000100	-0.998394	-0.338265	-0.008010
 139	6.9000e-02	5.5619	-3.770108	0.000091	0.907631	0.307514	0.007282
 140	6.9500e-02	5.6036	-3.649960	0.000300	2.995182	1.014795	0.024030
 141	7.0000e-02	5.6373	-3.660882	-0.000027	-0.272289	-0.092254	-0.002185
 142	7.0500e-02	5.6790	-3.697291	-0.000091	-0.907631	-0.307514	-0.007282
 143	7.1000e-02	5.6934	-3.500685	0.000490	4.901207	1.660574	0.039321
 144	7.1500e-02	5.7367	-3.522530	-0.000054	-0.544579	-0.184508	-0.004369
 145	7.2000e-02	5.7945	-3.449713	0.000182	1.815262	0.615027	0.014563
 146	7.2500e-02	5.8330	-3.406022	0.000109	1.089157	0.369016	0.008738
 147	7.3000e-02	5.8827	-3.333205	0.000182	1.815262	0.615027	0.014563
 148	7.3500e-02	5.9164	-3.227620	0.000263	2.632130	0.891790	0.021117
 149	7.4000e-02	5.9613	-3.256747	-0.000073	-0.726105	-0.246011	-0.005825
 150	7.4500e-02	5.9710	-3.307719	-0.000127	-1.270683	-0.430519	-0.010194
 151	7.5000e-02	6.0239	-3.202134	0.000263	2.632130	0.891790	0.021117
 152	7.5500e-02	6.0816	-3.023732	0.000445	4.447392	1.506817	0.035680
 153	7.6000e-02	6.0865	-3.122035	-0.000245	-2.450603	-0.830287	-0.019661
 154	7.6500e-02	6.1474	-3.056500	0.000163	1.633736	0.553525	0.013107
 155	7.7000e-02	6.2132	-2.848971	0.000517	5.173496	1.752828	0.041506
 156	7.7500e-02	6.2357	-2.834408	0.000036	0.363052	0.123005	0.002913
 157	7.8000e-02	6.2742	-2.885380	-0.000127	-1.270683	-0.430519	-0.010194
 158	7.8500e-02	6.3030	-2.765231	0.000300	2.995182	1.014795	0.024030
 159	7.9000e-02	6.3496	-2.725182	0.000100	0.998394	0.338265	0.008010
 160	7.9500e-02	6.3945	-2.659647	0.000163	1.633736	0.553525	0.013107
 161	8.0000e-02	6.4362	-2.597752	0.000154	1.542973	0.522773	0.012379
 162	8.0500e-02	6.4859	-2.586829	0.000027	0.272289	0.092254	0.002185
 163	8.1000e-02	6.4939	-2.634161	-0.000118	-1.179920	-0.399768	-0.009466
 164	8.1500e-02	6.5405	-2.492167	0.000354	3.539761	1.199303	0.028399
 165	8.2000e-02	6.5950	-2.372019	0.000300	2.995182	1.014795	0.024030
 166	8.2500e-02	6.6319	-2.357455	0.000036	0.363052	0.123005	0.002913
 167	8.3000e-02	6.6608	-2.386582	-0.000073	-0.726105	-0.246011	-0.005825
 168	8.3500e-02	6.7041	-2.328328	0.000145	1.452209	0.492022	0.011651
 169	8.4000e-02	6.7458	-2.262793	0.000163	1.633736	0.553525	0.013107
 170	8.4500e-02	6.7763	-2.215462	0.000118	1.179920	0.399768	0.009466
 171	8.5000e-02	6.8116	-2.149926	0.000163	1.633736	0.553525	0.013107
 172	8.5500e-02	6.8725	-2.069828	0.000200	1.996788	0.676530	0.016020
 173	8.6000e-02	6.9014	-2.124440	-0.000136	-1.361446	-0.461271	-0.010923
 174	8.6500e-02	6.9543	-1.953320	0.000427	4.265865	1.445314	0.034224
 175	8.7000e-02	7.0089	-1.916912	0.000091	0.907631	0.307514	0.007282
 176	8.7500e-02	7.0185	-1.869580	0.000118	1.179920	0.399768	0.009466
 177	8.8000e-02	7.0618	-1.833172	0.000091	0.907631	0.307514	0.007282
 178	8.8500e-02	7.1180	-1.785841	0.000118	1.179920	0.399768	0.009466
 179	8.9000e-02	7.1485	-1.763996	0.000054	0.544579	0.184508	0.004369
 180	8.9500e-02	7.2046	-1.636566	0.000318	3.176708	1.076298	0.025486
 181	9.0000e-02	7.2190	-1.643847	-0.000018	-0.181526	-0.061503	-0.001456
 182	9.0500e-02	7.2688	-1.589234	0.000136	1.361446	0.461271	0.010923
 183	9.1000e-02	7.3169	-1.527340	0.000154	1.542973	0.522773	0.012379
 184	9.1500e-02	7.3522	-1.505495	0.000054	0.544579	0.184508	0.004369
 185	9.2000e-02	7.3971	-1.429037	0.000191	1.906025	0.645779	0.015292
 186	9.2500e-02	7.4212	-1.534622	-0.000263	-2.632130	-0.891790	-0.021117
 187	9.3000e-02	7.4725	-1.297966	0.000590	5.899601	1.998839	0.047331
 188	9.3500e-02	7.5271	-1.199663	0.000245	2.450603	0.830287	0.019661
 189	9.4000e-02	7.5511	-1.246994	-0.000118	-1.179920	-0.399768	-0.009466
 190	9.4500e-02	7.5944	-1.185099	0.000154	1.542973	0.522773	0.012379
 191	9.5000e-02	7.6474	-1.046747	0.000345	3.448998	1.168552	0.027671
 192	9.5500e-02	7.6426	-1.152331	0.000263	2.632130	0.891790	-0.021117
 193	9.6000e-02	7.7035	-1.101359	0.000127	1.270683	0.430519	0.010194
 194	9.6500e-02	7.7645	-0.952084	0.000372	3.721287	1.260806	0.029855
 195	9.7000e-02	7.7853	-0.952084	0.000000	0.000000	0.000000	0.000000
 196	9.7500e-02	7.8431	-0.853781	0.000245	2.450603	0.830287	0.019661
 197	9.8000e-02	7.8800	-0.777323	0.000191	1.906025	0.645779	0.015292
 198	9.8500e-02	7.9089	-0.813732	-0.000091	-0.907631	-0.307514	-0.007282
 199	9.9000e-02	7.9361	-0.715429	0.000245	2.450603	0.830287	0.019661
 200	9.9500e-02	7.9987	-0.715429	0.000000	0.000000	0.000000	0.000000
 201	1.0000e-01	8.0372	-0.708147	0.000018	0.181526	0.061503	0.001456
 202	1.0050e-01	8.0725	-0.591639	0.000290	2.904419	0.984044	0.023301
 203	1.0100e-01	8.1222	-0.446005	0.000363	3.630524	1.230055	0.029127
 204	1.0150e-01	8.1575	-0.515181	-0.000172	-1.724499	-0.584276	-0.013835
 205	1.0200e-01	8.1864	-0.453287	0.000154	1.542973	0.522773	0.012379
 206	1.0250e-01	8.2377	-0.427801	0.000064	0.635342	0.215260	0.005097
 207	1.0300e-01	8.2666	-0.380470	0.000118	1.179920	0.399768	0.009466
 208	1.0350e-01	8.3051	-0.395033	-0.000036	-0.363052	-0.123005	-0.002913
 209	1.0400e-01	8.3629	-0.143814	0.000626	6.262653	2.121844	0.050244
 210	1.0450e-01	8.3966	-0.129250	0.000036	0.363052	0.123005	0.002913
 211	1.0500e-01	8.4367	-0.103764	0.000064	0.635342	0.215260	0.005097
 212	1.0550e-01	8.4816	-0.016384	0.000218	2.178314	0.738033	0.017476
 213	1.0600e-01	8.4896	-0.067356	-0.000127	-1.270683	-0.430519	-0.010194
 214	1.0650e-01	8.5409	-0.063715	0.000009	0.090763	0.030751	0.000728
 215	1.0700e-01	8.6083	0.074638	0.000345	3.448998	1.168552	0.027671
 216	1.0750e-01	8.6420	0.176582	0.000254	2.541367	0.861038	0.020389
 217	1.0800e-01	8.6677	0.118328	-0.000145	-1.452209	-0.492022	-0.011651
 218	1.0850e-01	8.7158	0.209349	0.000227	2.269077	0.768784	0.018204
 219	1.0900e-01	8.7463	0.293089	0.000209	2.087551	0.707281	0.016748
 220	1.0950e-01	8.8072	0.391392	0.000245	2.450603	0.830287	0.019661
 221	1.1000e-01	8.8377	0.263962	-0.000318	-3.176708	-1.076298	-0.025486
 222	1.1050e-01	8.8714	0.416878	0.000381	3.812050	1.291557	0.030583
 223	1.1100e-01	8.9211	0.333138	-0.000209	-2.087551	-0.707281	-0.016748
 224	1.1150e-01	8.9404	0.427801	0.000236	2.359840	0.799536	0.018932
 225	1.1200e-01	8.9933	0.526104	0.000245	2.450603	0.830287	0.019661
 226	1.1250e-01	9.0286	0.620766	0.000236	2.359840	0.799536	0.018932
 227	1.1300e-01	9.0735	0.598921	-0.000054	-0.544579	-0.184508	-0.004369
 228	1.1350e-01	9.1056	0.697224	0.000245	2.450603	0.830287	0.019661
 229	1.1400e-01	9.1794	0.762760	0.000163	1.633736	0.553525	0.013107
 230	1.1450e-01	9.1826	0.791887	0.000073	0.726105	0.246011	0.005825
 231	1.1500e-01	9.2356	0.762760	-0.000073	-0.726105	-0.246011	-0.005825
 232	1.1550e-01	9.2693	0.850140	0.000218	2.178314	0.738033	0.017476
 233	1.1600e-01	9.3206	0.868345	0.000045	0.453815	0.153757	0.003641
 234	1.1650e-01	9.3607	0.977570	0.000272	2.722893	0.922541	0.021845
 235	1.1700e-01	9.3816	0.864704	-0.000281	-2.813656	-0.953292	-0.022573
 236	1.1750e-01	9.4265	0.981211	0.000290	2.904419	0.984044	0.023301
 237	1.1800e-01	9.4938	1.112282	0.000327	3.267471	1.107049	0.026214
 238	1.1850e-01	9.5131	1.130486	0.000045	0.453815	0.153757	0.003641
 239	1.1900e-01	9.5580	1.203303	0.000182	1.815262	0.615027	0.014563
 240	1.1950e-01	9.5917	1.130486	-0.000182	-1.815262	-0.615027	-0.014563
 241	1.2000e-01	9.6430	1.283402	0.000381	3.812050	1.291557	0.030583
 242	1.2050e-01	9.6655	1.308888	0.000064	0.635342	0.215260	0.005097
 243	1.2100e-01	9.7056	1.279761	-0.000073	-0.726105	-0.246011	-0.005825
 244	1.2150e-01	9.7457	1.388987	0.000272	2.722893	0.922541	0.021845
 245	1.2200e-01	9.7922	1.399910	0.000027	0.272289	0.092254	0.002185
 246	1.2250e-01	9.8307	1.458164	0.000145	1.452209	0.492022	0.011651
 247	1.2300e-01	9.8741	1.581953	0.000309	3.085945	1.045547	0.024758
 248	1.2350e-01	9.9174	1.567389	-0.000036	-0.363052	-0.123005	-0.002913
 249	1.2400e-01	9.9430	1.713024	0.000363	3.630524	1.230055	0.029127
 250	1.2450e-01	9.9992	1.705742	-0.000018	-0.181526	-0.061503	-0.001456
 251	1.2500e-01	10.0329	1.774918	0.000172	1.724499	0.584276	0.013835
 252	1.2550e-01	10.0954	1.858658	0.000209	2.087551	0.707281	0.016748
 253	1.2600e-01	10.1147	1.825890	-0.000082	-0.816868	-0.276762	-0.006554
 254	1.2650e-01	10.1452	1.847735	0.000054	0.544579	0.184508	0.004369
 255	1.2700e-01	10.1837	1.844094	-0.000009	-0.090763	-0.030751	-0.000728
 256	1.2750e-01	10.2350	1.840454	-0.000009	-0.090763	-0.030751	-0.000728
 257	1.2800e-01	10.2751	1.975165	0.000336	3.358234	1.137801	0.026942
 258	1.2850e-01	10.3088	2.007933	0.000082	0.816868	0.276762	0.006554
 259	1.2900e-01	10.3473	2.011574	0.000009	0.090763	0.030751	0.000728
 260	1.2950e-01	10.3986	2.091673	0.000200	1.996788	0.676530	0.016020
 261	1.3000e-01	10.4468	2.211821	0.000300	2.995182	1.014795	0.024030
 262	1.3050e-01	10.4901	2.248230	0.000091	0.907631	0.307514	0.007282
