»»»»»»»»»»»»»»»»»»»»»»»»»»»»»»»»»»»» Hysteresis ««««««««««««««««««««««««««««««««««««
»»»  Executed Version:	5.48.1
»»»  Vision Version:	5.48.4 (R)
»»»  Vision Compiled:	9/18/24
»»»  Driver Version:	5.47.0
»»»  Windows Version:	Windows 8 or 8.1
»»»  Processor Information:	x86 (AMD or Intel) - 32 Processors
»»»  Tester Name:	PMF21124-494 (100V)
»»»  Tester S/N:	PMF21124-494
»»»  Internal Amp Type:	100V RevK 270k
»»»  Internal Amp S/N:	iAB2-596/K     
»»»  Execution Count:	1
»»»»»»»»»»»»»»»»»»»»»»»»»»»»»»»»»»»»»»»»»»««««««««««««««««««««««««««««««««««««««««««

Stored:	10/10/2025 - 18:44:24
Configured:	10/10/25 10:37:25 AM
Executed:	10/10/25 06:42:43 PM

»»»»»»»»»»»»»»»»»»»»»»»»»»»»»»»»»»» Sample Info ««««««««««««««««««««««««««««««««««««
Sample Name:	Int. Ref. Ferroelectric
Lot Name:	N/A
Wafer Name:	N/A
Die Row/Column:	0/0
Capacitor Number:	0
Sample Area (cm2):	1.00e-04
Sample Thickness (microns):	3.00e-01

Amplifier:	Internal

»»»»»»»»»»»»»»»»»»»»»»»»»»»»»»»»»»» Tester Info «««««««««««««««««««««««««««««««««««
Tester Name:	PMF21124-494 (100V)
Tester Serial Number:	PMF21124-494
Return Signal Amp. Level:	0.2 [Index: 1]

»»»»»»»»»»»»»»»»»»»»»»»»»»»»»»»» Hysteresis Info ««««««««««««««««««««««««««««««««««
Task Name:	'
Volts:	20.00
Field:	666.67 (kV/cm)
DCBias:	0.00
DCField:	0.00 (kV/cm)
Hysteresis Period (ms):	5.00e-03
Preset:	DisabledProfile:	Standard Monopolar

»»»»»»»»»»»»»»»»»»»»»»»»»»»»»»»»»»»»»» Data «««««««««««««««««««««««««««««««««««««««
Points:	51

Valid Data

Point	Time (ms)	Drive Voltage	Measured Polarization (uC/cm2)	Capacitance (uF)	Normalized Capacitance (uF/cm2)	Dielectric Constant	Instantaneous Current (mA)
   1	0.0000e+00	0.0690	-10.654970	0.000050	0.504605	0.170965	0.400494
   2	1.0000e-04	0.5583	-10.254476	0.000050	0.504605	0.170965	0.400494
   3	2.0000e-04	1.6572	-8.048116	0.000278	2.779918	0.941862	2.206360
   4	3.0000e-04	2.3470	-7.603931	0.000056	0.559653	0.189616	0.444185
   5	4.0000e-04	3.0914	-6.861196	0.000094	0.935814	0.317062	0.742735
   6	5.0000e-04	3.9560	-5.568692	0.000163	1.628500	0.551751	1.292504
   7	6.0000e-04	4.6924	-4.742217	0.000104	1.041322	0.352810	0.826475
   8	7.0000e-04	5.5635	-3.555298	0.000150	1.495467	0.506678	1.186920
   9	8.0000e-04	6.2758	-2.859894	0.000088	0.876179	0.296857	0.695404
  10	9.0000e-04	7.1228	-1.782200	0.000136	1.357848	0.460051	1.077694
  11	1.0000e-03	7.9458	-0.850140	0.000117	1.174355	0.397882	0.932060
  12	1.1000e-03	8.6548	-0.136532	0.000090	0.899115	0.304628	0.713608
  13	1.2000e-03	9.5709	0.963007	0.000139	1.385371	0.469377	1.099539
  14	1.3000e-03	10.2607	1.691178	0.000092	0.917465	0.310845	0.728172
  15	1.4000e-03	11.0981	2.605034	0.000115	1.151418	0.390111	0.913855
  16	1.5000e-03	11.9547	3.464276	0.000108	1.082608	0.366798	0.859242
  17	1.6000e-03	12.6959	4.239779	0.000098	0.977100	0.331050	0.775503
  18	1.7000e-03	13.6023	5.175479	0.000118	1.178942	0.399436	0.935700
  19	1.8000e-03	14.2697	5.685199	0.000064	0.642225	0.217592	0.509720
  20	1.9000e-03	15.0734	6.478906	0.000100	1.000036	0.338821	0.793707
  21	2.0000e-03	15.9637	7.330867	0.000107	1.073434	0.363689	0.851961
  22	2.1000e-03	16.7065	7.953454	0.000078	0.784432	0.265773	0.622587
  23	2.2000e-03	17.5631	8.612449	0.000083	0.830305	0.281315	0.658995
  24	2.3000e-03	18.2433	9.089401	0.000060	0.600939	0.203604	0.476952
  25	2.4000e-03	19.1064	9.813932	0.000091	0.912877	0.309291	0.724531
  26	2.5000e-03	19.9342	10.654970	0.000106	1.059672	0.359026	0.841038
  27	2.6000e-03	19.6823	10.578512	0.000010	0.096334	0.032639	-0.076458
  28	2.7000e-03	18.1038	8.721675	0.000234	2.339535	0.792656	-1.856837
  29	2.8000e-03	17.5968	8.896436	-0.000022	-0.220191	-0.074603	0.174761
  30	2.9000e-03	17.0386	8.492301	0.000051	0.509193	0.172519	-0.404135
  31	3.0000e-03	15.9316	7.476501	0.000128	1.279863	0.433629	-1.015799
  32	3.1000e-03	15.3573	7.265332	0.000027	0.266065	0.090145	-0.211170
  33	3.2000e-03	14.4365	6.340554	0.000117	1.165180	0.394774	-0.924778
  34	3.3000e-03	13.7820	5.969186	0.000047	0.467907	0.158531	-0.371367
  35	3.4000e-03	12.9044	5.262860	0.000089	0.889941	0.301520	-0.706326
  36	3.5000e-03	12.0879	4.458230	0.000101	1.013798	0.343484	-0.804630
  37	3.6000e-03	11.3949	3.908461	0.000069	0.692686	0.234688	-0.549770
  38	3.7000e-03	10.4596	3.016451	0.000112	1.123894	0.380786	-0.892010
  39	3.8000e-03	9.7938	2.408427	0.000077	0.766083	0.259556	-0.608023
  40	3.9000e-03	8.9757	1.530981	0.000111	1.105545	0.374569	-0.877447
  41	4.0000e-03	8.0661	0.726351	0.000101	1.013798	0.343484	-0.804630
  42	4.1000e-03	7.3731	-0.038229	0.000096	0.963338	0.326388	-0.764580
  43	4.2000e-03	6.4394	-1.112282	0.000135	1.353260	0.458497	-1.074053
  44	4.3000e-03	5.8169	-1.727587	0.000078	0.775258	0.262664	-0.615305
  45	4.4000e-03	4.9924	-2.645083	0.000116	1.156005	0.391665	-0.917496
  46	4.5000e-03	4.0828	-3.875693	0.000155	1.550515	0.525329	-1.230610
  47	4.6000e-03	3.3865	-4.698527	0.000104	1.036735	0.351255	-0.822834
  48	4.7000e-03	2.4850	-5.903651	0.000152	1.518404	0.514449	-1.205124
  49	4.8000e-03	1.8288	-6.682794	0.000098	0.981687	0.332605	-0.779144
  50	4.9000e-03	0.9674	-7.789615	0.000139	1.394546	0.472485	-1.106821
  51	5.0000e-03	0.1155	-8.921922	0.000139	1.394546	0.472485	-1.132307

PMax (uC/cm2):	2.12e+01
Pr (uC/cm2):	1.67e+00
-Pr (uC/cm2):	0.00e+00
PLoss (uC/cm2):	0.00e+00
C (Max-Eff) (nF):	1.07e-01
K (Eff):	3.61e+02
Vert. (+/-Pr) Shift (uC/cm2):	8.34e-01
Offset (uC/cm2):	1.06e+01

A (Loop Area - uC/cm2·Volts):	6.75e-02



Hysteresis Version: 5.48.1 - Radiant Technologies, Inc., 1999 - 9/12/24

