»»»»»»»»»»»»»»»»»»»»»»»»»»»»»»»»»»»» Hysteresis ««««««««««««««««««««««««««««««««««««
»»»  Executed Version:	5.48.1
»»»  Vision Version:	5.48.4 (R)
»»»  Vision Compiled:	9/18/24
»»»  Driver Version:	5.47.0
»»»  Windows Version:	Windows 8 or 8.1
»»»  Processor Information:	x86 (AMD or Intel) - 32 Processors
»»»  Tester Name:	PMF21124-494 (100V)
»»»  Tester S/N:	PMF21124-494
»»»  Internal Amp Type:	100V RevK 270k
»»»  Internal Amp S/N:	iAB2-596/K     
»»»  Execution Count:	1
»»»»»»»»»»»»»»»»»»»»»»»»»»»»»»»»»»»»»»»»»»««««««««««««««««««««««««««««««««««««««««««

Stored:	10/10/2025 - 18:49:0
Configured:	10/10/25 10:37:25 AM
Executed:	10/10/25 06:47:35 PM

»»»»»»»»»»»»»»»»»»»»»»»»»»»»»»»»»»» Sample Info ««««««««««««««««««««««««««««««««««««
Sample Name:	Int. Ref. Ferroelectric
Lot Name:	N/A
Wafer Name:	N/A
Die Row/Column:	0/0
Capacitor Number:	0
Sample Area (cm2):	1.00e-04
Sample Thickness (microns):	3.00e-01

Amplifier:	Internal

»»»»»»»»»»»»»»»»»»»»»»»»»»»»»»»»»»» Tester Info «««««««««««««««««««««««««««««««««««
Tester Name:	PMF21124-494 (100V)
Tester Serial Number:	PMF21124-494
Return Signal Amp. Level:	0.2 [Index: 1]

»»»»»»»»»»»»»»»»»»»»»»»»»»»»»»»» Hysteresis Info ««««««««««««««««««««««««««««««««««
Task Name:	'
Volts:	20.00
Field:	666.67 (kV/cm)
DCBias:	0.00
DCField:	0.00 (kV/cm)
Hysteresis Period (ms):	5.00e-03
Preset:	DisabledProfile:	Standard Monopolar

»»»»»»»»»»»»»»»»»»»»»»»»»»»»»»»»»»»»»» Data «««««««««««««««««««««««««««««««««««««««
Points:	51

Valid Data

Point	Time (ms)	Drive Voltage	Measured Polarization (uC/cm2)	Capacitance (uF)	Normalized Capacitance (uF/cm2)	Dielectric Constant	Instantaneous Current (mA)
   1	0.0000e+00	0.0690	-37.750233	0.000049	0.490000	0.166016	0.385931
   2	1.0000e-04	0.4925	-37.364302	0.000049	0.490000	0.166016	0.385931
   3	2.0000e-04	1.5096	-32.856920	0.000572	5.722830	1.938947	4.507382
   4	3.0000e-04	2.1208	-29.270675	0.000455	4.553302	1.542700	3.586245
   5	4.0000e-04	2.9277	-25.484183	0.000481	4.807547	1.628841	3.786492
   6	5.0000e-04	3.8165	-21.785072	0.000470	4.696604	1.591252	3.699111
   7	6.0000e-04	4.5111	-19.389388	0.000304	3.041698	1.030555	2.395684
   8	7.0000e-04	5.4351	-15.034922	0.000553	5.528679	1.873167	4.354466
   9	8.0000e-04	6.1009	-12.107672	0.000372	3.716604	1.259219	2.927250
  10	9.0000e-04	6.9560	-8.663421	0.000437	4.373019	1.481619	3.444251
  11	1.0000e-03	7.7677	-4.673041	0.000507	5.066415	1.716548	3.990380
  12	1.1000e-03	8.4928	-2.321047	0.000299	2.986226	1.011761	2.351994
  13	1.2000e-03	9.4441	1.851376	0.000530	5.297547	1.794858	4.172423
  14	1.3000e-03	10.1388	4.385413	0.000322	3.217358	1.090071	2.534037
  15	1.4000e-03	10.9377	7.552959	0.000402	4.021698	1.362588	3.167546
  16	1.5000e-03	11.8055	10.993570	0.000437	4.368396	1.480053	3.440611
  17	1.6000e-03	12.5242	13.185366	0.000278	2.782830	0.942848	2.191796
  18	1.7000e-03	13.4980	16.753407	0.000453	4.530189	1.534869	3.568041
  19	1.8000e-03	14.1397	19.130887	0.000302	3.018585	1.022724	2.377480
  20	1.9000e-03	14.9482	21.508367	0.000302	3.018585	1.022724	2.377480
  21	2.0000e-03	15.8418	24.919851	0.000433	4.331415	1.467523	3.411484
  22	2.1000e-03	16.5428	26.718434	0.000228	2.283585	0.773699	1.798584
  23	2.2000e-03	17.4829	29.652966	0.000373	3.725849	1.262352	2.934531
  24	2.3000e-03	18.1471	31.433345	0.000226	2.260472	0.765869	1.780379
  25	2.4000e-03	18.9973	33.829029	0.000304	3.041698	1.030555	2.395684
  26	2.5000e-03	19.8428	36.923758	0.000393	3.929245	1.331264	3.094729
  27	2.6000e-03	19.7144	37.750233	-0.000105	-1.049340	-0.355526	0.826475
  28	2.7000e-03	18.3043	33.261055	0.000570	5.699717	1.931116	-4.489178
  29	2.8000e-03	17.7958	30.938188	0.000295	2.949245	0.999231	-2.322867
  30	2.9000e-03	17.0257	30.089868	0.000108	1.077075	0.364923	-0.848320
  31	3.0000e-03	16.1322	28.240313	0.000235	2.348302	0.795626	-1.849556
  32	3.1000e-03	15.5530	26.390757	0.000235	2.348302	0.795626	-1.849556
  33	3.2000e-03	14.4910	23.529043	0.000363	3.633396	1.231028	-2.861714
  34	3.3000e-03	13.9039	21.533853	0.000253	2.533207	0.858274	-1.995190
  35	3.4000e-03	13.0585	19.225549	0.000293	2.930755	0.992967	-2.308304
  36	3.5000e-03	12.1938	16.808020	0.000307	3.069434	1.039952	-2.417530
  37	3.6000e-03	11.5489	14.769139	0.000259	2.588679	0.877068	-2.038880
  38	3.7000e-03	10.5655	11.492367	0.000416	4.160377	1.409574	-3.276772
  39	3.8000e-03	9.9238	9.202268	0.000291	2.907641	0.985136	-2.290099
  40	3.9000e-03	9.0944	6.329631	0.000365	3.647264	1.235727	-2.872637
  41	4.0000e-03	8.2040	3.602629	0.000346	3.462358	1.173079	-2.727002
  42	4.1000e-03	7.5495	1.145050	0.000312	3.120283	1.057180	-2.457579
  43	4.2000e-03	6.5613	-2.787077	0.000499	4.992453	1.691489	-3.932126
  44	4.3000e-03	5.9437	-5.171838	0.000303	3.027830	1.025857	-2.384762
  45	4.4000e-03	5.1384	-8.528709	0.000426	4.262075	1.444030	-3.356871
  46	4.5000e-03	4.2255	-11.823685	0.000418	4.183490	1.417405	-3.294976
  47	4.6000e-03	3.5726	-15.049485	0.000410	4.095660	1.387647	-3.225800
  48	4.7000e-03	2.6053	-19.083556	0.000512	5.121887	1.735342	-4.034070
  49	4.8000e-03	1.9764	-21.999883	0.000370	3.702736	1.254521	-2.916327
  50	4.9000e-03	1.1518	-25.851910	0.000489	4.890755	1.657033	-3.852027
  51	5.0000e-03	0.2358	-29.740346	0.000489	4.890755	1.657033	-3.888436

PMax (uC/cm2):	7.47e+01
Pr (uC/cm2):	8.01e+00
-Pr (uC/cm2):	0.00e+00
PLoss (uC/cm2):	0.00e+00
C (Max-Eff) (nF):	3.76e-01
K (Eff):	1.28e+03
Vert. (+/-Pr) Shift (uC/cm2):	4.00e+00
Offset (uC/cm2):	3.77e+01

A (Loop Area - uC/cm2·Volts):	-4.13e+00



Hysteresis Version: 5.48.1 - Radiant Technologies, Inc., 1999 - 9/12/24

