»»»»»»»»»»»»»»»»»»»»»»»»»»»»»»»»»»»» Hysteresis ««««««««««««««««««««««««««««««««««««
»»»  Executed Version:	5.48.1
»»»  Vision Version:	5.48.4 (R)
»»»  Vision Compiled:	9/18/24
»»»  Driver Version:	5.47.0
»»»  Windows Version:	Windows 8 or 8.1
»»»  Processor Information:	x86 (AMD or Intel) - 32 Processors
»»»  Tester Name:	PMF21124-494 (100V)
»»»  Tester S/N:	PMF21124-494
»»»  Internal Amp Type:	100V RevK 270k
»»»  Internal Amp S/N:	iAB2-596/K     
»»»  Execution Count:	1
»»»»»»»»»»»»»»»»»»»»»»»»»»»»»»»»»»»»»»»»»»««««««««««««««««««««««««««««««««««««««««««

Stored:	6/26/2025 - 15:5:36
Configured:	06/26/25 10:24:47 AM
Executed:	06/26/25 03:04:28 PM

»»»»»»»»»»»»»»»»»»»»»»»»»»»»»»»»»»» Sample Info ««««««««««««««««««««««««««««««««««««
Sample Name:	
Lot Name:	
Wafer Name:	
Die Row/Column:	0/0
Capacitor Number:	0
Sample Area (cm2):	1.00e-04
Sample Thickness (microns):	1.50e-01

Amplifier:	Internal

»»»»»»»»»»»»»»»»»»»»»»»»»»»»»»»»»»» Tester Info «««««««««««««««««««««««««««««««««««
Tester Name:	PMF21124-494 (100V)
Tester Serial Number:	PMF21124-494
Return Signal Amp. Level:	0.2 [Index: 1]

»»»»»»»»»»»»»»»»»»»»»»»»»»»»»»»» Hysteresis Info ««««««««««««««««««««««««««««««««««
Task Name:	Hyst-562
Volts:	10.00
Field:	666.67 (kV/cm)
DCBias:	0.00
DCField:	0.00 (kV/cm)
Hysteresis Period (ms):	1.00e-02
Preset:	Enabled
Preset Delay (ms):	1.00e+03
Profile:	Standard Monopolar

»»»»»»»»»»»»»»»»»»»»»»»»»»»»»»»»»»»»»» Data «««««««««««««««««««««««««««««««««««««««
Points:	101

Valid Data

Point	Time (ms)	Drive Voltage	Measured Polarization (uC/cm2)	Capacitance (uF)	Normalized Capacitance (uF/cm2)	Dielectric Constant	Instantaneous Current (mA)
   1	0.0000e+00	0.1521	-9.040250	0.000254	2.543728	0.430919	0.502438
   2	1.0000e-04	0.3656	-8.537811	0.000254	2.543728	0.430919	0.502438
   3	2.0000e-04	0.5492	-8.028091	0.000258	2.580594	0.437164	0.509720
   4	3.0000e-04	0.7615	-7.685851	0.000173	1.732685	0.293525	0.342241
   5	4.0000e-04	0.9545	-7.227103	0.000232	2.322535	0.393448	0.458748
   6	5.0000e-04	1.1560	-6.826608	0.000203	2.027610	0.343486	0.400494
   7	6.0000e-04	1.3633	-6.404269	0.000214	2.138206	0.362222	0.422339
   8	7.0000e-04	1.5527	-5.960084	0.000225	2.248803	0.380958	0.444185
   9	8.0000e-04	1.7552	-5.617843	0.000173	1.732685	0.293525	0.342241
  10	9.0000e-04	1.9562	-5.206427	0.000208	2.082908	0.352854	0.411417
  11	1.0000e-03	2.1544	-4.802291	0.000205	2.046042	0.346609	0.404135
  12	1.1000e-03	2.3572	-4.405438	0.000201	2.009177	0.340364	0.396853
  13	1.2000e-03	2.5607	-3.990380	0.000210	2.101341	0.355977	0.415058
  14	1.3000e-03	2.7505	-3.629935	0.000182	1.824849	0.309138	0.360445
  15	1.4000e-03	2.9562	-3.203955	0.000216	2.156639	0.365345	0.425980
  16	1.5000e-03	3.1555	-2.821665	0.000194	1.935445	0.327873	0.382290
  17	1.6000e-03	3.3539	-2.435734	0.000195	1.953878	0.330996	0.385931
  18	1.7000e-03	3.5580	-2.046162	0.000197	1.972311	0.334119	0.389572
  19	1.8000e-03	3.7589	-1.674795	0.000188	1.880147	0.318506	0.371367
  20	1.9000e-03	3.9511	-1.281582	0.000199	1.990744	0.337241	0.393213
  21	2.0000e-03	4.1556	-0.953905	0.000166	1.658953	0.281034	0.327677
  22	2.1000e-03	4.3515	-0.582537	0.000188	1.880147	0.318506	0.371367
  23	2.2000e-03	4.5566	-0.207529	0.000190	1.898580	0.321628	0.375008
  24	2.3000e-03	4.7543	0.163839	0.000188	1.880147	0.318506	0.371367
  25	2.4000e-03	4.9564	0.527924	0.000184	1.843281	0.312260	0.364086
  26	2.5000e-03	5.1627	0.892010	0.000184	1.843281	0.312260	0.364086
  27	2.6000e-03	5.3549	1.259737	0.000186	1.861714	0.315383	0.367727
  28	2.7000e-03	5.5557	1.583773	0.000164	1.640520	0.277912	0.324036
  29	2.8000e-03	5.7584	1.944218	0.000182	1.824849	0.309138	0.360445
  30	2.9000e-03	5.9537	2.297381	0.000179	1.787983	0.302893	0.353163
  31	3.0000e-03	6.1557	2.654185	0.000181	1.806416	0.306015	0.356804
  32	3.1000e-03	6.3623	2.989144	0.000170	1.695819	0.287279	0.334959
  33	3.2000e-03	6.5500	3.335026	0.000175	1.751117	0.296647	0.345881
  34	3.3000e-03	6.7563	3.666344	0.000168	1.677386	0.284157	0.331318
  35	3.4000e-03	6.9565	4.015866	0.000177	1.769550	0.299770	0.349522
  36	3.5000e-03	7.1542	4.321698	0.000155	1.548356	0.262299	0.305832
  37	3.6000e-03	7.3550	4.682143	0.000182	1.824849	0.309138	0.360445
  38	3.7000e-03	7.5595	5.017102	0.000170	1.695819	0.287279	0.334959
  39	3.8000e-03	7.7512	5.315652	0.000151	1.511491	0.256053	0.298550
  40	3.9000e-03	7.9578	5.628766	0.000159	1.585222	0.268544	0.313114
  41	4.0000e-03	8.1601	5.989211	0.000182	1.824849	0.309138	0.360445
  42	4.1000e-03	8.3475	6.291402	0.000153	1.529924	0.259176	0.302191
  43	4.2000e-03	8.5562	6.611798	0.000162	1.622088	0.274789	0.320395
  44	4.3000e-03	8.7534	6.924911	0.000159	1.585222	0.268544	0.313114
  45	4.4000e-03	8.9615	7.252589	0.000166	1.658953	0.281034	0.327677
  46	4.5000e-03	9.1483	7.562061	0.000157	1.566789	0.265421	0.309473
  47	4.6000e-03	9.3515	7.875175	0.000159	1.585222	0.268544	0.313114
  48	4.7000e-03	9.5547	8.170085	0.000149	1.493058	0.252931	0.294909
  49	4.8000e-03	9.7513	8.479558	0.000157	1.566789	0.265421	0.309473
  50	4.9000e-03	9.9484	8.763544	0.000144	1.437760	0.243563	0.283987
  51	5.0000e-03	9.8428	9.040250	-0.000140	-1.400894	-0.237318	0.276705
  52	5.1000e-03	9.6243	8.523248	0.000262	2.617460	0.443410	-0.517002
  53	5.2000e-03	9.4394	8.202852	0.000162	1.622088	0.274789	-0.320395
  54	5.3000e-03	9.2404	7.977119	0.000114	1.142834	0.193601	-0.225733
  55	5.4000e-03	9.0335	7.653083	0.000164	1.640520	0.277912	-0.324036
  56	5.5000e-03	8.8339	7.339969	0.000159	1.585222	0.268544	-0.313114
  57	5.6000e-03	8.6411	7.077827	0.000133	1.327163	0.224827	-0.262142
  58	5.7000e-03	8.4384	6.764714	0.000159	1.585222	0.268544	-0.313114
  59	5.8000e-03	8.2382	6.440677	0.000164	1.640520	0.277912	-0.324036
  60	5.9000e-03	8.0350	6.105718	0.000170	1.695819	0.287279	-0.334959
  61	6.0000e-03	7.8372	5.810809	0.000149	1.493058	0.252931	-0.294909
  62	6.1000e-03	7.6407	5.530463	0.000142	1.419327	0.240440	-0.280346
  63	6.2000e-03	7.4319	5.166377	0.000184	1.843281	0.312260	-0.364086
  64	6.3000e-03	7.2433	4.849622	0.000160	1.603655	0.271666	-0.316755
  65	6.4000e-03	7.0352	4.543790	0.000155	1.548356	0.262299	-0.305832
  66	6.5000e-03	6.8393	4.190627	0.000179	1.787983	0.302893	-0.353163
  67	6.6000e-03	6.6373	3.866591	0.000164	1.640520	0.277912	-0.324036
  68	6.7000e-03	6.4371	3.589886	0.000140	1.400894	0.237318	-0.276705
  69	6.8000e-03	6.2326	3.207596	0.000194	1.935445	0.327873	-0.382290
  70	6.9000e-03	6.0422	2.858073	0.000177	1.769550	0.299770	-0.349522
  71	7.0000e-03	5.8353	2.555882	0.000153	1.529924	0.259176	-0.302191
  72	7.1000e-03	5.6384	2.180874	0.000190	1.898580	0.321628	-0.375008
  73	7.2000e-03	5.4391	1.838633	0.000173	1.732685	0.293525	-0.342241
  74	7.3000e-03	5.2396	1.514597	0.000164	1.640520	0.277912	-0.324036
  75	7.4000e-03	5.0284	1.128666	0.000195	1.953878	0.330996	-0.385931
  76	7.5000e-03	4.8404	0.775503	0.000179	1.787983	0.302893	-0.353163
  77	7.6000e-03	4.6396	0.451466	0.000164	1.640520	0.277912	-0.324036
  78	7.7000e-03	4.4363	0.076458	0.000190	1.898580	0.321628	-0.375008
  79	7.8000e-03	4.2374	-0.273064	0.000177	1.769550	0.299770	-0.349522
  80	7.9000e-03	4.0384	-0.669918	0.000201	2.009177	0.340364	-0.396853
  81	8.0000e-03	3.8383	-1.034004	0.000184	1.843281	0.312260	-0.364086
  82	8.1000e-03	3.6307	-1.409012	0.000190	1.898580	0.321628	-0.375008
  83	8.2000e-03	3.4396	-1.762175	0.000179	1.787983	0.302893	-0.353163
  84	8.3000e-03	3.2361	-2.140824	0.000192	1.917013	0.324751	-0.378649
  85	8.4000e-03	3.0344	-2.534037	0.000199	1.990744	0.337241	-0.393213
  86	8.5000e-03	2.8384	-2.905404	0.000188	1.880147	0.318506	-0.371367
  87	8.6000e-03	2.6352	-3.313181	0.000206	2.064475	0.349732	-0.407776
  88	8.7000e-03	2.4298	-3.702752	0.000197	1.972311	0.334119	-0.389572
  89	8.8000e-03	2.2397	-4.103247	0.000203	2.027610	0.343486	-0.400494
  90	8.9000e-03	2.0380	-4.470973	0.000186	1.861714	0.315383	-0.367727
  91	9.0000e-03	1.8326	-4.878749	0.000206	2.064475	0.349732	-0.407776
  92	9.1000e-03	1.6400	-5.282885	0.000205	2.046042	0.346609	-0.404135
  93	9.2000e-03	1.4378	-5.694301	0.000208	2.082908	0.352854	-0.411417
  94	9.3000e-03	1.2326	-6.102077	0.000206	2.064475	0.349732	-0.407776
  95	9.4000e-03	1.0416	-6.524417	0.000214	2.138206	0.362222	-0.422339
  96	9.5000e-03	0.8374	-6.910348	0.000195	1.953878	0.330996	-0.385931
  97	9.6000e-03	0.6332	-7.361814	0.000229	2.285669	0.387203	-0.451466
  98	9.7000e-03	0.4400	-7.751386	0.000197	1.972311	0.334119	-0.389572
  99	9.8000e-03	0.2375	-8.210134	0.000232	2.322535	0.393448	-0.458748
 100	9.9000e-03	0.0449	-8.632474	0.000214	2.138206	0.362222	-0.422339
 101	1.0000e-02	-0.0073	-8.989278	0.000214	2.138206	0.362222	-0.356804

PMax (uC/cm2):	1.78e+01
Pr (uC/cm2):	8.37e-02
-Pr (uC/cm2):	0.00e+00
PLoss (uC/cm2):	0.00e+00
C (Max-Eff) (nF):	1.79e-01
K (Eff):	3.04e+02
Vert. (+/-Pr) Shift (uC/cm2):	4.19e-02
Offset (uC/cm2):	9.07e+00

A (Loop Area - uC/cm2·Volts):	2.73e-02



Hysteresis Version: 5.48.1 - Radiant Technologies, Inc., 1999 - 9/12/24

»»»»»»»»»»»»»»»»»»»»»»»»»»»»»»»»»»»» Hysteresis ««««««««««««««««««««««««««««««««««««
»»»  Executed Version:	5.48.1
»»»  Vision Version:	5.48.4 (R)
»»»  Vision Compiled:	9/18/24
»»»  Driver Version:	5.47.0
»»»  Windows Version:	Windows 8 or 8.1
»»»  Processor Information:	x86 (AMD or Intel) - 32 Processors
»»»  Tester Name:	PMF21124-494 (100V)
»»»  Tester S/N:	PMF21124-494
»»»  Internal Amp Type:	100V RevK 270k
»»»  Internal Amp S/N:	iAB2-596/K     
»»»  Execution Count:	1
»»»»»»»»»»»»»»»»»»»»»»»»»»»»»»»»»»»»»»»»»»««««««««««««««««««««««««««««««««««««««««««

Stored:	6/26/2025 - 15:6:36
Configured:	06/26/25 10:24:47 AM
Executed:	06/26/25 03:05:46 PM

»»»»»»»»»»»»»»»»»»»»»»»»»»»»»»»»»»» Sample Info ««««««««««««««««««««««««««««««««««««
Sample Name:	
Lot Name:	
Wafer Name:	
Die Row/Column:	0/0
Capacitor Number:	0
Sample Area (cm2):	1.00e-04
Sample Thickness (microns):	1.50e-01

Amplifier:	Internal

»»»»»»»»»»»»»»»»»»»»»»»»»»»»»»»»»»» Tester Info «««««««««««««««««««««««««««««««««««
Tester Name:	PMF21124-494 (100V)
Tester Serial Number:	PMF21124-494
Return Signal Amp. Level:	1.9 [Index: 2]

»»»»»»»»»»»»»»»»»»»»»»»»»»»»»»»» Hysteresis Info ««««««««««««««««««««««««««««««««««
Task Name:	Hyst-562
Volts:	10.00
Field:	666.67 (kV/cm)
DCBias:	0.00
DCField:	0.00 (kV/cm)
Hysteresis Period (ms):	2.00e+02
Preset:	Enabled
Preset Delay (ms):	1.00e+03
Profile:	Standard Monopolar

»»»»»»»»»»»»»»»»»»»»»»»»»»»»»»»»»»»»»» Data «««««««««««««««««««««««««««««««««««««««
Points:	2011

Valid Data

Point	Time (ms)	Drive Voltage	Measured Polarization (uC/cm2)	Capacitance (uF)	Normalized Capacitance (uF/cm2)	Dielectric Constant	Instantaneous Current (mA)
   1	0.0000e+00	-0.0023	-17.985599	0.000205	2.047435	0.346845	0.000020
   2	9.9500e-02	0.0046	-17.965232	0.000205	2.047435	0.346845	0.000020
   3	1.9900e-01	0.0147	-17.945272	0.000201	2.006487	0.339908	0.000020
   4	2.9850e-01	0.0249	-17.928979	0.000164	1.637948	0.277476	0.000016
   5	3.9800e-01	0.0363	-17.908612	0.000205	2.047435	0.346845	0.000020
   6	4.9750e-01	0.0437	-17.887837	0.000209	2.088384	0.353782	0.000021
   7	5.9700e-01	0.0546	-17.867063	0.000209	2.088384	0.353782	0.000021
   8	6.9650e-01	0.0641	-17.847103	0.000201	2.006487	0.339908	0.000020
   9	7.9600e-01	0.0739	-17.826736	0.000205	2.047435	0.346845	0.000020
  10	8.9550e-01	0.0838	-17.804739	0.000221	2.211230	0.374593	0.000022
  11	9.9500e-01	0.0965	-17.783557	0.000213	2.129333	0.360719	0.000021
  12	1.0945e+00	0.1041	-17.764820	0.000188	1.883640	0.319097	0.000019
  13	1.1940e+00	0.1140	-17.737935	0.000270	2.702615	0.457835	0.000027
  14	1.2935e+00	0.1253	-17.720419	0.000176	1.760794	0.298287	0.000018
  15	1.3930e+00	0.1330	-17.697608	0.000229	2.293127	0.388466	0.000023
  16	1.4925e+00	0.1459	-17.676834	0.000209	2.088384	0.353782	0.000021
  17	1.5920e+00	0.1528	-17.653208	0.000238	2.375025	0.402340	0.000024
  18	1.6915e+00	0.1646	-17.632433	0.000209	2.088384	0.353782	0.000021
  19	1.7910e+00	0.1727	-17.614918	0.000176	1.760794	0.298287	0.000018
  20	1.8905e+00	0.1834	-17.590070	0.000250	2.497871	0.423151	0.000025
  21	1.9900e+00	0.1968	-17.573776	0.000164	1.637948	0.277476	0.000016
  22	2.0895e+00	0.2050	-17.549335	0.000246	2.456922	0.416214	0.000025
  23	2.1890e+00	0.2148	-17.527339	0.000221	2.211230	0.374593	0.000022
  24	2.2885e+00	0.2238	-17.504528	0.000229	2.293127	0.388466	0.000023
  25	2.3880e+00	0.2348	-17.487419	0.000172	1.719846	0.291350	0.000017
  26	2.4875e+00	0.2454	-17.462979	0.000246	2.456922	0.416214	0.000025
  27	2.5870e+00	0.2540	-17.443834	0.000192	1.924589	0.326034	0.000019
  28	2.6865e+00	0.2642	-17.419393	0.000246	2.456922	0.416214	0.000025
  29	2.7860e+00	0.2729	-17.399026	0.000205	2.047435	0.346845	0.000020
  30	2.8855e+00	0.2835	-17.374993	0.000242	2.415974	0.409277	0.000024
  31	2.9850e+00	0.2919	-17.355033	0.000201	2.006487	0.339908	0.000020
  32	3.0845e+00	0.3046	-17.333851	0.000213	2.129333	0.360719	0.000021
  33	3.1840e+00	0.3142	-17.313891	0.000201	2.006487	0.339908	0.000020
  34	3.2835e+00	0.3248	-17.291488	0.000225	2.252179	0.381529	0.000023
  35	3.3830e+00	0.3339	-17.269491	0.000221	2.211230	0.374593	0.000022
  36	3.4825e+00	0.3440	-17.250753	0.000188	1.883640	0.319097	0.000019
  37	3.5820e+00	0.3529	-17.227128	0.000238	2.375025	0.402340	0.000024
  38	3.6815e+00	0.3646	-17.205538	0.000217	2.170281	0.367656	0.000022
  39	3.7810e+00	0.3728	-17.185986	0.000197	1.965538	0.332971	0.000020
  40	3.8805e+00	0.3834	-17.166026	0.000201	2.006487	0.339908	0.000020
  41	3.9800e+00	0.3935	-17.141178	0.000250	2.497871	0.423151	0.000025
  42	4.0795e+00	0.4044	-17.120404	0.000209	2.088384	0.353782	0.000021
  43	4.1790e+00	0.4098	-17.097593	0.000229	2.293127	0.388466	0.000023
  44	4.2785e+00	0.4251	-17.072745	0.000250	2.497871	0.423151	0.000025
  45	4.3780e+00	0.4343	-17.055229	0.000176	1.760794	0.298287	0.000018
  46	4.4775e+00	0.4409	-17.035269	0.000201	2.006487	0.339908	0.000020
  47	4.5770e+00	0.4557	-17.010829	0.000246	2.456922	0.416214	0.000025
  48	4.6765e+00	0.4632	-16.986795	0.000242	2.415974	0.409277	0.000024
  49	4.7760e+00	0.4755	-16.965206	0.000217	2.170281	0.367656	0.000022
  50	4.8755e+00	0.4819	-16.948913	0.000164	1.637948	0.277476	0.000016
  51	4.9750e+00	0.4927	-16.926916	0.000221	2.211230	0.374593	0.000022
  52	5.0745e+00	0.5011	-16.905734	0.000213	2.129333	0.360719	0.000021
  53	5.1740e+00	0.5179	-16.891070	0.000147	1.474153	0.249728	0.000015
  54	5.2735e+00	0.5237	-16.869481	0.000217	2.170281	0.367656	0.000022
  55	5.3730e+00	0.5324	-16.848299	0.000213	2.129333	0.360719	0.000021
  56	5.4725e+00	0.5437	-16.821822	0.000266	2.661666	0.450898	0.000027
  57	5.5720e+00	0.5544	-16.801455	0.000205	2.047435	0.346845	0.000020
  58	5.6715e+00	0.5640	-16.779458	0.000221	2.211230	0.374593	0.000022
  59	5.7710e+00	0.5714	-16.762757	0.000168	1.678897	0.284413	0.000017
  60	5.8705e+00	0.5820	-16.746871	0.000160	1.596999	0.270539	0.000016
  61	5.9700e+00	0.5946	-16.722023	0.000250	2.497871	0.423151	0.000025
  62	6.0695e+00	0.5999	-16.703692	0.000184	1.842692	0.312160	0.000018
  63	6.1690e+00	0.6123	-16.683733	0.000201	2.006487	0.339908	0.000020
  64	6.2685e+00	0.6230	-16.666217	0.000176	1.760794	0.298287	0.000018
  65	6.3680e+00	0.6351	-16.641776	0.000246	2.456922	0.416214	0.000025
  66	6.4675e+00	0.6423	-16.621816	0.000201	2.006487	0.339908	0.000020
  67	6.5670e+00	0.6532	-16.598191	0.000238	2.375025	0.402340	0.000024
  68	6.6665e+00	0.6616	-16.578231	0.000201	2.006487	0.339908	0.000020
  69	6.7660e+00	0.6712	-16.558678	0.000197	1.965538	0.332971	0.000020
  70	6.8655e+00	0.6808	-16.532608	0.000262	2.620717	0.443961	0.000026
  71	6.9650e+00	0.6924	-16.511427	0.000213	2.129333	0.360719	0.000021
  72	7.0645e+00	0.7014	-16.487393	0.000242	2.415974	0.409277	0.000024
  73	7.1640e+00	0.7084	-16.461731	0.000258	2.579768	0.437025	0.000026
  74	7.2635e+00	0.7207	-16.440956	0.000209	2.088384	0.353782	0.000021
  75	7.3630e+00	0.7339	-16.416923	0.000242	2.415974	0.409277	0.000024
  76	7.4625e+00	0.7401	-16.393705	0.000233	2.334076	0.395403	0.000023
  77	7.5620e+00	0.7511	-16.367227	0.000266	2.661666	0.450898	0.000027
  78	7.6615e+00	0.7595	-16.345638	0.000217	2.170281	0.367656	0.000022
  79	7.7610e+00	0.7696	-16.325271	0.000205	2.047435	0.346845	0.000020
  80	7.8605e+00	0.7806	-16.299609	0.000258	2.579768	0.437025	0.000026
  81	7.9600e+00	0.7891	-16.278427	0.000213	2.129333	0.360719	0.000021
  82	8.0595e+00	0.8001	-16.253986	0.000246	2.456922	0.416214	0.000025
  83	8.1590e+00	0.8077	-16.228324	0.000258	2.579768	0.437025	0.000026
  84	8.2585e+00	0.8194	-16.205105	0.000233	2.334076	0.395403	0.000023
  85	8.3580e+00	0.8308	-16.180257	0.000250	2.497871	0.423151	0.000025
  86	8.4575e+00	0.8440	-16.156224	0.000242	2.415974	0.409277	0.000024
  87	8.5570e+00	0.8505	-16.133005	0.000233	2.334076	0.395403	0.000023
  88	8.6565e+00	0.8620	-16.110194	0.000229	2.293127	0.388466	0.000023
  89	8.7560e+00	0.8730	-16.086161	0.000242	2.415974	0.409277	0.000024
  90	8.8555e+00	0.8807	-16.063757	0.000225	2.252179	0.381529	0.000023
  91	8.9550e+00	0.8916	-16.039724	0.000242	2.415974	0.409277	0.000024
  92	9.0545e+00	0.9026	-16.020986	0.000188	1.883640	0.319097	0.000019
  93	9.1540e+00	0.9084	-15.994916	0.000262	2.620717	0.443961	0.000026
  94	9.2535e+00	0.9205	-15.975364	0.000197	1.965538	0.332971	0.000020
  95	9.3530e+00	0.9317	-15.952960	0.000225	2.252179	0.381529	0.000023
  96	9.4525e+00	0.9422	-15.928519	0.000246	2.456922	0.416214	0.000025
  97	9.5520e+00	0.9488	-15.908560	0.000201	2.006487	0.339908	0.000020
  98	9.6515e+00	0.9583	-15.884934	0.000238	2.375025	0.402340	0.000024
  99	9.7510e+00	0.9712	-15.862530	0.000225	2.252179	0.381529	0.000023
 100	9.8505e+00	0.9808	-15.835238	0.000274	2.743563	0.464772	0.000027
 101	9.9500e+00	0.9919	-15.818944	0.000164	1.637948	0.277476	0.000016
 102	1.0050e+01	1.0011	-15.796540	0.000225	2.252179	0.381529	0.000023
 103	1.0149e+01	1.0098	-15.772915	0.000238	2.375025	0.402340	0.000024
 104	1.0248e+01	1.0212	-15.750918	0.000221	2.211230	0.374593	0.000022
 105	1.0348e+01	1.0299	-15.727292	0.000238	2.375025	0.402340	0.000024
 106	1.0447e+01	1.0405	-15.704888	0.000225	2.252179	0.381529	0.000023
 107	1.0547e+01	1.0516	-15.684929	0.000201	2.006487	0.339908	0.000020
 108	1.0646e+01	1.0616	-15.660895	0.000242	2.415974	0.409277	0.000024
 109	1.0746e+01	1.0721	-15.640936	0.000201	2.006487	0.339908	0.000020
 110	1.0845e+01	1.0827	-15.620976	0.000201	2.006487	0.339908	0.000020
 111	1.0945e+01	1.0899	-15.592055	0.000291	2.907358	0.492520	0.000029
 112	1.1044e+01	1.0998	-15.575353	0.000168	1.678897	0.284413	0.000017
 113	1.1144e+01	1.1106	-15.549691	0.000258	2.579768	0.437025	0.000026
 114	1.1243e+01	1.1221	-15.531768	0.000180	1.801743	0.305224	0.000018
 115	1.1343e+01	1.1292	-15.507735	0.000242	2.415974	0.409277	0.000024
 116	1.1443e+01	1.1418	-15.487775	0.000201	2.006487	0.339908	0.000020
 117	1.1542e+01	1.1514	-15.464964	0.000229	2.293127	0.388466	0.000023
 118	1.1642e+01	1.1625	-15.440523	0.000246	2.456922	0.416214	0.000025
 119	1.1741e+01	1.1699	-15.418527	0.000221	2.211230	0.374593	0.000022
 120	1.1841e+01	1.1802	-15.396123	0.000225	2.252179	0.381529	0.000023
 121	1.1940e+01	1.1909	-15.376570	0.000197	1.965538	0.332971	0.000020
 122	1.2040e+01	1.2001	-15.357425	0.000192	1.924589	0.326034	0.000019
 123	1.2139e+01	1.2096	-15.333392	0.000242	2.415974	0.409277	0.000024
 124	1.2239e+01	1.2200	-15.312618	0.000209	2.088384	0.353782	0.000021
 125	1.2338e+01	1.2280	-15.294694	0.000180	1.801743	0.305224	0.000018
 126	1.2438e+01	1.2377	-15.272698	0.000221	2.211230	0.374593	0.000022
 127	1.2537e+01	1.2472	-15.249072	0.000238	2.375025	0.402340	0.000024
 128	1.2636e+01	1.2617	-15.231149	0.000180	1.801743	0.305224	0.000018
 129	1.2736e+01	1.2666	-15.209560	0.000217	2.170281	0.367656	0.000022
 130	1.2835e+01	1.2819	-15.185527	0.000242	2.415974	0.409277	0.000024
 131	1.2935e+01	1.2888	-15.166789	0.000188	1.883640	0.319097	0.000019
 132	1.3034e+01	1.2990	-15.142756	0.000242	2.415974	0.409277	0.000024
 133	1.3134e+01	1.3093	-15.120759	0.000221	2.211230	0.374593	0.000022
 134	1.3233e+01	1.3165	-15.093060	0.000278	2.784512	0.471709	0.000028
