»»»»»»»»»»»»»»»»»»»»»»»»»»»»»»»»»»»» Hysteresis ««««««««««««««««««««««««««««««««««««
»»»  Executed Version:	5.48.1
»»»  Vision Version:	5.48.4 (R)
»»»  Vision Compiled:	9/18/24
»»»  Driver Version:	5.47.0
»»»  Windows Version:	Windows 8 or 8.1
»»»  Processor Information:	x86 (AMD or Intel) - 32 Processors
»»»  Tester Name:	PMF21124-494 (100V)
»»»  Tester S/N:	PMF21124-494
»»»  Internal Amp Type:	100V RevK 270k
»»»  Internal Amp S/N:	iAB2-596/K     
»»»  Execution Count:	1
»»»»»»»»»»»»»»»»»»»»»»»»»»»»»»»»»»»»»»»»»»««««««««««««««««««««««««««««««««««««««««««

Stored:	6/26/2025 - 16:20:36
Configured:	06/26/25 10:24:47 AM
Executed:	06/26/25 04:19:24 PM

»»»»»»»»»»»»»»»»»»»»»»»»»»»»»»»»»»» Sample Info ««««««««««««««««««««««««««««««««««««
Sample Name:	
Lot Name:	
Wafer Name:	
Die Row/Column:	0/0
Capacitor Number:	0
Sample Area (cm2):	1.00e-04
Sample Thickness (microns):	1.50e-01

Amplifier:	Internal

»»»»»»»»»»»»»»»»»»»»»»»»»»»»»»»»»»» Tester Info «««««««««««««««««««««««««««««««««««
Tester Name:	PMF21124-494 (100V)
Tester Serial Number:	PMF21124-494
Return Signal Amp. Level:	0.2 [Index: 1]

»»»»»»»»»»»»»»»»»»»»»»»»»»»»»»»» Hysteresis Info ««««««««««««««««««««««««««««««««««
Task Name:	Hyst-562
Volts:	10.00
Field:	666.67 (kV/cm)
DCBias:	0.00
DCField:	0.00 (kV/cm)
Hysteresis Period (ms):	1.00e-02
Preset:	Enabled
Preset Delay (ms):	1.00e+03
Profile:	Standard Monopolar

»»»»»»»»»»»»»»»»»»»»»»»»»»»»»»»»»»»»»» Data «««««««««««««««««««««««««««««««««««««««
Points:	101

Valid Data

Point	Time (ms)	Drive Voltage	Measured Polarization (uC/cm2)	Capacitance (uF)	Normalized Capacitance (uF/cm2)	Dielectric Constant	Instantaneous Current (mA)
   1	0.0000e+00	0.1498	-9.935901	0.000328	3.282195	0.556019	0.648073
   2	1.0000e-04	0.3614	-9.287828	0.000328	3.282195	0.556019	0.648073
   3	2.0000e-04	0.5496	-8.701650	0.000297	2.968727	0.502916	0.586178
   4	3.0000e-04	0.7645	-8.395818	0.000155	1.548901	0.262391	0.305832
   5	4.0000e-04	0.9506	-7.915225	0.000243	2.433987	0.412329	0.480593
   6	5.0000e-04	1.1504	-7.427350	0.000247	2.470866	0.418576	0.487875
   7	6.0000e-04	1.3622	-6.972242	0.000230	2.304912	0.390463	0.455107
   8	7.0000e-04	1.5488	-6.524417	0.000227	2.268033	0.384215	0.447825
   9	8.0000e-04	1.7529	-6.087514	0.000221	2.212715	0.374844	0.436903
  10	9.0000e-04	1.9559	-5.646970	0.000223	2.231155	0.377968	0.440544
  11	1.0000e-03	2.1524	-5.180941	0.000236	2.360230	0.399834	0.466030
  12	1.1000e-03	2.3560	-4.780446	0.000203	2.028323	0.343607	0.400494
  13	1.2000e-03	2.5620	-4.328980	0.000229	2.286473	0.387339	0.451466
  14	1.3000e-03	2.7478	-3.888436	0.000223	2.231155	0.377968	0.440544
  15	1.4000e-03	2.9568	-3.509787	0.000192	1.917687	0.324865	0.378649
  16	1.5000e-03	3.1558	-3.054680	0.000230	2.304912	0.390463	0.455107
  17	1.6000e-03	3.3536	-2.617777	0.000221	2.212715	0.374844	0.436903
  18	1.7000e-03	3.5556	-2.242768	0.000190	1.899247	0.321741	0.375008
  19	1.8000e-03	3.7589	-1.780379	0.000234	2.341791	0.396710	0.462389
  20	1.9000e-03	3.9487	-1.387167	0.000199	1.991444	0.337360	0.393213
  21	2.0000e-03	4.1586	-1.012158	0.000190	1.899247	0.321741	0.375008
  22	2.1000e-03	4.3546	-0.593460	0.000212	2.120519	0.359226	0.418699
  23	2.2000e-03	4.5572	-0.207529	0.000195	1.954565	0.331112	0.385931
  24	2.3000e-03	4.7513	0.192965	0.000203	2.028323	0.343607	0.400494
  25	2.4000e-03	4.9545	0.589819	0.000201	2.009883	0.340483	0.396853
  26	2.5000e-03	5.1596	1.001236	0.000208	2.083640	0.352978	0.411417
  27	2.6000e-03	5.3543	1.401730	0.000203	2.028323	0.343607	0.400494
  28	2.7000e-03	5.5539	1.743971	0.000173	1.733294	0.293628	0.342241
  29	2.8000e-03	5.7547	2.188155	0.000225	2.249594	0.381092	0.444185
  30	2.9000e-03	5.9512	2.526755	0.000171	1.714854	0.290504	0.338600
  31	3.0000e-03	6.1557	2.901764	0.000190	1.899247	0.321741	0.375008
  32	3.1000e-03	6.3589	3.305899	0.000205	2.046762	0.346731	0.404135
  33	3.2000e-03	6.5488	3.669985	0.000184	1.843930	0.312370	0.364086
  34	3.3000e-03	6.7557	4.001303	0.000168	1.677976	0.284257	0.331318
  35	3.4000e-03	6.9540	4.394515	0.000199	1.991444	0.337360	0.393213
  36	3.5000e-03	7.1518	4.776805	0.000194	1.936126	0.327989	0.382290
  37	3.6000e-03	7.3538	5.119046	0.000173	1.733294	0.293628	0.342241
  38	3.7000e-03	7.5607	5.483132	0.000184	1.843930	0.312370	0.364086
  39	3.8000e-03	7.7499	5.861781	0.000192	1.917687	0.324865	0.378649
  40	3.9000e-03	7.9529	6.196740	0.000170	1.696415	0.287381	0.334959
  41	4.0000e-03	8.1558	6.571748	0.000190	1.899247	0.321741	0.375008
  42	4.1000e-03	8.3521	6.892144	0.000162	1.622658	0.274886	0.320395
  43	4.2000e-03	8.5538	7.212539	0.000162	1.622658	0.274886	0.320395
  44	4.3000e-03	8.7521	7.572984	0.000183	1.825490	0.309246	0.360445
  45	4.4000e-03	8.9578	7.944351	0.000188	1.880808	0.318618	0.371367
  46	4.5000e-03	9.1458	8.290233	0.000175	1.751733	0.296752	0.345881
  47	4.6000e-03	9.3521	8.606988	0.000160	1.604219	0.271762	0.316755
  48	4.7000e-03	9.5520	8.981996	0.000190	1.899247	0.321741	0.375008
  49	4.8000e-03	9.7501	9.338800	0.000181	1.807051	0.306123	0.356804
  50	4.9000e-03	9.9448	9.640991	0.000153	1.530462	0.259267	0.302191
  51	5.0000e-03	9.8434	9.935901	-0.000149	-1.493583	-0.253020	0.294909
  52	5.1000e-03	9.6323	9.240497	0.000352	3.521905	0.596627	-0.695404
  53	5.2000e-03	9.4363	8.865488	0.000190	1.899247	0.321741	-0.375008
  54	5.3000e-03	9.2416	8.832721	0.000017	0.165954	0.028113	-0.032768
  55	5.4000e-03	9.0372	8.348487	0.000245	2.452426	0.415452	-0.484234
  56	5.5000e-03	8.8315	7.995324	0.000179	1.788612	0.302999	-0.353163
  57	5.6000e-03	8.6404	7.747745	0.000125	1.253872	0.212412	-0.247578
  58	5.7000e-03	8.4402	7.401864	0.000175	1.751733	0.296752	-0.345881
  59	5.8000e-03	8.2419	7.019574	0.000194	1.936126	0.327989	-0.382290
  60	5.9000e-03	8.0374	6.742868	0.000140	1.401386	0.237401	-0.276705
  61	6.0000e-03	7.8391	6.364219	0.000192	1.917687	0.324865	-0.378649
  62	6.1000e-03	7.6389	6.047465	0.000160	1.604219	0.271762	-0.316755
  63	6.2000e-03	7.4326	5.690661	0.000181	1.807051	0.306123	-0.356804
  64	6.3000e-03	7.2418	5.322934	0.000186	1.862369	0.315494	-0.367727
  65	6.4000e-03	7.0364	4.984334	0.000171	1.714854	0.290504	-0.338600
  66	6.5000e-03	6.8399	4.627530	0.000181	1.807051	0.306123	-0.356804
  67	6.6000e-03	6.6391	4.245240	0.000194	1.936126	0.327989	-0.382290
  68	6.7000e-03	6.4401	3.932126	0.000159	1.585779	0.268638	-0.313114
  69	6.8000e-03	6.2320	3.538914	0.000199	1.991444	0.337360	-0.393213
  70	6.9000e-03	6.0400	3.171187	0.000186	1.862369	0.315494	-0.367727
  71	7.0000e-03	5.8365	2.843510	0.000166	1.659537	0.281133	-0.327677
  72	7.1000e-03	5.6396	2.384762	0.000232	2.323351	0.393586	-0.458748
  73	7.2000e-03	5.4385	2.057085	0.000166	1.659537	0.281133	-0.327677
  74	7.3000e-03	5.2393	1.692999	0.000184	1.843930	0.312370	-0.364086
  75	7.4000e-03	5.0308	1.267018	0.000216	2.157398	0.365473	-0.425980
  76	7.5000e-03	4.8416	0.884728	0.000194	1.936126	0.327989	-0.382290
  77	7.6000e-03	4.6396	0.553410	0.000168	1.677976	0.284257	-0.331318
  78	7.7000e-03	4.4382	0.112867	0.000223	2.231155	0.377968	-0.440544
  79	7.8000e-03	4.2392	-0.273064	0.000195	1.954565	0.331112	-0.385931
  80	7.9000e-03	4.0372	-0.655354	0.000194	1.936126	0.327989	-0.382290
  81	8.0000e-03	3.8388	-1.074053	0.000212	2.120519	0.359226	-0.418699
  82	8.1000e-03	3.6343	-1.492752	0.000212	2.120519	0.359226	-0.418699
  83	8.2000e-03	3.4396	-1.918732	0.000216	2.157398	0.365473	-0.425980
  84	8.3000e-03	3.2364	-2.282818	0.000184	1.843930	0.312370	-0.364086
  85	8.4000e-03	3.0380	-2.767052	0.000245	2.452426	0.415452	-0.484234
  86	8.5000e-03	2.8366	-3.156624	0.000197	1.973005	0.334236	-0.389572
  87	8.6000e-03	2.6364	-3.586245	0.000218	2.175837	0.368597	-0.429621
  88	8.7000e-03	2.4313	-4.015866	0.000218	2.175837	0.368597	-0.429621
  89	8.8000e-03	2.2403	-4.449128	0.000219	2.194276	0.371720	-0.433262
  90	8.9000e-03	2.0413	-4.860545	0.000208	2.083640	0.352978	-0.411417
  91	9.0000e-03	1.8369	-5.312011	0.000229	2.286473	0.387339	-0.451466
  92	9.1000e-03	1.6397	-5.774400	0.000234	2.341791	0.396710	-0.462389
  93	9.2000e-03	1.4359	-6.171254	0.000201	2.009883	0.340483	-0.396853
  94	9.3000e-03	1.2369	-6.651847	0.000243	2.433987	0.412329	-0.480593
  95	9.4000e-03	1.0410	-7.128799	0.000242	2.415548	0.409205	-0.476952
  96	9.5000e-03	0.8377	-7.543857	0.000210	2.102080	0.356102	-0.415058
  97	9.6000e-03	0.6401	-8.017169	0.000240	2.397108	0.406081	-0.473312
  98	9.7000e-03	0.4406	-8.494121	0.000242	2.415548	0.409205	-0.476952
  99	9.8000e-03	0.2394	-8.956510	0.000234	2.341791	0.396710	-0.462389
 100	9.9000e-03	0.0453	-9.400695	0.000225	2.249594	0.381092	-0.444185
 101	1.0000e-02	-0.0054	-9.866724	0.000225	2.249594	0.381092	-0.466030

PMax (uC/cm2):	1.96e+01
Pr (uC/cm2):	9.83e-02
-Pr (uC/cm2):	0.00e+00
PLoss (uC/cm2):	0.00e+00
C (Max-Eff) (nF):	1.97e-01
K (Eff):	3.34e+02
Vert. (+/-Pr) Shift (uC/cm2):	4.92e-02
Offset (uC/cm2):	9.97e+00

A (Loop Area - uC/cm2·Volts):	1.38e-02



Hysteresis Version: 5.48.1 - Radiant Technologies, Inc., 1999 - 9/12/24

