»»»»»»»»»»»»»»»»»»»»»»»»»»»»»»»»»»»» Hysteresis ««««««««««««««««««««««««««««««««««««
»»»  Executed Version:	5.48.1
»»»  Vision Version:	5.48.4 (R)
»»»  Vision Compiled:	9/18/24
»»»  Driver Version:	5.47.0
»»»  Windows Version:	Windows 8 or 8.1
»»»  Processor Information:	x86 (AMD or Intel) - 32 Processors
»»»  Tester Name:	PMF21124-494 (100V)
»»»  Tester S/N:	PMF21124-494
»»»  Internal Amp Type:	100V RevK 270k
»»»  Internal Amp S/N:	iAB2-596/K     
»»»  Execution Count:	1
»»»»»»»»»»»»»»»»»»»»»»»»»»»»»»»»»»»»»»»»»»««««««««««««««««««««««««««««««««««««««««««

Stored:	6/27/2025 - 12:22:29
Configured:	06/27/25 11:23:28 AM
Executed:	06/27/25 12:22:00 PM

»»»»»»»»»»»»»»»»»»»»»»»»»»»»»»»»»»» Sample Info ««««««««««««««««««««««««««««««««««««
Sample Name:	
Lot Name:	
Wafer Name:	
Die Row/Column:	0/0
Capacitor Number:	0
Sample Area (cm2):	1.00e-04
Sample Thickness (microns):	1.50e-01

Amplifier:	Internal

»»»»»»»»»»»»»»»»»»»»»»»»»»»»»»»»»»» Tester Info «««««««««««««««««««««««««««««««««««
Tester Name:	PMF21124-494 (100V)
Tester Serial Number:	PMF21124-494
Return Signal Amp. Level:	1.9 [Index: 2]

»»»»»»»»»»»»»»»»»»»»»»»»»»»»»»»» Hysteresis Info ««««««««««««««««««««««««««««««««««
Task Name:	Hyst-1276
Volts:	10.00
Field:	666.67 (kV/cm)
DCBias:	0.00
DCField:	0.00 (kV/cm)
Hysteresis Period (ms):	2.00e+02
Preset:	Enabled
Preset Delay (ms):	1.00e+03
Profile:	Standard Monopolar

»»»»»»»»»»»»»»»»»»»»»»»»»»»»»»»»»»»»»» Data «««««««««««««««««««««««««««««««««««««««
Points:	2011

Valid Data

Point	Time (ms)	Drive Voltage	Measured Polarization (uC/cm2)	Capacitance (uF)	Normalized Capacitance (uF/cm2)	Dielectric Constant	Instantaneous Current (mA)
   1	0.0000e+00	-0.0028	-15.996749	0.000348	3.481530	0.589787	0.000035
   2	9.9500e-02	0.0054	-15.962125	0.000348	3.481530	0.589787	0.000035
   3	1.9900e-01	0.0181	-15.918947	0.000434	4.341673	0.735499	0.000043
   4	2.9850e-01	0.0244	-15.877805	0.000414	4.136877	0.700806	0.000041
   5	3.9800e-01	0.0360	-15.837478	0.000405	4.054958	0.686929	0.000041
   6	4.9750e-01	0.0459	-15.797966	0.000397	3.973040	0.673051	0.000040
   7	5.9700e-01	0.0536	-15.757639	0.000405	4.054958	0.686929	0.000041
   8	6.9650e-01	0.0653	-15.714054	0.000438	4.382632	0.742438	0.000044
   9	7.9600e-01	0.0764	-15.675763	0.000385	3.850163	0.652235	0.000038
  10	8.9550e-01	0.0876	-15.638288	0.000377	3.768244	0.638358	0.000038
  11	9.9500e-01	0.0949	-15.596739	0.000418	4.177836	0.707745	0.000042
  12	1.0945e+00	0.1050	-15.561707	0.000352	3.522489	0.596726	0.000035
  13	1.1940e+00	0.1132	-15.514456	0.000475	4.751264	0.804886	0.000047
  14	1.2935e+00	0.1254	-15.486756	0.000279	2.785224	0.471830	0.000028
  15	1.3930e+00	0.1358	-15.443985	0.000430	4.300713	0.728561	0.000043
  16	1.4925e+00	0.1456	-15.400400	0.000438	4.382632	0.742438	0.000044
  17	1.5920e+00	0.1543	-15.361702	0.000389	3.891122	0.659174	0.000039
  18	1.6915e+00	0.1659	-15.324634	0.000373	3.727285	0.631419	0.000037
  19	1.7910e+00	0.1737	-15.283493	0.000414	4.136877	0.700806	0.000041
  20	1.8905e+00	0.1844	-15.243166	0.000405	4.054958	0.686929	0.000041
  21	1.9900e+00	0.1938	-15.197543	0.000459	4.587428	0.777131	0.000046
  22	2.0895e+00	0.2059	-15.159253	0.000385	3.850163	0.652235	0.000038
  23	2.1890e+00	0.2135	-15.115667	0.000438	4.382632	0.742438	0.000044
  24	2.2885e+00	0.2237	-15.081043	0.000348	3.481530	0.589787	0.000035
  25	2.3880e+00	0.2372	-15.039902	0.000414	4.136877	0.700806	0.000041
  26	2.4875e+00	0.2453	-14.996316	0.000438	4.382632	0.742438	0.000044
  27	2.5870e+00	0.2538	-14.959248	0.000373	3.727285	0.631419	0.000037
  28	2.6865e+00	0.2661	-14.916884	0.000426	4.259754	0.721622	0.000043
  29	2.7860e+00	0.2744	-14.879816	0.000373	3.727285	0.631419	0.000037
  30	2.8855e+00	0.2831	-14.840304	0.000397	3.973040	0.673051	0.000040
  31	2.9850e+00	0.2917	-14.792645	0.000479	4.792224	0.811825	0.000048
  32	3.0845e+00	0.3040	-14.749874	0.000430	4.300713	0.728561	0.000043
  33	3.1840e+00	0.3144	-14.714435	0.000356	3.563448	0.603664	0.000036
  34	3.2835e+00	0.3239	-14.665961	0.000487	4.874142	0.825702	0.000049
  35	3.3830e+00	0.3348	-14.624412	0.000418	4.177836	0.707745	0.000042
  36	3.4825e+00	0.3453	-14.581641	0.000430	4.300713	0.728561	0.000043
  37	3.5820e+00	0.3549	-14.539278	0.000426	4.259754	0.721622	0.000043
  38	3.6815e+00	0.3636	-14.496099	0.000434	4.341673	0.735499	0.000043
  39	3.7810e+00	0.3724	-14.459031	0.000373	3.727285	0.631419	0.000037
  40	3.8805e+00	0.3810	-14.417890	0.000414	4.136877	0.700806	0.000041
  41	3.9800e+00	0.3960	-14.375933	0.000422	4.218795	0.714683	0.000042
  42	4.0795e+00	0.4035	-14.336828	0.000393	3.932081	0.666113	0.000039
  43	4.1790e+00	0.4135	-14.290799	0.000463	4.628387	0.784070	0.000046
  44	4.2785e+00	0.4262	-14.252101	0.000389	3.891122	0.659174	0.000039
  45	4.3780e+00	0.4360	-14.204442	0.000479	4.792224	0.811825	0.000048
  46	4.4775e+00	0.4437	-14.170633	0.000340	3.399612	0.575910	0.000034
  47	4.5770e+00	0.4534	-14.127862	0.000430	4.300713	0.728561	0.000043
  48	4.6765e+00	0.4640	-14.087535	0.000405	4.054958	0.686929	0.000041
  49	4.7760e+00	0.4753	-14.043949	0.000438	4.382632	0.742438	0.000044
  50	4.8755e+00	0.4845	-14.007288	0.000369	3.686326	0.624481	0.000037
  51	4.9750e+00	0.4963	-13.964517	0.000430	4.300713	0.728561	0.000043
  52	5.0745e+00	0.5018	-13.922154	0.000426	4.259754	0.721622	0.000043
  53	5.1740e+00	0.5123	-13.884678	0.000377	3.768244	0.638358	0.000038
  54	5.2735e+00	0.5228	-13.842315	0.000426	4.259754	0.721622	0.000043
  55	5.3730e+00	0.5364	-13.801988	0.000405	4.054958	0.686929	0.000041
  56	5.4725e+00	0.5417	-13.759217	0.000430	4.300713	0.728561	0.000043
  57	5.5720e+00	0.5542	-13.720112	0.000393	3.932081	0.666113	0.000039
  58	5.6715e+00	0.5619	-13.677748	0.000426	4.259754	0.721622	0.000043
  59	5.7710e+00	0.5731	-13.635792	0.000422	4.218795	0.714683	0.000042
  60	5.8705e+00	0.5814	-13.598724	0.000373	3.727285	0.631419	0.000037
  61	5.9700e+00	0.5927	-13.558397	0.000405	4.054958	0.686929	0.000041
  62	6.0695e+00	0.6047	-13.517663	0.000410	4.095918	0.693867	0.000041
  63	6.1690e+00	0.6161	-13.476521	0.000414	4.136877	0.700806	0.000041
  64	6.2685e+00	0.6239	-13.435379	0.000414	4.136877	0.700806	0.000041
  65	6.3680e+00	0.6313	-13.392201	0.000434	4.341673	0.735499	0.000043
  66	6.4675e+00	0.6428	-13.353096	0.000393	3.932081	0.666113	0.000039
  67	6.5670e+00	0.6533	-13.314399	0.000389	3.891122	0.659174	0.000039
  68	6.6665e+00	0.6597	-13.269998	0.000446	4.464550	0.756315	0.000045
  69	6.7660e+00	0.6709	-13.232523	0.000377	3.768244	0.638358	0.000038
  70	6.8655e+00	0.6831	-13.188122	0.000446	4.464550	0.756315	0.000045
  71	6.9650e+00	0.6952	-13.148203	0.000401	4.013999	0.679990	0.000040
  72	7.0645e+00	0.7032	-13.109098	0.000393	3.932081	0.666113	0.000039
  73	7.1640e+00	0.7121	-13.067956	0.000414	4.136877	0.700806	0.000041
  74	7.2635e+00	0.7240	-13.030481	0.000377	3.768244	0.638358	0.000038
  75	7.3630e+00	0.7309	-12.989339	0.000414	4.136877	0.700806	0.000041
  76	7.4625e+00	0.7421	-12.949420	0.000401	4.013999	0.679990	0.000040
  77	7.5620e+00	0.7500	-12.910722	0.000389	3.891122	0.659174	0.000039
  78	7.6615e+00	0.7623	-12.869988	0.000410	4.095918	0.693867	0.000041
  79	7.7610e+00	0.7744	-12.826402	0.000438	4.382632	0.742438	0.000044
  80	7.8605e+00	0.7806	-12.791371	0.000352	3.522489	0.596726	0.000035
  81	7.9600e+00	0.7918	-12.749415	0.000422	4.218795	0.714683	0.000042
  82	8.0595e+00	0.8017	-12.705829	0.000438	4.382632	0.742438	0.000044
  83	8.1590e+00	0.8147	-12.667131	0.000389	3.891122	0.659174	0.000039
  84	8.2585e+00	0.8193	-12.628434	0.000389	3.891122	0.659174	0.000039
  85	8.3580e+00	0.8331	-12.586477	0.000422	4.218795	0.714683	0.000042
  86	8.4575e+00	0.8435	-12.544521	0.000422	4.218795	0.714683	0.000042
  87	8.5570e+00	0.8519	-12.507860	0.000369	3.686326	0.624481	0.000037
  88	8.6565e+00	0.8591	-12.466311	0.000418	4.177836	0.707745	0.000042
  89	8.7560e+00	0.8695	-12.425170	0.000414	4.136877	0.700806	0.000041
  90	8.8555e+00	0.8823	-12.387287	0.000381	3.809203	0.645297	0.000038
  91	8.9550e+00	0.8893	-12.347775	0.000397	3.973040	0.673051	0.000040
  92	9.0545e+00	0.9005	-12.303782	0.000442	4.423591	0.749377	0.000044
  93	9.1540e+00	0.9107	-12.265899	0.000381	3.809203	0.645297	0.000038
  94	9.2535e+00	0.9233	-12.225979	0.000401	4.013999	0.679990	0.000040
  95	9.3530e+00	0.9322	-12.182394	0.000438	4.382632	0.742438	0.000044
  96	9.4525e+00	0.9422	-12.142881	0.000397	3.973040	0.673051	0.000040
  97	9.5520e+00	0.9531	-12.098888	0.000442	4.423591	0.749377	0.000044
  98	9.6515e+00	0.9646	-12.062635	0.000365	3.645367	0.617542	0.000036
  99	9.7510e+00	0.9718	-12.020271	0.000426	4.259754	0.721622	0.000043
 100	9.8505e+00	0.9812	-11.977093	0.000434	4.341673	0.735499	0.000043
 101	9.9500e+00	0.9898	-11.939210	0.000381	3.809203	0.645297	0.000038
 102	1.0050e+01	1.0001	-11.896439	0.000430	4.300713	0.728561	0.000043
 103	1.0149e+01	1.0101	-11.856520	0.000401	4.013999	0.679990	0.000040
 104	1.0248e+01	1.0197	-11.816193	0.000405	4.054958	0.686929	0.000041
 105	1.0348e+01	1.0297	-11.779532	0.000369	3.686326	0.624481	0.000037
 106	1.0447e+01	1.0432	-11.739205	0.000405	4.054958	0.686929	0.000041
 107	1.0547e+01	1.0517	-11.701322	0.000381	3.809203	0.645297	0.000038
 108	1.0646e+01	1.0586	-11.663439	0.000381	3.809203	0.645297	0.000038
 109	1.0746e+01	1.0704	-11.618224	0.000455	4.546469	0.770193	0.000045
 110	1.0845e+01	1.0820	-11.573824	0.000446	4.464550	0.756315	0.000045
 111	1.0945e+01	1.0923	-11.539607	0.000344	3.440571	0.582848	0.000034
 112	1.1044e+01	1.0986	-11.496836	0.000430	4.300713	0.728561	0.000043
 113	1.1144e+01	1.1086	-11.459768	0.000373	3.727285	0.631419	0.000037
 114	1.1243e+01	1.1208	-11.419848	0.000401	4.013999	0.679990	0.000040
 115	1.1343e+01	1.1285	-11.383188	0.000369	3.686326	0.624481	0.000037
 116	1.1443e+01	1.1435	-11.342861	0.000405	4.054958	0.686929	0.000041
 117	1.1542e+01	1.1490	-11.309051	0.000340	3.399612	0.575910	0.000034
 118	1.1642e+01	1.1608	-11.271168	0.000381	3.809203	0.645297	0.000038
 119	1.1741e+01	1.1707	-11.234100	0.000373	3.727285	0.631419	0.000037
 120	1.1841e+01	1.1819	-11.197439	0.000369	3.686326	0.624481	0.000037
 121	1.1940e+01	1.1919	-11.159149	0.000385	3.850163	0.652235	0.000038
 122	1.2040e+01	1.1988	-11.120859	0.000385	3.850163	0.652235	0.000038
 123	1.2139e+01	1.2092	-11.075644	0.000455	4.546469	0.770193	0.000045
 124	1.2239e+01	1.2212	-11.039798	0.000360	3.604407	0.610603	0.000036
 125	1.2338e+01	1.2279	-11.002730	0.000373	3.727285	0.631419	0.000037
 126	1.2438e+01	1.2417	-10.961995	0.000410	4.095918	0.693867	0.000041
 127	1.2537e+01	1.2490	-10.923705	0.000385	3.850163	0.652235	0.000038
 128	1.2636e+01	1.2582	-10.885415	0.000385	3.850163	0.652235	0.000038
 129	1.2736e+01	1.2691	-10.849569	0.000360	3.604407	0.610603	0.000036
 130	1.2835e+01	1.2794	-10.809649	0.000401	4.013999	0.679990	0.000040
 131	1.2935e+01	1.2891	-10.767286	0.000426	4.259754	0.721622	0.000043
 132	1.3034e+01	1.2986	-10.735513	0.000319	3.194816	0.541216	0.000032
 133	1.3134e+01	1.3077	-10.689891	0.000459	4.587428	0.777131	0.000046
 134	1.3233e+01	1.3177	-10.653230	0.000369	3.686326	0.624481	0.000037
 135	1.3333e+01	1.3278	-10.612495	0.000410	4.095918	0.693867	0.000041
 136	1.3432e+01	1.3382	-10.575835	0.000369	3.686326	0.624481	0.000037
 137	1.3532e+01	1.3464	-10.540396	0.000356	3.563448	0.603664	0.000036
 138	1.3632e+01	1.3590	-10.500884	0.000397	3.973040	0.673051	0.000040
 139	1.3731e+01	1.3681	-10.463001	0.000381	3.809203	0.645297	0.000038
 140	1.3831e+01	1.3799	-10.422674	0.000405	4.054958	0.686929	0.000041
 141	1.3930e+01	1.3897	-10.380310	0.000426	4.259754	0.721622	0.000043
 142	1.4030e+01	1.3992	-10.346093	0.000344	3.440571	0.582848	0.000034
 143	1.4129e+01	1.4084	-10.304137	0.000422	4.218795	0.714683	0.000042
 144	1.4229e+01	1.4179	-10.267476	0.000369	3.686326	0.624481	0.000037
 145	1.4328e+01	1.4307	-10.226742	0.000410	4.095918	0.693867	0.000041
 146	1.4428e+01	1.4400	-10.190896	0.000360	3.604407	0.610603	0.000036
 147	1.4527e+01	1.4488	-10.151791	0.000393	3.932081	0.666113	0.000039
 148	1.4627e+01	1.4577	-10.111464	0.000405	4.054958	0.686929	0.000041
 149	1.4726e+01	1.4680	-10.071137	0.000405	4.054958	0.686929	0.000041
 150	1.4825e+01	1.4774	-10.035291	0.000360	3.604407	0.610603	0.000036
 151	1.4925e+01	1.4898	-10.000260	0.000352	3.522489	0.596726	0.000035
 152	1.5024e+01	1.4983	-9.962784	0.000377	3.768244	0.638358	0.000038
 153	1.5124e+01	1.5047	-9.922457	0.000405	4.054958	0.686929	0.000041
 154	1.5223e+01	1.5179	-9.885389	0.000373	3.727285	0.631419	0.000037
 155	1.5323e+01	1.5266	-9.848321	0.000373	3.727285	0.631419	0.000037
 156	1.5422e+01	1.5366	-9.805957	0.000426	4.259754	0.721622	0.000043
 157	1.5522e+01	1.5456	-9.766445	0.000397	3.973040	0.673051	0.000040
 158	1.5621e+01	1.5578	-9.731006	0.000356	3.563448	0.603664	0.000036
 159	1.5721e+01	1.5675	-9.688643	0.000426	4.259754	0.721622	0.000043
 160	1.5820e+01	1.5776	-9.650760	0.000381	3.809203	0.645297	0.000038
 161	1.5920e+01	1.5899	-9.616950	0.000340	3.399612	0.575910	0.000034
 162	1.6020e+01	1.5957	-9.570921	0.000463	4.628387	0.784070	0.000046
 163	1.6119e+01	1.6076	-9.537111	0.000340	3.399612	0.575910	0.000034
 164	1.6218e+01	1.6171	-9.498006	0.000393	3.932081	0.666113	0.000039
 165	1.6318e+01	1.6273	-9.460531	0.000377	3.768244	0.638358	0.000038
 166	1.6418e+01	1.6376	-9.421833	0.000389	3.891122	0.659174	0.000039
 167	1.6517e+01	1.6457	-9.384358	0.000377	3.768244	0.638358	0.000038
 168	1.6616e+01	1.6573	-9.346475	0.000381	3.809203	0.645297	0.000038
 169	1.6716e+01	1.6667	-9.308999	0.000377	3.768244	0.638358	0.000038
 170	1.6816e+01	1.6747	-9.273153	0.000360	3.604407	0.610603	0.000036
 171	1.6915e+01	1.6897	-9.233234	0.000401	4.013999	0.679990	0.000040
 172	1.7015e+01	1.6984	-9.193314	0.000401	4.013999	0.679990	0.000040
 173	1.7114e+01	1.7077	-9.155431	0.000381	3.809203	0.645297	0.000038
 174	1.7213e+01	1.7147	-9.117141	0.000385	3.850163	0.652235	0.000038
 175	1.7313e+01	1.7276	-9.078443	0.000389	3.891122	0.659174	0.000039
 176	1.7413e+01	1.7359	-9.036080	0.000426	4.259754	0.721622	0.000043
 177	1.7512e+01	1.7454	-9.003085	0.000332	3.317693	0.562032	0.000033
 178	1.7611e+01	1.7574	-8.965610	0.000377	3.768244	0.638358	0.000038
 179	1.7711e+01	1.7695	-8.928541	0.000373	3.727285	0.631419	0.000037
 180	1.7811e+01	1.7765	-8.891066	0.000377	3.768244	0.638358	0.000038
 181	1.7910e+01	1.7865	-8.856849	0.000344	3.440571	0.582848	0.000034
 182	1.8009e+01	1.7985	-8.821410	0.000356	3.563448	0.603664	0.000036
 183	1.8109e+01	1.8104	-8.785157	0.000365	3.645367	0.617542	0.000036
 184	1.8209e+01	1.8163	-8.748903	0.000365	3.645367	0.617542	0.000036
 185	1.8308e+01	1.8276	-8.712242	0.000369	3.686326	0.624481	0.000037
 186	1.8407e+01	1.8365	-8.674767	0.000377	3.768244	0.638358	0.000038
 187	1.8507e+01	1.8484	-8.636884	0.000381	3.809203	0.645297	0.000038
 188	1.8607e+01	1.8540	-8.598187	0.000389	3.891122	0.659174	0.000039
 189	1.8706e+01	1.8668	-8.557860	0.000405	4.054958	0.686929	0.000041
 190	1.8805e+01	1.8771	-8.519569	0.000385	3.850163	0.652235	0.000038
 191	1.8905e+01	1.8860	-8.481687	0.000381	3.809203	0.645297	0.000038
 192	1.9005e+01	1.8955	-8.445026	0.000369	3.686326	0.624481	0.000037
 193	1.9104e+01	1.9048	-8.410402	0.000348	3.481530	0.589787	0.000035
 194	1.9203e+01	1.9166	-8.372111	0.000385	3.850163	0.652235	0.000038
 195	1.9303e+01	1.9243	-8.340746	0.000315	3.153857	0.534278	0.000032
 196	1.9402e+01	1.9351	-8.298382	0.000426	4.259754	0.721622	0.000043
 197	1.9502e+01	1.9454	-8.257648	0.000410	4.095918	0.693867	0.000041
 198	1.9602e+01	1.9553	-8.223839	0.000340	3.399612	0.575910	0.000034
 199	1.9701e+01	1.9627	-8.187178	0.000369	3.686326	0.624481	0.000037
 200	1.9800e+01	1.9736	-8.145629	0.000418	4.177836	0.707745	0.000042
 201	1.9900e+01	1.9884	-8.107746	0.000381	3.809203	0.645297	0.000038
 202	2.0000e+01	1.9975	-8.066605	0.000414	4.136877	0.700806	0.000041
 203	2.0099e+01	2.0078	-8.027092	0.000397	3.973040	0.673051	0.000040
 204	2.0198e+01	2.0142	-7.989617	0.000377	3.768244	0.638358	0.000038
 205	2.0298e+01	2.0249	-7.950105	0.000397	3.973040	0.673051	0.000040
 206	2.0398e+01	2.0338	-7.911814	0.000385	3.850163	0.652235	0.000038
 207	2.0497e+01	2.0476	-7.873932	0.000381	3.809203	0.645297	0.000038
 208	2.0596e+01	2.0561	-7.838900	0.000352	3.522489	0.596726	0.000035
 209	2.0696e+01	2.0643	-7.798573	0.000405	4.054958	0.686929	0.000041
 210	2.0796e+01	2.0731	-7.758246	0.000405	4.054958	0.686929	0.000041
 211	2.0895e+01	2.0853	-7.724437	0.000340	3.399612	0.575910	0.000034
 212	2.0994e+01	2.0949	-7.687776	0.000369	3.686326	0.624481	0.000037
 213	2.1094e+01	2.1046	-7.649486	0.000385	3.850163	0.652235	0.000038
 214	2.1194e+01	2.1170	-7.612010	0.000377	3.768244	0.638358	0.000038
 215	2.1293e+01	2.1252	-7.575349	0.000369	3.686326	0.624481	0.000037
 216	2.1392e+01	2.1382	-7.537059	0.000385	3.850163	0.652235	0.000038
 217	2.1492e+01	2.1447	-7.501213	0.000360	3.604407	0.610603	0.000036
 218	2.1591e+01	2.1549	-7.461294	0.000401	4.013999	0.679990	0.000040
 219	2.1691e+01	2.1645	-7.431150	0.000303	3.030979	0.513462	0.000030
 220	2.1791e+01	2.1777	-7.388379	0.000430	4.300713	0.728561	0.000043
 221	2.1890e+01	2.1848	-7.354977	0.000336	3.358652	0.568971	0.000034
 222	2.1989e+01	2.1951	-7.318316	0.000369	3.686326	0.624481	0.000037
 223	2.2089e+01	2.2047	-7.277582	0.000410	4.095918	0.693867	0.000041
 224	2.2189e+01	2.2151	-7.244587	0.000332	3.317693	0.562032	0.000033
 225	2.2288e+01	2.2235	-7.205075	0.000397	3.973040	0.673051	0.000040
 226	2.2387e+01	2.2343	-7.169229	0.000360	3.604407	0.610603	0.000036
 227	2.2487e+01	2.2448	-7.132161	0.000373	3.727285	0.631419	0.000037
 228	2.2587e+01	2.2567	-7.093463	0.000389	3.891122	0.659174	0.000039
 229	2.2686e+01	2.2628	-7.056802	0.000369	3.686326	0.624481	0.000037
 230	2.2785e+01	2.2736	-7.023400	0.000336	3.358652	0.568971	0.000034
 231	2.2885e+01	2.2825	-6.985517	0.000381	3.809203	0.645297	0.000038
 232	2.2985e+01	2.2940	-6.947635	0.000381	3.809203	0.645297	0.000038
 233	2.3084e+01	2.3035	-6.909752	0.000381	3.809203	0.645297	0.000038
 234	2.3183e+01	2.3142	-6.872684	0.000373	3.727285	0.631419	0.000037
 235	2.3283e+01	2.3214	-6.836023	0.000369	3.686326	0.624481	0.000037
 236	2.3383e+01	2.3348	-6.798547	0.000377	3.768244	0.638358	0.000038
 237	2.3482e+01	2.3438	-6.760257	0.000385	3.850163	0.652235	0.000038
 238	2.3581e+01	2.3551	-6.728077	0.000324	3.235775	0.548155	0.000032
 239	2.3681e+01	2.3637	-6.688972	0.000393	3.932081	0.666113	0.000039
 240	2.3780e+01	2.3740	-6.654348	0.000348	3.481530	0.589787	0.000035
 241	2.3880e+01	2.3840	-6.617280	0.000373	3.727285	0.631419	0.000037
 242	2.3980e+01	2.3927	-6.578990	0.000385	3.850163	0.652235	0.000038
 243	2.4079e+01	2.4024	-6.545180	0.000340	3.399612	0.575910	0.000034
 244	2.4178e+01	2.4133	-6.507297	0.000381	3.809203	0.645297	0.000038
 245	2.4278e+01	2.4242	-6.475525	0.000319	3.194816	0.541216	0.000032
 246	2.4378e+01	2.4356	-6.433976	0.000418	4.177836	0.707745	0.000042
 247	2.4477e+01	2.4441	-6.400981	0.000332	3.317693	0.562032	0.000033
 248	2.4576e+01	2.4518	-6.365135	0.000360	3.604407	0.610603	0.000036
 249	2.4676e+01	2.4623	-6.327252	0.000381	3.809203	0.645297	0.000038
 250	2.4776e+01	2.4779	-6.293442	0.000340	3.399612	0.575910	0.000034
 251	2.4875e+01	2.4860	-6.253930	0.000397	3.973040	0.673051	0.000040
 252	2.4974e+01	2.4935	-6.218899	0.000352	3.522489	0.596726	0.000035
 253	2.5074e+01	2.5046	-6.181831	0.000373	3.727285	0.631419	0.000037
 254	2.5174e+01	2.5133	-6.151687	0.000303	3.030979	0.513462	0.000030
 255	2.5273e+01	2.5239	-6.112990	0.000389	3.891122	0.659174	0.000039
 256	2.5372e+01	2.5323	-6.078366	0.000348	3.481530	0.589787	0.000035
 257	2.5472e+01	2.5417	-6.042927	0.000356	3.563448	0.603664	0.000036
 258	2.5572e+01	2.5517	-6.004637	0.000385	3.850163	0.652235	0.000038
 259	2.5671e+01	2.5640	-5.972049	0.000328	3.276734	0.555094	0.000033
 260	2.5770e+01	2.5732	-5.932130	0.000401	4.013999	0.679990	0.000040
 261	2.5870e+01	2.5806	-5.897505	0.000348	3.481530	0.589787	0.000035
 262	2.5970e+01	2.5909	-5.861659	0.000360	3.604407	0.610603	0.000036
 263	2.6069e+01	2.6033	-5.821740	0.000401	4.013999	0.679990	0.000040
