»»»»»»»»»»»»»»»»»»»»»»»»»»»»»»»»»»»» Hysteresis ««««««««««««««««««««««««««««««««««««
»»»  Executed Version:	5.48.1
»»»  Vision Version:	5.48.4 (R)
»»»  Vision Compiled:	9/18/24
»»»  Driver Version:	5.47.0
»»»  Windows Version:	Windows 8 or 8.1
»»»  Processor Information:	x86 (AMD or Intel) - 32 Processors
»»»  Tester Name:	PMF21124-494 (100V)
»»»  Tester S/N:	PMF21124-494
»»»  Internal Amp Type:	100V RevK 270k
»»»  Internal Amp S/N:	iAB2-596/K     
»»»  Execution Count:	1
»»»»»»»»»»»»»»»»»»»»»»»»»»»»»»»»»»»»»»»»»»««««««««««««««««««««««««««««««««««««««««««

Stored:	6/27/2025 - 13:58:25
Configured:	06/27/25 11:23:28 AM
Executed:	06/27/25 01:57:51 PM

»»»»»»»»»»»»»»»»»»»»»»»»»»»»»»»»»»» Sample Info ««««««««««««««««««««««««««««««««««««
Sample Name:	
Lot Name:	
Wafer Name:	
Die Row/Column:	0/0
Capacitor Number:	0
Sample Area (cm2):	1.00e-04
Sample Thickness (microns):	1.50e-01

Amplifier:	Internal

»»»»»»»»»»»»»»»»»»»»»»»»»»»»»»»»»»» Tester Info «««««««««««««««««««««««««««««««««««
Tester Name:	PMF21124-494 (100V)
Tester Serial Number:	PMF21124-494
Return Signal Amp. Level:	1.9 [Index: 2]

»»»»»»»»»»»»»»»»»»»»»»»»»»»»»»»» Hysteresis Info ««««««««««««««««««««««««««««««««««
Task Name:	Hyst-1276
Volts:	10.00
Field:	666.67 (kV/cm)
DCBias:	0.00
DCField:	0.00 (kV/cm)
Hysteresis Period (ms):	2.00e+02
Preset:	Enabled
Preset Delay (ms):	1.00e+03
Profile:	Standard Monopolar

»»»»»»»»»»»»»»»»»»»»»»»»»»»»»»»»»»»»»» Data «««««««««««««««««««««««««««««««««««««««
Points:	2011

Valid Data

Point	Time (ms)	Drive Voltage	Measured Polarization (uC/cm2)	Capacitance (uF)	Normalized Capacitance (uF/cm2)	Dielectric Constant	Instantaneous Current (mA)
   1	0.0000e+00	-0.0051	-19.742060	0.000397	3.971994	0.672874	0.000040
   2	9.9500e-02	0.0031	-19.702548	0.000397	3.971994	0.672874	0.000040
   3	1.9900e-01	0.0159	-19.656518	0.000463	4.627168	0.783864	0.000046
   4	2.9850e-01	0.0231	-19.606008	0.000508	5.077601	0.860169	0.000051
   5	3.9800e-01	0.0344	-19.564866	0.000414	4.135788	0.700621	0.000041
   6	4.9750e-01	0.0454	-19.513134	0.000520	5.200446	0.880979	0.000052
   7	5.9700e-01	0.0555	-19.469548	0.000438	4.381478	0.742242	0.000044
   8	6.9650e-01	0.0639	-19.421074	0.000487	4.872859	0.825485	0.000049
   9	7.9600e-01	0.0738	-19.378711	0.000426	4.258633	0.721432	0.000043
  10	8.9550e-01	0.0858	-19.329422	0.000495	4.954755	0.839358	0.000050
  11	9.9500e-01	0.0985	-19.283393	0.000463	4.627168	0.783864	0.000046
  12	1.0945e+00	0.1042	-19.242658	0.000409	4.094839	0.693685	0.000041
  13	1.1940e+00	0.1156	-19.194185	0.000487	4.872859	0.825485	0.000049
  14	1.2935e+00	0.1247	-19.149784	0.000446	4.463375	0.756116	0.000045
  15	1.3930e+00	0.1329	-19.104977	0.000450	4.504323	0.763053	0.000045
  16	1.4925e+00	0.1449	-19.057318	0.000479	4.790962	0.811611	0.000048
  17	1.5920e+00	0.1550	-19.015769	0.000418	4.176736	0.707558	0.000042
  18	1.6915e+00	0.1654	-18.969332	0.000467	4.668117	0.790800	0.000047
  19	1.7910e+00	0.1727	-18.924524	0.000450	4.504323	0.763053	0.000045
  20	1.8905e+00	0.1855	-18.879716	0.000450	4.504323	0.763053	0.000045
  21	1.9900e+00	0.1948	-18.836538	0.000434	4.340530	0.735306	0.000043
  22	2.0895e+00	0.2034	-18.796618	0.000401	4.012942	0.679811	0.000040
  23	2.1890e+00	0.2116	-18.748959	0.000479	4.790962	0.811611	0.000048
  24	2.2885e+00	0.2262	-18.704966	0.000442	4.422426	0.749179	0.000044
  25	2.3880e+00	0.2318	-18.660159	0.000450	4.504323	0.763053	0.000045
  26	2.4875e+00	0.2427	-18.616166	0.000442	4.422426	0.749179	0.000044
  27	2.5870e+00	0.2547	-18.572173	0.000442	4.422426	0.749179	0.000044
  28	2.6865e+00	0.2631	-18.524921	0.000475	4.750013	0.804674	0.000047
  29	2.7860e+00	0.2754	-18.479299	0.000459	4.586220	0.776927	0.000046
  30	2.8855e+00	0.2832	-18.432861	0.000467	4.668117	0.790800	0.000047
  31	2.9850e+00	0.2964	-18.388054	0.000450	4.504323	0.763053	0.000045
  32	3.0845e+00	0.3056	-18.344468	0.000438	4.381478	0.742242	0.000044
  33	3.1840e+00	0.3143	-18.300068	0.000446	4.463375	0.756116	0.000045
  34	3.2835e+00	0.3245	-18.246706	0.000536	5.364239	0.908727	0.000054
  35	3.3830e+00	0.3342	-18.203935	0.000430	4.299581	0.728369	0.000043
  36	3.4825e+00	0.3426	-18.156276	0.000479	4.790962	0.811611	0.000048
  37	3.5820e+00	0.3537	-18.106173	0.000504	5.036652	0.853232	0.000050
  38	3.6815e+00	0.3648	-18.059328	0.000471	4.709065	0.797737	0.000047
  39	3.7810e+00	0.3754	-18.010447	0.000491	4.913807	0.832421	0.000049
  40	3.8805e+00	0.3827	-17.962788	0.000479	4.790962	0.811611	0.000048
  41	3.9800e+00	0.3933	-17.910241	0.000528	5.282343	0.894853	0.000053
  42	4.0795e+00	0.4027	-17.864619	0.000459	4.586220	0.776927	0.000046
  43	4.1790e+00	0.4133	-17.813701	0.000512	5.118549	0.867106	0.000051
  44	4.2785e+00	0.4237	-17.766449	0.000475	4.750013	0.804674	0.000047
  45	4.3780e+00	0.4339	-17.716346	0.000504	5.036652	0.853232	0.000050
  46	4.4775e+00	0.4439	-17.669094	0.000475	4.750013	0.804674	0.000047
  47	4.5770e+00	0.4500	-17.615732	0.000536	5.364239	0.908727	0.000054
  48	4.6765e+00	0.4646	-17.566444	0.000495	4.954755	0.839358	0.000050
  49	4.7760e+00	0.4740	-17.515119	0.000516	5.159497	0.874043	0.000052
  50	4.8755e+00	0.4847	-17.469089	0.000463	4.627168	0.783864	0.000046
  51	4.9750e+00	0.4935	-17.416949	0.000524	5.241394	0.887916	0.000052
  52	5.0745e+00	0.5043	-17.368068	0.000491	4.913807	0.832421	0.000049
  53	5.1740e+00	0.5145	-17.318372	0.000500	4.995704	0.846295	0.000050
  54	5.2735e+00	0.5212	-17.269898	0.000487	4.872859	0.825485	0.000049
  55	5.3730e+00	0.5309	-17.217759	0.000524	5.241394	0.887916	0.000052
  56	5.4725e+00	0.5430	-17.168470	0.000495	4.954755	0.839358	0.000050
  57	5.5720e+00	0.5529	-17.120404	0.000483	4.831910	0.818548	0.000048
  58	5.6715e+00	0.5621	-17.070301	0.000504	5.036652	0.853232	0.000050
  59	5.7710e+00	0.5730	-17.017346	0.000532	5.323291	0.901790	0.000053
  60	5.8705e+00	0.5822	-16.972131	0.000455	4.545272	0.769990	0.000045
  61	5.9700e+00	0.5925	-16.915510	0.000569	5.691827	0.964222	0.000057
  62	6.0695e+00	0.6030	-16.867444	0.000483	4.831910	0.818548	0.000048
  63	6.1690e+00	0.6122	-16.817748	0.000500	4.995704	0.846295	0.000050
  64	6.2685e+00	0.6233	-16.769682	0.000483	4.831910	0.818548	0.000048
  65	6.3680e+00	0.6323	-16.717135	0.000528	5.282343	0.894853	0.000053
  66	6.4675e+00	0.6409	-16.663773	0.000536	5.364239	0.908727	0.000054
  67	6.5670e+00	0.6519	-16.614892	0.000491	4.913807	0.832421	0.000049
  68	6.6665e+00	0.6639	-16.561937	0.000532	5.323291	0.901790	0.000053
  69	6.7660e+00	0.6744	-16.511834	0.000504	5.036652	0.853232	0.000050
  70	6.8655e+00	0.6831	-16.460101	0.000520	5.200446	0.880979	0.000052
  71	6.9650e+00	0.6924	-16.410813	0.000495	4.954755	0.839358	0.000050
  72	7.0645e+00	0.7001	-16.357451	0.000536	5.364239	0.908727	0.000054
  73	7.1640e+00	0.7123	-16.304497	0.000532	5.323291	0.901790	0.000053
  74	7.2635e+00	0.7206	-16.258467	0.000463	4.627168	0.783864	0.000046
  75	7.3630e+00	0.7310	-16.206327	0.000524	5.241394	0.887916	0.000052
  76	7.4625e+00	0.7424	-16.154187	0.000524	5.241394	0.887916	0.000052
  77	7.5620e+00	0.7507	-16.104084	0.000504	5.036652	0.853232	0.000050
  78	7.6615e+00	0.7616	-16.052352	0.000520	5.200446	0.880979	0.000052
  79	7.7610e+00	0.7718	-16.002248	0.000504	5.036652	0.853232	0.000050
  80	7.8605e+00	0.7816	-15.948887	0.000536	5.364239	0.908727	0.000054
  81	7.9600e+00	0.7935	-15.895525	0.000536	5.364239	0.908727	0.000054
  82	8.0595e+00	0.8022	-15.845829	0.000500	4.995704	0.846295	0.000050
  83	8.1590e+00	0.8143	-15.795726	0.000504	5.036652	0.853232	0.000050
  84	8.2585e+00	0.8191	-15.745623	0.000504	5.036652	0.853232	0.000050
  85	8.3580e+00	0.8286	-15.695927	0.000500	4.995704	0.846295	0.000050
  86	8.4575e+00	0.8432	-15.644194	0.000520	5.200446	0.880979	0.000052
  87	8.5570e+00	0.8507	-15.592462	0.000520	5.200446	0.880979	0.000052
  88	8.6565e+00	0.8582	-15.540729	0.000520	5.200446	0.880979	0.000052
  89	8.7560e+00	0.8734	-15.493478	0.000475	4.750013	0.804674	0.000047
  90	8.8555e+00	0.8813	-15.438486	0.000553	5.528033	0.936474	0.000055
  91	8.9550e+00	0.8904	-15.388791	0.000500	4.995704	0.846295	0.000050
  92	9.0545e+00	0.9029	-15.337058	0.000520	5.200446	0.880979	0.000052
  93	9.1540e+00	0.9127	-15.282067	0.000553	5.528033	0.936474	0.000055
  94	9.2535e+00	0.9211	-15.230742	0.000516	5.159497	0.874043	0.000052
  95	9.3530e+00	0.9314	-15.179009	0.000520	5.200446	0.880979	0.000052
  96	9.4525e+00	0.9433	-15.125240	0.000541	5.405188	0.915664	0.000054
  97	9.5520e+00	0.9528	-15.076766	0.000487	4.872859	0.825485	0.000049
  98	9.6515e+00	0.9606	-15.020960	0.000561	5.609930	0.950348	0.000056
  99	9.7510e+00	0.9724	-14.970042	0.000512	5.118549	0.867106	0.000051
 100	9.8505e+00	0.9801	-14.914237	0.000561	5.609930	0.950348	0.000056
 101	9.9500e+00	0.9908	-14.861282	0.000532	5.323291	0.901790	0.000053
 102	1.0050e+01	0.9999	-14.813216	0.000483	4.831910	0.818548	0.000048
 103	1.0149e+01	1.0099	-14.758632	0.000549	5.487085	0.929537	0.000055
 104	1.0248e+01	1.0196	-14.700789	0.000581	5.814672	0.985032	0.000058
 105	1.0348e+01	1.0291	-14.650686	0.000504	5.036652	0.853232	0.000050
 106	1.0447e+01	1.0411	-14.592029	0.000590	5.896568	0.998906	0.000059
 107	1.0547e+01	1.0528	-14.536223	0.000561	5.609930	0.950348	0.000056
 108	1.0646e+01	1.0585	-14.481639	0.000549	5.487085	0.929537	0.000055
 109	1.0746e+01	1.0708	-14.432758	0.000491	4.913807	0.832421	0.000049
 110	1.0845e+01	1.0824	-14.379396	0.000536	5.364239	0.908727	0.000054
 111	1.0945e+01	1.0916	-14.321960	0.000577	5.773723	0.978095	0.000058
 112	1.1044e+01	1.1016	-14.272265	0.000500	4.995704	0.846295	0.000050
 113	1.1144e+01	1.1112	-14.219717	0.000528	5.282343	0.894853	0.000053
 114	1.1243e+01	1.1205	-14.170429	0.000495	4.954755	0.839358	0.000050
 115	1.1343e+01	1.1294	-14.112586	0.000581	5.814672	0.985032	0.000058
 116	1.1443e+01	1.1414	-14.060039	0.000528	5.282343	0.894853	0.000053
 117	1.1542e+01	1.1507	-14.009121	0.000512	5.118549	0.867106	0.000051
 118	1.1642e+01	1.1600	-13.959833	0.000495	4.954755	0.839358	0.000050
 119	1.1741e+01	1.1699	-13.906878	0.000532	5.323291	0.901790	0.000053
 120	1.1841e+01	1.1804	-13.854331	0.000528	5.282343	0.894853	0.000053
 121	1.1940e+01	1.1893	-13.805043	0.000495	4.954755	0.839358	0.000050
 122	1.2040e+01	1.2031	-13.754940	0.000504	5.036652	0.853232	0.000050
 123	1.2139e+01	1.2086	-13.708095	0.000471	4.709065	0.797737	0.000047
 124	1.2239e+01	1.2206	-13.655141	0.000532	5.323291	0.901790	0.000053
 125	1.2338e+01	1.2301	-13.606260	0.000491	4.913807	0.832421	0.000049
 126	1.2438e+01	1.2418	-13.561859	0.000446	4.463375	0.756116	0.000045
 127	1.2537e+01	1.2487	-13.508090	0.000541	5.405188	0.915664	0.000054
 128	1.2636e+01	1.2610	-13.462060	0.000463	4.627168	0.783864	0.000046
 129	1.2736e+01	1.2701	-13.416031	0.000463	4.627168	0.783864	0.000046
 130	1.2835e+01	1.2781	-13.361854	0.000545	5.446136	0.922600	0.000054
 131	1.2935e+01	1.2877	-13.315417	0.000467	4.668117	0.790800	0.000047
 132	1.3034e+01	1.2968	-13.271017	0.000446	4.463375	0.756116	0.000045
 133	1.3134e+01	1.3098	-13.224172	0.000471	4.709065	0.797737	0.000047
 134	1.3233e+01	1.3198	-13.172847	0.000516	5.159497	0.874043	0.000052
 135	1.3333e+01	1.3290	-13.121522	0.000516	5.159497	0.874043	0.000052
 136	1.3432e+01	1.3395	-13.073863	0.000479	4.790962	0.811611	0.000048
 137	1.3532e+01	1.3522	-13.031907	0.000422	4.217684	0.714495	0.000042
 138	1.3632e+01	1.3593	-12.981803	0.000504	5.036652	0.853232	0.000050
 139	1.3731e+01	1.3673	-12.934144	0.000479	4.790962	0.811611	0.000048
 140	1.3831e+01	1.3770	-12.888522	0.000459	4.586220	0.776927	0.000046
 141	1.3930e+01	1.3887	-12.839234	0.000495	4.954755	0.839358	0.000050
 142	1.4030e+01	1.3988	-12.789945	0.000495	4.954755	0.839358	0.000050
 143	1.4129e+01	1.4084	-12.747581	0.000426	4.258633	0.721432	0.000043
 144	1.4229e+01	1.4227	-12.694627	0.000532	5.323291	0.901790	0.000053
 145	1.4328e+01	1.4273	-12.649412	0.000455	4.545272	0.769990	0.000045
 146	1.4428e+01	1.4388	-12.602160	0.000475	4.750013	0.804674	0.000047
 147	1.4527e+01	1.4458	-12.557353	0.000450	4.504323	0.763053	0.000045
 148	1.4627e+01	1.4572	-12.508471	0.000491	4.913807	0.832421	0.000049
 149	1.4726e+01	1.4678	-12.465700	0.000430	4.299581	0.728369	0.000043
 150	1.4825e+01	1.4767	-12.416412	0.000495	4.954755	0.839358	0.000050
 151	1.4925e+01	1.4870	-12.367531	0.000491	4.913807	0.832421	0.000049
 152	1.5024e+01	1.4981	-12.319872	0.000479	4.790962	0.811611	0.000048
 153	1.5124e+01	1.5092	-12.277508	0.000426	4.258633	0.721432	0.000043
 154	1.5223e+01	1.5186	-12.232700	0.000450	4.504323	0.763053	0.000045
 155	1.5323e+01	1.5282	-12.184634	0.000483	4.831910	0.818548	0.000048
 156	1.5422e+01	1.5359	-12.136160	0.000487	4.872859	0.825485	0.000049
 157	1.5522e+01	1.5484	-12.090945	0.000455	4.545272	0.769990	0.000045
 158	1.5621e+01	1.5585	-12.044508	0.000467	4.668117	0.790800	0.000047
 159	1.5721e+01	1.5677	-11.997256	0.000475	4.750013	0.804674	0.000047
 160	1.5820e+01	1.5784	-11.952856	0.000446	4.463375	0.756116	0.000045
 161	1.5920e+01	1.5888	-11.908456	0.000446	4.463375	0.756116	0.000045
 162	1.6020e+01	1.5971	-11.859575	0.000491	4.913807	0.832421	0.000049
 163	1.6119e+01	1.6077	-11.813952	0.000459	4.586220	0.776927	0.000046
 164	1.6218e+01	1.6164	-11.769959	0.000442	4.422426	0.749179	0.000044
 165	1.6318e+01	1.6267	-11.722708	0.000475	4.750013	0.804674	0.000047
 166	1.6418e+01	1.6379	-11.673827	0.000491	4.913807	0.832421	0.000049
 167	1.6517e+01	1.6473	-11.632685	0.000414	4.135788	0.700621	0.000041
 168	1.6616e+01	1.6566	-11.587877	0.000450	4.504323	0.763053	0.000045
 169	1.6716e+01	1.6659	-11.539403	0.000487	4.872859	0.825485	0.000049
 170	1.6816e+01	1.6752	-11.493781	0.000459	4.586220	0.776927	0.000046
 171	1.6915e+01	1.6889	-11.450195	0.000438	4.381478	0.742242	0.000044
 172	1.7015e+01	1.6976	-11.403351	0.000471	4.709065	0.797737	0.000047
 173	1.7114e+01	1.7100	-11.355692	0.000479	4.790962	0.811611	0.000048
 174	1.7213e+01	1.7178	-11.313736	0.000422	4.217684	0.714495	0.000042
 175	1.7313e+01	1.7265	-11.265669	0.000483	4.831910	0.818548	0.000048
 176	1.7413e+01	1.7358	-11.218010	0.000479	4.790962	0.811611	0.000048
 177	1.7512e+01	1.7461	-11.180535	0.000377	3.767252	0.638190	0.000038
 178	1.7611e+01	1.7569	-11.132468	0.000483	4.831910	0.818548	0.000048
 179	1.7711e+01	1.7672	-11.093363	0.000393	3.931046	0.665937	0.000039
 180	1.7811e+01	1.7746	-11.046112	0.000475	4.750013	0.804674	0.000047
 181	1.7910e+01	1.7866	-11.001304	0.000450	4.504323	0.763053	0.000045
 182	1.8009e+01	1.7956	-10.958940	0.000426	4.258633	0.721432	0.000043
 183	1.8109e+01	1.8092	-10.914540	0.000446	4.463375	0.756116	0.000045
 184	1.8209e+01	1.8172	-10.871362	0.000434	4.340530	0.735306	0.000043
 185	1.8308e+01	1.8294	-10.831849	0.000397	3.971994	0.672874	0.000040
 186	1.8407e+01	1.8340	-10.786227	0.000459	4.586220	0.776927	0.000046
 187	1.8507e+01	1.8430	-10.745493	0.000409	4.094839	0.693685	0.000041
 188	1.8607e+01	1.8586	-10.704759	0.000409	4.094839	0.693685	0.000041
 189	1.8706e+01	1.8684	-10.662395	0.000426	4.258633	0.721432	0.000043
 190	1.8805e+01	1.8760	-10.619624	0.000430	4.299581	0.728369	0.000043
 191	1.8905e+01	1.8873	-10.581741	0.000381	3.808200	0.645127	0.000038
 192	1.9005e+01	1.8941	-10.538563	0.000434	4.340530	0.735306	0.000043
 193	1.9104e+01	1.9068	-10.496607	0.000422	4.217684	0.714495	0.000042
 194	1.9203e+01	1.9161	-10.453021	0.000438	4.381478	0.742242	0.000044
 195	1.9303e+01	1.9258	-10.412287	0.000409	4.094839	0.693685	0.000041
 196	1.9402e+01	1.9369	-10.365442	0.000471	4.709065	0.797737	0.000047
 197	1.9502e+01	1.9470	-10.327152	0.000385	3.849149	0.652063	0.000038
 198	1.9602e+01	1.9556	-10.288047	0.000393	3.931046	0.665937	0.000039
 199	1.9701e+01	1.9675	-10.242017	0.000463	4.627168	0.783864	0.000046
 200	1.9800e+01	1.9765	-10.196802	0.000455	4.545272	0.769990	0.000045
 201	1.9900e+01	1.9854	-10.156068	0.000409	4.094839	0.693685	0.000041
 202	2.0000e+01	1.9952	-10.110853	0.000455	4.545272	0.769990	0.000045
 203	2.0099e+01	2.0026	-10.066860	0.000442	4.422426	0.749179	0.000044
 204	2.0198e+01	2.0147	-10.022460	0.000446	4.463375	0.756116	0.000045
 205	2.0298e+01	2.0229	-9.977245	0.000455	4.545272	0.769990	0.000045
 206	2.0398e+01	2.0361	-9.927549	0.000500	4.995704	0.846295	0.000050
 207	2.0497e+01	2.0490	-9.884778	0.000430	4.299581	0.728369	0.000043
 208	2.0596e+01	2.0551	-9.839563	0.000455	4.545272	0.769990	0.000045
 209	2.0696e+01	2.0668	-9.796792	0.000430	4.299581	0.728369	0.000043
 210	2.0796e+01	2.0779	-9.749133	0.000479	4.790962	0.811611	0.000048
 211	2.0895e+01	2.0866	-9.701881	0.000475	4.750013	0.804674	0.000047
 212	2.0994e+01	2.0950	-9.659110	0.000430	4.299581	0.728369	0.000043
 213	2.1094e+01	2.1062	-9.613081	0.000463	4.627168	0.783864	0.000046
 214	2.1194e+01	2.1130	-9.566236	0.000471	4.709065	0.797737	0.000047
 215	2.1293e+01	2.1250	-9.518577	0.000479	4.790962	0.811611	0.000048
 216	2.1392e+01	2.1329	-9.470918	0.000479	4.790962	0.811611	0.000048
 217	2.1492e+01	2.1449	-9.425703	0.000455	4.545272	0.769990	0.000045
 218	2.1591e+01	2.1553	-9.382117	0.000438	4.381478	0.742242	0.000044
 219	2.1691e+01	2.1664	-9.335680	0.000467	4.668117	0.790800	0.000047
 220	2.1791e+01	2.1757	-9.288021	0.000479	4.790962	0.811611	0.000048
 221	2.1890e+01	2.1856	-9.244028	0.000442	4.422426	0.749179	0.000044
 222	2.1989e+01	2.1967	-9.197184	0.000471	4.709065	0.797737	0.000047
 223	2.2089e+01	2.2043	-9.151154	0.000463	4.627168	0.783864	0.000046
 224	2.2189e+01	2.2147	-9.105939	0.000455	4.545272	0.769990	0.000045
 225	2.2288e+01	2.2234	-9.060317	0.000459	4.586220	0.776927	0.000046
 226	2.2387e+01	2.2335	-9.011436	0.000491	4.913807	0.832421	0.000049
 227	2.2487e+01	2.2437	-8.968257	0.000434	4.340530	0.735306	0.000043
 228	2.2587e+01	2.2556	-8.923042	0.000455	4.545272	0.769990	0.000045
 229	2.2686e+01	2.2627	-8.874976	0.000483	4.831910	0.818548	0.000048
 230	2.2785e+01	2.2744	-8.827724	0.000475	4.750013	0.804674	0.000047
 231	2.2885e+01	2.2851	-8.780472	0.000475	4.750013	0.804674	0.000047
 232	2.2985e+01	2.2920	-8.736072	0.000446	4.463375	0.756116	0.000045
 233	2.3084e+01	2.3046	-8.686376	0.000500	4.995704	0.846295	0.000050
 234	2.3183e+01	2.3156	-8.640754	0.000459	4.586220	0.776927	0.000046
 235	2.3283e+01	2.3248	-8.591465	0.000495	4.954755	0.839358	0.000050
 236	2.3383e+01	2.3362	-8.545028	0.000467	4.668117	0.790800	0.000047
 237	2.3482e+01	2.3452	-8.499813	0.000455	4.545272	0.769990	0.000045
 238	2.3581e+01	2.3553	-8.453784	0.000463	4.627168	0.783864	0.000046
 239	2.3681e+01	2.3662	-8.409791	0.000442	4.422426	0.749179	0.000044
 240	2.3780e+01	2.3719	-8.358873	0.000512	5.118549	0.867106	0.000051
 241	2.3880e+01	2.3839	-8.314472	0.000446	4.463375	0.756116	0.000045
 242	2.3980e+01	2.3962	-8.265591	0.000491	4.913807	0.832421	0.000049
 243	2.4079e+01	2.4034	-8.220376	0.000455	4.545272	0.769990	0.000045
 244	2.4178e+01	2.4120	-8.173939	0.000467	4.668117	0.790800	0.000047
 245	2.4278e+01	2.4239	-8.126280	0.000479	4.790962	0.811611	0.000048
 246	2.4378e+01	2.4306	-8.079028	0.000475	4.750013	0.804674	0.000047
 247	2.4477e+01	2.4442	-8.036665	0.000426	4.258633	0.721432	0.000043
 248	2.4576e+01	2.4529	-7.984118	0.000528	5.282343	0.894853	0.000053
 249	2.4676e+01	2.4625	-7.942976	0.000414	4.135788	0.700621	0.000041
 250	2.4776e+01	2.4758	-7.895317	0.000479	4.790962	0.811611	0.000048
 251	2.4875e+01	2.4818	-7.846843	0.000487	4.872859	0.825485	0.000049
 252	2.4974e+01	2.4925	-7.802850	0.000442	4.422426	0.749179	0.000044
 253	2.5074e+01	2.5029	-7.756821	0.000463	4.627168	0.783864	0.000046
 254	2.5174e+01	2.5130	-7.712013	0.000450	4.504323	0.763053	0.000045
 255	2.5273e+01	2.5237	-7.667205	0.000450	4.504323	0.763053	0.000045
 256	2.5372e+01	2.5340	-7.617917	0.000495	4.954755	0.839358	0.000050
 257	2.5472e+01	2.5445	-7.569036	0.000491	4.913807	0.832421	0.000049
 258	2.5572e+01	2.5547	-7.528301	0.000409	4.094839	0.693685	0.000041
 259	2.5671e+01	2.5623	-7.478606	0.000500	4.995704	0.846295	0.000050
 260	2.5770e+01	2.5737	-7.434205	0.000446	4.463375	0.756116	0.000045
 261	2.5870e+01	2.5842	-7.386139	0.000483	4.831910	0.818548	0.000048
 262	2.5970e+01	2.5909	-7.336443	0.000500	4.995704	0.846295	0.000050
