»»»»»»»»»»»»»»»»»»»»»»»»»»»»»»»»»»»» Hysteresis ««««««««««««««««««««««««««««««««««««
»»»  Executed Version:	5.48.1
»»»  Vision Version:	5.48.4 (R)
»»»  Vision Compiled:	9/18/24
»»»  Driver Version:	5.47.0
»»»  Windows Version:	Windows 8 or 8.1
»»»  Processor Information:	x86 (AMD or Intel) - 32 Processors
»»»  Tester Name:	PMF21124-494 (100V)
»»»  Tester S/N:	PMF21124-494
»»»  Internal Amp Type:	100V RevK 270k
»»»  Internal Amp S/N:	iAB2-596/K     
»»»  Execution Count:	1
»»»»»»»»»»»»»»»»»»»»»»»»»»»»»»»»»»»»»»»»»»««««««««««««««««««««««««««««««««««««««««««

Stored:	6/27/2025 - 15:19:30
Configured:	06/27/25 11:23:28 AM
Executed:	06/27/25 03:18:25 PM

»»»»»»»»»»»»»»»»»»»»»»»»»»»»»»»»»»» Sample Info ««««««««««««««««««««««««««««««««««««
Sample Name:	
Lot Name:	
Wafer Name:	
Die Row/Column:	0/0
Capacitor Number:	0
Sample Area (cm2):	1.00e-04
Sample Thickness (microns):	1.50e-01

Amplifier:	Internal

»»»»»»»»»»»»»»»»»»»»»»»»»»»»»»»»»»» Tester Info «««««««««««««««««««««««««««««««««««
Tester Name:	PMF21124-494 (100V)
Tester Serial Number:	PMF21124-494
Return Signal Amp. Level:	0.2 [Index: 1]

»»»»»»»»»»»»»»»»»»»»»»»»»»»»»»»» Hysteresis Info ««««««««««««««««««««««««««««««««««
Task Name:	Hyst-1276
Volts:	10.00
Field:	666.67 (kV/cm)
DCBias:	0.00
DCField:	0.00 (kV/cm)
Hysteresis Period (ms):	1.00e-02
Preset:	Enabled
Preset Delay (ms):	1.00e+03
Profile:	Standard Monopolar

»»»»»»»»»»»»»»»»»»»»»»»»»»»»»»»»»»»»»» Data «««««««««««««««««««««««««««««««««««««««
Points:	101

Valid Data

Point	Time (ms)	Drive Voltage	Measured Polarization (uC/cm2)	Capacitance (uF)	Normalized Capacitance (uF/cm2)	Dielectric Constant	Instantaneous Current (mA)
   1	0.0000e+00	0.1513	-14.492434	0.000432	4.317131	0.731342	0.851961
   2	1.0000e-04	0.3499	-13.640473	0.000432	4.317131	0.731342	0.851961
   3	2.0000e-04	0.5307	-12.224180	0.000718	7.176768	1.215777	1.416294
   4	3.0000e-04	0.7635	-11.572466	0.000330	3.302420	0.559445	0.651714
   5	4.0000e-04	0.9500	-11.146486	0.000216	2.158565	0.365671	0.425980
   6	5.0000e-04	1.1465	-10.527540	0.000314	3.136377	0.531317	0.618946
   7	6.0000e-04	1.3492	-9.529945	0.000506	5.055102	0.856357	0.997595
   8	7.0000e-04	1.5468	-8.772647	0.000384	3.837449	0.650082	0.757298
   9	8.0000e-04	1.7538	-8.284772	0.000247	2.472203	0.418803	0.487875
  10	9.0000e-04	1.9492	-7.629417	0.000332	3.320870	0.562571	0.655354
  11	1.0000e-03	2.1451	-6.853915	0.000393	3.929696	0.665708	0.775503
  12	1.1000e-03	2.3520	-6.151229	0.000356	3.560710	0.603201	0.702686
  13	1.2000e-03	2.5540	-5.546847	0.000306	3.062580	0.518815	0.604382
  14	1.3000e-03	2.7457	-4.891492	0.000332	3.320870	0.562571	0.655354
  15	1.4000e-03	2.9501	-4.243420	0.000328	3.283971	0.556320	0.648073
  16	1.5000e-03	3.1516	-3.617192	0.000317	3.173275	0.537567	0.626228
  17	1.6000e-03	3.3482	-2.983683	0.000321	3.210174	0.543818	0.633509
  18	1.7000e-03	3.5526	-2.422991	0.000284	2.841188	0.481310	0.560692
  19	1.8000e-03	3.7540	-1.774918	0.000328	3.283971	0.556320	0.648073
  20	1.9000e-03	3.9481	-1.101359	0.000341	3.413116	0.578198	0.673559
  21	2.0000e-03	4.1544	-0.606203	0.000251	2.509101	0.425053	0.495157
  22	2.1000e-03	4.3484	-0.030947	0.000291	2.914986	0.493812	0.575256
  23	2.2000e-03	4.5535	0.555231	0.000297	2.970333	0.503188	0.586178
  24	2.3000e-03	4.7525	1.163254	0.000308	3.081029	0.521940	0.608023
  25	2.4000e-03	4.9521	1.702101	0.000273	2.730493	0.462558	0.538847
  26	2.5000e-03	5.1535	2.321047	0.000314	3.136377	0.531317	0.618946
  27	2.6000e-03	5.3500	2.907225	0.000297	2.970333	0.503188	0.586178
  28	2.7000e-03	5.5533	3.376896	0.000238	2.379957	0.403176	0.469671
  29	2.8000e-03	5.7516	3.904820	0.000268	2.675145	0.453182	0.527924
  30	2.9000e-03	5.9476	4.487357	0.000295	2.951884	0.500063	0.582537
  31	3.0000e-03	6.1526	5.000718	0.000260	2.601348	0.440680	0.513361
  32	3.1000e-03	6.3550	5.488593	0.000247	2.472203	0.418803	0.487875
  33	3.2000e-03	6.5482	6.078412	0.000299	2.988783	0.506313	0.589819
  34	3.3000e-03	6.7532	6.518956	0.000223	2.232362	0.378172	0.440544
  35	3.4000e-03	6.9493	7.050521	0.000269	2.693594	0.456307	0.531565
  36	3.5000e-03	7.1512	7.593009	0.000275	2.748942	0.465683	0.542488
  37	3.6000e-03	7.3538	8.026271	0.000220	2.195464	0.371922	0.433262
  38	3.7000e-03	7.5540	8.576040	0.000279	2.785841	0.471934	0.549770
  39	3.8000e-03	7.7493	9.074838	0.000253	2.527551	0.428179	0.498798
  40	3.9000e-03	7.9523	9.460769	0.000196	1.955623	0.331292	0.385931
  41	4.0000e-03	8.1516	10.006897	0.000277	2.767391	0.468809	0.546129
  42	4.1000e-03	8.3481	10.494772	0.000247	2.472203	0.418803	0.487875
  43	4.2000e-03	8.5568	10.928034	0.000220	2.195464	0.371922	0.433262
  44	4.3000e-03	8.7479	11.404987	0.000242	2.416855	0.409426	0.476952
  45	4.4000e-03	8.9542	11.885580	0.000244	2.435304	0.412552	0.480593
  46	4.5000e-03	9.1455	12.326124	0.000223	2.232362	0.378172	0.440544
  47	4.6000e-03	9.3484	12.726618	0.000203	2.029420	0.343793	0.400494
  48	4.7000e-03	9.5468	13.254542	0.000268	2.675145	0.453182	0.527924
  49	4.8000e-03	9.7488	13.669600	0.000210	2.103217	0.356295	0.415058
  50	4.9000e-03	9.9423	14.102862	0.000220	2.195464	0.371922	0.433262
  51	5.0000e-03	9.8465	14.492434	-0.000197	-1.974072	-0.334417	0.389572
  52	5.1000e-03	9.6402	13.560374	0.000472	4.723015	0.800100	-0.932060
  53	5.2000e-03	9.4376	12.788513	0.000391	3.911246	0.662583	-0.771862
  54	5.3000e-03	9.2294	13.021528	-0.000118	-1.180754	-0.200025	0.233015
  55	5.4000e-03	9.0482	12.438990	0.000295	2.951884	0.500063	-0.582537
  56	5.5000e-03	8.8364	11.652565	0.000399	3.985044	0.675085	-0.786425
  57	5.6000e-03	8.6337	11.510572	0.000072	0.719522	0.121890	-0.141993
  58	5.7000e-03	8.4464	11.164690	0.000175	1.752681	0.296912	-0.345881
  59	5.8000e-03	8.2462	10.462005	0.000356	3.560710	0.603201	-0.702686
  60	5.9000e-03	8.0365	10.068792	0.000199	1.992522	0.337542	-0.393213
  61	6.0000e-03	7.8384	9.744756	0.000164	1.641986	0.278160	-0.324036
  62	6.1000e-03	7.6450	9.194986	0.000279	2.785841	0.471934	-0.549770
  63	6.2000e-03	7.4326	8.670703	0.000266	2.656696	0.450056	-0.524284
  64	6.3000e-03	7.2412	8.244722	0.000216	2.158565	0.365671	-0.425980
  65	6.4000e-03	7.0438	7.778692	0.000236	2.361507	0.400050	-0.466030
  66	6.5000e-03	6.8408	7.243486	0.000271	2.712044	0.459433	-0.535206
  67	6.6000e-03	6.6415	6.722844	0.000264	2.638246	0.446931	-0.520643
  68	6.7000e-03	6.4383	6.304145	0.000212	2.121667	0.359420	-0.418699
  69	6.8000e-03	6.2363	5.747094	0.000282	2.822739	0.478185	-0.557051
  70	6.9000e-03	6.0458	5.190043	0.000282	2.822739	0.478185	-0.557051
  71	7.0000e-03	5.8383	4.764062	0.000216	2.158565	0.365671	-0.425980
  72	7.1000e-03	5.6396	4.225215	0.000273	2.730493	0.462558	-0.538847
  73	7.2000e-03	5.4434	3.628115	0.000303	3.025681	0.512564	-0.597101
  74	7.3000e-03	5.2390	3.154803	0.000240	2.398406	0.406301	-0.473312
  75	7.4000e-03	5.0375	2.583189	0.000290	2.896536	0.490687	-0.571615
  76	7.5000e-03	4.8447	2.047982	0.000271	2.712044	0.459433	-0.535206
  77	7.6000e-03	4.6402	1.527340	0.000264	2.638246	0.446931	-0.520643
  78	7.7000e-03	4.4412	0.988493	0.000273	2.730493	0.462558	-0.538847
  79	7.8000e-03	4.2429	0.322216	0.000338	3.376217	0.571947	-0.666277
  80	7.9000e-03	4.0405	-0.231194	0.000280	2.804290	0.475060	-0.553410
  81	8.0000e-03	3.8431	-0.795527	0.000286	2.859638	0.484436	-0.564333
  82	8.1000e-03	3.6368	-1.388987	0.000301	3.007232	0.509439	-0.593460
  83	8.2000e-03	3.4445	-2.062546	0.000341	3.413116	0.578198	-0.673559
  84	8.3000e-03	3.2416	-2.601393	0.000273	2.730493	0.462558	-0.538847
  85	8.4000e-03	3.0444	-3.216698	0.000312	3.117928	0.528191	-0.615305
  86	8.5000e-03	2.8479	-3.875693	0.000334	3.339319	0.565696	-0.658995
  87	8.6000e-03	2.6407	-4.531047	0.000332	3.320870	0.562571	-0.655354
  88	8.7000e-03	2.4393	-5.160916	0.000319	3.191725	0.540693	-0.629868
  89	8.8000e-03	2.2449	-5.852679	0.000351	3.505362	0.593824	-0.691763
  90	8.9000e-03	2.0456	-6.475265	0.000315	3.154826	0.534442	-0.622587
  91	9.0000e-03	1.8407	-7.177951	0.000356	3.560710	0.603201	-0.702686
  92	9.1000e-03	1.6454	-7.873355	0.000352	3.523812	0.596950	-0.695404
  93	9.2000e-03	1.4407	-8.550554	0.000343	3.431565	0.581323	-0.677200
  94	9.3000e-03	1.2407	-9.242317	0.000351	3.505362	0.593824	-0.691763
  95	9.4000e-03	1.0473	-9.992334	0.000380	3.800551	0.643831	-0.750017
  96	9.5000e-03	0.8442	-10.705942	0.000362	3.616058	0.612577	-0.713608
  97	9.6000e-03	0.6459	-11.397705	0.000351	3.505362	0.593824	-0.691763
  98	9.7000e-03	0.4491	-12.173208	0.000393	3.929696	0.665708	-0.775503
  99	9.8000e-03	0.2440	-12.985119	0.000411	4.114188	0.696962	-0.811911
 100	9.9000e-03	0.0473	-13.727854	0.000376	3.763652	0.637580	-0.742735
 101	1.0000e-02	-0.0011	-14.437821	0.000376	3.763652	0.637580	-0.709967

PMax (uC/cm2):	2.86e+01
Pr (uC/cm2):	1.06e-01
-Pr (uC/cm2):	0.00e+00
PLoss (uC/cm2):	0.00e+00
C (Max-Eff) (nF):	2.88e-01
K (Eff):	4.88e+02
Vert. (+/-Pr) Shift (uC/cm2):	5.28e-02
Offset (uC/cm2):	1.45e+01

A (Loop Area - uC/cm2·Volts):	1.10e-01



Hysteresis Version: 5.48.1 - Radiant Technologies, Inc., 1999 - 9/12/24

